timestamp,TP9,AF7,AF8,TP10
1000.000000,-11.344866,0.516932,-3.006132,-3.688330
1000.003906,-5.399999,7.442122,9.485573,8.058026
1000.007812,4.732846,10.612232,7.312675,4.768652
1000.011719,1.603286,12.146391,7.713511,7.324016
1000.015625,4.379141,6.712004,12.009244,10.443279
1000.019531,15.305945,4.314997,7.483558,10.333303
1000.023438,4.232963,5.917628,18.999962,17.644904
1000.027344,6.802974,12.328532,16.804298,12.145176
1000.031250,7.573627,6.348256,10.562670,9.380921
1000.035156,10.924706,4.802933,1.747602,10.405411
1000.039062,1.063191,8.318748,15.167048,5.631267
1000.042969,0.318728,0.703705,-2.013854,-3.042456
1000.046875,2.693623,-1.184610,4.172533,1.084611
1000.050781,-0.534842,-2.548488,0.032883,-3.741661
1000.054688,6.694233,-3.773734,2.188909,-4.926375
1000.058594,-0.117667,-4.287944,-8.700392,-7.487480
1000.062500,-8.796117,-3.912063,-12.824005,-6.366325
1000.066406,-12.511062,-11.337895,0.930549,-1.043132
1000.070312,-5.445497,-11.618398,-13.390103,-11.666836
1000.074219,-12.437744,-11.849286,-6.836746,-11.530074
1000.078125,-10.646351,-8.171776,-9.015172,-15.269456
1000.082031,-9.592647,-12.749096,-4.889308,-10.809264
1000.085938,-13.856171,-8.423336,-12.488352,-9.221006
1000.089844,-4.935708,-7.052987,-1.572800,-7.208246
1000.093750,-5.584630,-4.708700,-0.867944,-3.262407
1000.097656,-0.772050,1.730626,3.117118,1.121165
1000.101562,4.844146,-1.571213,-1.907726,2.292339
1000.105469,6.277850,0.846417,4.178967,11.227583
1000.109375,7.101140,13.889065,0.721402,3.548760
1000.113281,2.823310,9.100040,4.035703,13.922756
1000.117188,5.375498,1.638193,7.480910,10.077503
1000.121094,9.805863,11.271466,10.316765,11.272201
1000.125000,9.237531,12.535572,10.470464,12.786475
1000.128906,13.602574,13.440472,8.044391,14.950442
1000.132812,13.097293,15.653522,6.531475,15.799719
1000.136719,11.591487,10.904194,12.618988,16.629089
1000.140625,7.525427,6.259526,12.131551,0.264872
1000.144531,5.062688,4.640552,0.855191,1.494589
1000.148438,4.694169,-7.347316,3.145419,-3.782639
1000.152344,-1.900113,0.116424,-5.775956,0.901666
1000.156250,-0.607408,-5.717917,3.022881,2.908357
1000.160156,-4.141200,-14.914703,-8.429148,-7.266016
1000.164062,-7.327632,-4.603806,-16.205834,-14.482473
1000.167969,-10.974609,-1.641411,-10.306921,-10.370557
1000.171875,-10.481231,-11.366511,-10.570358,-14.153015
1000.175781,-8.712277,-10.998540,-5.308567,-8.051546
1000.179688,-15.489537,-9.026660,-14.795514,-12.285553
1000.183594,-13.240213,-6.437878,-5.058990,-16.787777
1000.187500,-14.693692,-6.143436,-18.849826,-2.282264
1000.191406,-3.841224,-4.304116,-2.922796,-8.750302
1000.195312,2.386748,1.622727,-7.122236,-2.885812
1000.199219,3.678711,0.891057,-3.705756,-6.655286
1000.203125,-3.839168,-2.721123,-2.866811,6.025304
1000.207031,3.831315,3.455216,1.817785,8.629702
1000.210938,2.792930,0.477971,10.684170,6.546153
1000.214844,1.695638,10.112807,4.258807,5.860681
1000.218750,11.744568,12.395542,6.372424,9.467408
1000.222656,13.488506,7.891985,10.770361,11.904683
1000.226562,16.307863,11.510156,13.893006,13.726620
1000.230469,2.193381,8.253250,4.745391,5.071999
1000.234375,10.028989,8.496629,0.587727,13.765011
1000.238281,12.833004,12.481607,6.034369,-4.036329
1000.242188,2.408764,-2.878345,-1.915411,9.422476
1000.246094,1.300268,0.127655,2.825315,1.654588
1000.250000,9.244668,-0.690829,-0.980520,4.399014
1000.253906,-3.396137,-4.496734,-2.532003,2.812893
1000.257812,-0.503452,-3.444550,-0.750111,-6.561237
1000.261719,-7.888948,-9.036458,-9.571586,-1.041029
1000.265625,0.237221,-1.265366,-8.326179,-15.293547
1000.269531,-8.935264,-5.908354,-9.489055,-14.170138
1000.273438,-4.252583,3.547319,-2.954977,-13.935327
1000.277344,-13.180293,-17.953228,-12.247812,-13.094587
1000.281250,-3.911889,-6.710730,-11.395429,-8.986948
1000.285156,-6.538845,-4.371768,-2.390856,-3.770783
1000.289062,-6.708863,-7.649904,0.443780,-1.383353
1000.292969,-1.308614,-3.632065,5.232956,-6.761067
1000.296875,-3.996281,-2.790373,0.069373,-6.247772
1000.300781,0.858128,-3.373223,1.136757,1.808007
1000.304688,6.556680,1.086302,5.350075,3.242154
1000.308594,4.012317,10.418799,12.027099,3.805535
1000.312500,0.440278,5.533768,4.907149,8.673265
1000.316406,15.207874,8.212798,-1.189329,7.018642
1000.320312,10.872559,7.181027,12.899168,14.405851
1000.324219,13.637563,7.557961,12.593499,7.734849
1000.328125,14.414880,10.907927,15.331898,9.531086
1000.332031,14.891833,15.057472,13.123550,4.434411
1000.335938,5.346881,5.573325,-2.554086,2.651376
1000.339844,8.657633,9.912530,12.245850,7.356185
1000.343750,7.394128,8.382504,3.069012,0.490233
1000.347656,1.756071,8.318279,2.164306,0.975066
1000.351562,0.775292,1.433710,-1.942476,-9.031234
1000.355469,-0.586384,-3.972162,-4.335206,-3.715386
1000.359375,-4.328111,-3.469853,-7.861783,-5.749563
1000.363281,-7.599985,-7.616018,-6.507394,-3.386780
1000.367188,-11.638601,-9.496200,-15.366524,-8.569125
1000.371094,-12.260144,-4.171094,-10.447412,-10.527824
1000.375000,-5.428102,-10.868733,-11.388728,-6.176159
1000.378906,-5.993648,-7.937143,-10.298983,-9.936875
1000.382812,-10.418447,-1.970281,-5.363415,-6.283444
1000.386719,-7.032086,-5.323629,-2.831320,-6.703767
1000.390625,-1.540735,2.245914,-11.117507,-4.140136
1000.394531,0.665510,-5.411632,-7.160209,-9.796299
1000.398438,-6.019451,14.582376,-0.951622,-7.961783
1000.402344,-2.666132,6.786257,3.345509,-1.863273
1000.406250,4.535597,-1.598648,8.021470,-3.035973
1000.410156,8.080060,3.929809,0.224976,6.002454
1000.414062,13.034158,13.201881,5.479780,4.384641
1000.417969,4.927617,6.630476,5.379460,13.169629
1000.421875,8.467312,11.679742,7.396991,9.657770
1000.425781,11.109178,13.557164,15.115235,3.453460
1000.429688,5.763939,13.250877,8.607425,15.570156
1000.433594,6.102304,-2.740853,18.762752,5.712318
1000.437500,4.318284,0.827341,8.551738,7.459254
1000.441406,7.364039,4.403793,6.588672,1.495539
1000.445312,7.560440,-2.774017,9.091908,10.779072
1000.449219,-7.493026,-1.953303,3.326592,-5.865874
1000.453125,0.342928,6.993118,-9.422473,-1.105239
1000.457031,-2.199777,-4.664334,-6.537501,-7.292342
1000.460938,-3.392920,-4.014734,-4.939611,-11.726973
1000.464844,-9.734156,-6.759343,-6.373036,-9.947871
1000.468750,-9.625126,-10.442760,-9.978182,-6.132735
1000.472656,-7.367202,-11.108122,-8.244242,-10.999524
1000.476562,-9.245743,-6.013889,-15.185472,-4.584673
1000.480469,-10.125364,-14.324860,-9.564608,-11.818975
1000.484375,-14.414678,-6.222114,-7.413997,-4.472085
1000.488281,-5.767767,-2.336100,0.826348,-2.275593
1000.492188,-2.928861,-8.404878,-13.019379,-6.584031
1000.496094,-4.650200,-0.965136,-2.256220,-0.739273
1000.500000,-1.085472,5.070703,-3.745318,3.993891
1000.503906,1.102505,9.534103,3.095933,2.629168
1000.507812,5.133478,6.434826,0.837520,8.821371
1000.511719,9.323508,-0.349770,-0.434591,14.218846
1000.515625,-1.576814,11.202126,7.943609,1.544058
1000.519531,13.444211,19.979691,6.618754,5.175366
1000.523438,8.896357,15.098425,3.327439,10.057480
1000.527344,3.393148,16.273010,10.223120,10.711873
1000.531250,8.291695,9.927721,12.818003,13.455821
1000.535156,9.907861,5.301725,12.826974,9.234092
1000.539062,8.820601,-2.283708,8.952438,8.106248
1000.542969,8.031995,-1.982095,5.822206,-2.920392
1000.546875,-2.436671,1.448567,7.262627,2.584137
1000.550781,-0.797714,-4.550979,4.294413,1.663735
1000.554688,-3.733859,-1.962958,5.590796,-4.874551
1000.558594,-8.011845,-8.109433,-7.630639,-4.363888
1000.562500,-0.416261,-7.966243,-4.956159,-6.729183
1000.566406,-0.827714,-15.316863,-9.532731,-15.674354
1000.570312,-13.610850,-11.261444,-4.439693,-13.831349
1000.574219,-7.359993,-14.376783,-8.067613,-5.951724
1000.578125,-5.773830,-8.694118,-9.074151,-9.053031
1000.582031,-6.725484,-6.409444,-10.815522,-17.883506
1000.585938,-12.448065,-11.550309,-9.093179,-3.274119
1000.589844,-10.145176,-15.738001,-3.021141,-7.631976
1000.593750,-5.452912,-3.740957,-8.374121,-3.819642
1000.597656,-0.054093,-2.430185,1.437321,-2.930011
1000.601562,0.106548,4.316625,-1.286961,4.976854
1000.605469,4.749843,5.281607,3.517257,0.103174
1000.609375,1.041804,11.963041,14.479344,5.172157
1000.613281,9.023421,13.715273,9.229464,4.681691
1000.617188,8.225655,14.629035,4.292683,11.444126
1000.621094,4.874403,9.839852,13.368411,0.444737
1000.625000,12.295901,6.922903,8.126459,8.364113
1000.628906,10.942618,12.599848,15.708743,13.916564
1000.632812,11.131644,9.736399,13.666252,10.580433
1000.636719,7.770552,4.147761,7.185079,12.070311
1000.640625,17.678571,12.311178,9.083848,8.311492
1000.644531,3.358852,5.905659,0.855981,-2.117998
1000.648438,13.710599,6.177244,-3.804228,-7.501621
1000.652344,-1.718663,-2.214417,1.422709,0.672702
1000.656250,-7.679640,-0.200509,-1.040844,-6.000078
1000.660156,-13.230970,-13.518909,-6.795365,-8.140419
1000.664062,-12.435358,-4.891158,-10.784008,-9.896968
1000.667969,-14.228424,-15.566343,-8.587532,-5.083562
1000.671875,-10.533461,-6.189151,-8.774917,-2.133638
1000.675781,-8.008541,-0.655877,-7.380973,-4.246143
1000.679688,-9.002917,-13.478764,-13.852475,-8.030093
1000.683594,-1.528834,-9.530315,-9.109180,-9.229015
1000.687500,-6.172763,-13.436022,-11.067046,-11.051965
1000.691406,-3.106996,-2.228724,-6.414277,-5.409318
1000.695312,-5.383694,0.406123,0.146946,-0.885139
1000.699219,1.325775,-4.757837,-2.468299,0.123146
1000.703125,2.521321,-2.306454,4.933430,9.088009
1000.707031,3.076954,6.246619,7.599281,8.384537
1000.710938,10.671396,3.533657,8.428224,6.900733
1000.714844,1.967202,5.721943,9.264700,6.101699
1000.718750,13.089846,11.577162,9.699927,11.347544
1000.722656,11.448714,10.873719,2.870862,7.055768
1000.726562,8.845888,5.397539,10.599778,12.208794
1000.730469,15.427500,11.092659,11.634374,3.480747
1000.734375,1.524157,15.340234,7.713392,3.579346
1000.738281,10.296127,10.468530,2.440017,3.686996
1000.742188,0.996467,2.969912,6.092419,1.990188
1000.746094,-1.492152,3.784110,-3.340457,2.320660
1000.750000,-1.284146,1.974364,0.944079,-0.287898
1000.753906,-3.678058,-11.031538,-0.920715,7.316055
1000.757812,-4.309878,-9.625679,-1.219044,-2.354399
1000.761719,-0.572374,-2.287960,-9.762675,-1.527133
1000.765625,-9.930999,-10.784256,-15.216440,-11.645412
1000.769531,-12.170453,-8.393337,-3.595558,-11.199760
1000.773438,-12.808885,-12.123438,-8.275608,-8.726514
1000.777344,-12.462520,-9.297715,-3.977565,-10.170283
1000.781250,-15.256548,-7.246717,-16.161644,-11.273230
1000.785156,-10.331919,-8.476380,-2.427639,-10.527148
1000.789062,-4.852585,-8.288238,-12.811250,-8.512494
1000.792969,-4.516066,-0.498870,0.602745,-0.777172
1000.796875,-6.323827,-6.836404,-3.320182,2.660259
1000.800781,-4.178661,-0.431368,-1.289936,0.495595
1000.804688,5.720346,2.987013,1.743703,1.849117
1000.808594,8.640788,6.110985,3.704728,5.618953
1000.812500,6.935400,12.242012,1.833664,1.087668
1000.816406,10.208894,9.359469,12.443841,9.709268
1000.820312,13.068766,9.835481,9.096618,13.474201
1000.824219,10.841357,9.101121,8.227126,6.860264
1000.828125,14.985938,8.603464,8.779941,8.445244
1000.832031,8.614735,9.463631,8.279685,9.382374
1000.835938,9.761643,5.550337,4.164833,0.486245
1000.839844,13.204295,6.324922,6.645483,8.579892
1000.843750,0.084835,7.271535,9.322990,2.954031
1000.847656,3.369706,2.481089,1.761274,5.562382
1000.851562,2.449507,-1.951331,-2.746771,-1.717084
1000.855469,1.434646,-5.842674,-5.476858,-11.055062
1000.859375,-1.106617,-0.878851,-7.554924,1.492570
1000.863281,-11.470880,-6.136688,-14.529327,-11.837641
1000.867188,-7.815807,-9.279429,-4.906056,-6.003831
1000.871094,-5.108495,-1.197030,-8.414923,-7.880415
1000.875000,-13.503199,-17.863709,-8.034797,-5.970438
1000.878906,-5.216517,-15.904863,-13.354940,-12.231496
1000.882812,-4.405795,-6.123142,-8.461487,-8.254408
1000.886719,-10.980519,-4.271036,-1.546337,-8.770234
1000.890625,-8.631691,-6.344682,-4.785952,-11.506213
1000.894531,-7.294345,-0.003460,-7.911578,-5.371100
1000.898438,2.343398,-3.813143,4.400405,0.807093
1000.902344,-1.323554,-2.663042,6.642211,4.826838
1000.906250,6.528959,4.072977,-0.009905,6.602090
1000.910156,5.371762,4.486696,11.278959,7.909700
1000.914062,8.924166,5.235721,4.879247,7.832738
1000.917969,5.773178,8.716703,10.527839,7.723342
1000.921875,12.701836,5.318671,0.037098,9.139312
1000.925781,14.588145,5.276674,4.815089,12.055898
1000.929688,6.667552,10.942893,6.475660,9.921271
1000.933594,5.574051,6.800475,6.873642,11.499275
1000.937500,5.059945,8.813875,6.500911,0.391921
1000.941406,12.410369,3.246206,7.585298,4.545509
1000.945312,-0.304073,6.111049,4.118957,5.155499
1000.949219,-0.610292,0.421073,7.322282,-2.334354
1000.953125,-10.871485,1.548042,-6.605723,1.642731
1000.957031,-7.945110,-5.998112,1.541494,0.196472
1000.960938,-4.049484,-5.062483,-11.361550,-14.498553
1000.964844,-7.234421,-10.416255,-5.660887,-8.724688
1000.968750,-7.957941,-9.723428,-8.892683,-12.826081
1000.972656,-13.948351,-10.941584,-6.894495,-9.849402
1000.976562,-10.187941,-7.490633,-10.181685,-11.164084
1000.980469,-8.866866,-3.331072,-14.196057,-1.255990
1000.984375,-0.463980,-5.801765,-12.667492,-8.939841
1000.988281,-9.057439,-7.324170,-11.618794,-8.587610
1000.992188,-0.414947,-6.272823,-10.584542,-4.499199
1000.996094,1.554537,-6.802240,3.701854,-6.933270
1001.000000,-0.184312,-0.896694,-0.480506,-0.773646
1001.003906,6.631480,9.469088,-0.663519,3.805888
1001.007812,6.695115,2.409093,1.848201,3.648937
1001.011719,7.431059,3.050899,5.634788,10.765265
1001.015625,8.352697,2.823767,11.828649,12.627599
1001.019531,6.819020,8.563318,15.488899,8.408342
1001.023438,5.056695,11.395477,13.654672,10.853010
1001.027344,16.388673,9.965859,10.790110,16.753710
1001.031250,11.720480,12.265460,8.345614,6.034411
1001.035156,6.661701,7.518759,6.491292,0.394674
1001.039062,7.614291,14.120162,9.848266,2.888502
1001.042969,3.306347,5.678517,0.809308,0.112218
1001.046875,4.480238,2.218466,6.342275,4.526459
1001.050781,-0.741250,-1.157740,-0.811122,-4.111395
1001.054688,-5.783962,-5.552419,-3.272245,0.048997
1001.058594,-4.069279,-1.299727,0.775151,-3.775821
1001.062500,-2.742296,-14.466708,-6.263042,-8.845722
1001.066406,-7.242762,-2.173066,-6.310792,-4.936565
1001.070312,-15.398598,-9.308941,-8.343465,-8.099808
1001.074219,-9.331270,-6.701156,-11.856509,-13.242638
1001.078125,-2.410963,-8.222214,-9.110374,-14.050400
1001.082031,-6.163942,-6.641543,-4.537011,-5.615215
1001.085938,-5.642853,-6.263082,-4.294196,-13.416357
1001.089844,-7.170592,-1.336531,-6.215139,-9.109558
1001.093750,-3.948060,-7.508618,-9.639947,-6.219381
1001.097656,-5.360371,-2.298541,-6.030983,8.047092
1001.101562,1.838735,1.929180,-4.579578,-5.395012
1001.105469,6.541756,-3.916828,6.517273,5.257602
1001.109375,1.158725,6.797970,5.547422,7.864946
1001.113281,6.107745,6.086457,5.149514,8.696794
1001.117188,11.033651,7.299447,6.032936,10.134128
1001.121094,13.321698,18.097136,9.232763,9.307239
1001.125000,14.554404,8.901889,11.723606,7.488534
1001.128906,11.110076,15.645033,14.046249,12.369183
1001.132812,11.839939,4.940941,10.422542,2.390271
1001.136719,8.149768,12.216993,7.931056,10.388798
1001.140625,6.011520,1.596003,10.508783,12.377594
1001.144531,7.704672,6.316591,-1.344891,-5.680476
1001.148438,-4.918418,8.673411,-3.203771,-1.545406
1001.152344,-3.453159,-0.864407,-3.235685,-4.900353
1001.156250,-4.487852,-10.155059,-2.471447,-5.215927
1001.160156,-9.818883,-8.440818,-14.782403,-8.622078
1001.164062,-2.627212,-8.925463,-7.738577,-6.241695
1001.167969,-11.872704,-10.382276,-10.991800,-7.498878
1001.171875,-7.113814,-1.034581,-10.501380,-11.733489
1001.175781,-4.536884,-9.120346,-13.286950,-8.559601
1001.179688,-6.889480,-8.621264,-11.407277,-7.610256
1001.183594,-9.625304,-6.394429,-10.534291,-8.276191
1001.187500,-12.915536,-8.071114,-1.729153,-3.333899
1001.191406,-7.432175,-8.751251,-5.852081,-5.481370
1001.195312,3.327903,-10.588260,-2.574396,-3.464585
1001.199219,-0.462294,3.294541,-0.383038,0.159001
1001.203125,0.687395,5.078574,-1.468100,-0.456615
1001.207031,11.506778,4.371982,5.836113,10.337387
1001.210938,8.774047,4.764135,7.378187,10.115475
1001.214844,3.267929,8.162991,5.341113,8.549936
1001.218750,10.304036,8.873922,19.487708,10.560909
1001.222656,5.806639,15.172468,11.796638,10.851745
1001.226562,12.210088,11.273905,9.329399,10.401224
1001.230469,9.015560,1.614966,7.520727,12.930603
1001.234375,2.897952,9.198308,6.298175,6.712473
1001.238281,5.314525,3.636607,-2.006697,-0.362858
1001.242188,3.942072,3.919607,3.961405,-2.067069
1001.246094,7.452028,-5.279328,-1.431062,-1.553178
1001.250000,5.733199,0.265970,-10.591062,5.836682
1001.253906,-3.175510,-2.086291,-5.043706,-1.782958
1001.257812,-3.990570,-12.435211,-8.026975,-3.670227
1001.261719,-5.518111,-12.227095,-0.646916,-9.870172
1001.265625,-4.496465,-1.208739,-12.620946,-4.904662
1001.269531,-13.264675,0.108074,-7.037170,-7.359101
1001.273438,-7.993633,-14.664176,-2.624604,-7.596101
1001.277344,-11.879791,-12.067480,-15.010385,-5.814825
1001.281250,-8.593446,-0.591529,-10.538604,-7.903710
1001.285156,-8.102366,-8.116675,-4.452424,-2.227596
1001.289062,3.624391,-7.241794,-5.999743,-8.937625
1001.292969,0.736188,-4.558111,2.716766,1.846238
1001.296875,-10.941454,-6.477647,-3.777702,-7.065297
1001.300781,4.076064,2.021132,3.602211,-0.724054
1001.304688,1.625031,-0.597186,9.769733,3.896398
1001.308594,-0.967226,-0.832687,4.564928,2.870495
1001.312500,10.850860,6.443737,0.096951,11.730050
1001.316406,3.707145,12.604660,7.644215,4.533958
1001.320312,14.644825,7.303953,3.259260,9.091196
1001.324219,8.000520,7.387678,5.507502,7.475878
1001.328125,10.852212,10.075900,7.567230,13.271276
1001.332031,11.894183,13.403383,20.656537,6.986887
1001.335938,7.984877,7.091792,8.308321,5.697651
1001.339844,8.851602,3.578679,9.395281,3.071318
1001.343750,9.830613,10.566663,12.054967,1.349662
1001.347656,-8.293689,8.370131,7.554001,1.711940
1001.351562,7.035815,3.141104,-4.414890,-0.252222
1001.355469,-6.199727,-2.346609,-3.931412,-1.135189
1001.359375,-5.635300,-9.389158,-11.514004,-8.919667
1001.363281,-4.601820,-12.521850,-3.380526,-8.201632
1001.367188,-7.922660,-13.186597,-7.763763,-5.132947
1001.371094,-8.864238,-16.130993,-5.275858,-9.284433
1001.375000,-4.860879,-10.220901,-9.473602,-1.432730
1001.378906,-11.013378,-8.545102,-8.439233,-14.151188
1001.382812,-6.474605,-6.357181,-2.975087,-11.702768
1001.386719,-6.756591,-5.668163,-10.914058,0.175435
1001.390625,-8.339311,-6.904878,2.364386,-3.936470
1001.394531,-1.855162,-1.537286,-9.335886,-4.222173
1001.398438,0.982854,-2.493697,-1.311191,-6.066931
1001.402344,0.080847,-0.097063,1.238405,-2.318700
1001.406250,-2.164846,2.595582,4.271713,4.167600
1001.410156,6.297505,5.200308,9.322580,-0.358737
1001.414062,14.870051,7.127309,12.804251,4.133815
1001.417969,2.279126,7.072632,5.080133,6.877269
1001.421875,11.269287,15.256285,7.655024,5.488950
1001.425781,13.515984,12.252656,6.273610,8.069989
1001.429688,7.445125,7.479673,10.402712,10.406263
1001.433594,17.708725,11.119964,9.246716,11.186326
1001.437500,6.449301,11.763923,5.815449,3.177256
1001.441406,6.190378,1.239268,6.917133,4.860032
1001.445312,6.157951,2.864301,8.146462,4.943588
1001.449219,-3.394798,-2.585110,3.242491,-1.593276
1001.453125,-0.045041,0.019215,-0.807062,0.705581
1001.457031,-5.688915,-7.123303,-11.343260,-6.939916
1001.460938,-11.468677,-12.297312,-14.228219,-5.075854
1001.464844,-9.418972,-8.025435,-5.362333,-8.375403
1001.468750,-7.086547,-13.011236,-6.604927,-6.015098
1001.472656,-11.717369,-6.466392,-6.689664,-11.053851
1001.476562,-11.546036,-6.597034,-8.099297,-17.182060
1001.480469,-7.606482,-9.849062,-3.248646,-9.037001
1001.484375,-5.924707,-10.046088,-9.860137,-7.986921
1001.488281,-1.467296,-13.586863,-11.325019,-6.557858
1001.492188,1.580040,-7.182308,-6.793708,-4.132802
1001.496094,-3.256615,-2.181340,-4.834195,2.007851
1001.500000,-3.676972,1.026463,1.708980,-3.831163
1001.503906,0.929567,3.806886,8.325751,1.848857
1001.507812,7.772653,-1.004077,2.579014,8.407404
1001.511719,2.074999,7.956154,4.853504,10.206041
1001.515625,14.616477,2.365105,4.752065,14.218675
1001.519531,6.718119,6.533490,8.847026,8.145786
1001.523438,14.488596,15.827742,12.677323,11.095918
1001.527344,13.122558,10.560619,9.809605,12.545020
1001.531250,14.041807,7.293307,4.057339,6.811732
1001.535156,5.955547,18.426335,9.021949,9.183832
1001.539062,11.937049,6.153939,5.384114,6.193694
1001.542969,0.625603,6.627049,6.680430,5.545487
1001.546875,3.587427,0.369158,7.836813,3.123164
1001.550781,3.158496,0.946192,0.726494,0.473704
1001.554688,-1.668735,-7.204491,-7.654597,-9.632148
1001.558594,-5.111923,-9.824043,-3.182835,3.779795
1001.562500,-9.447600,-12.710354,-5.462552,-5.237558
1001.566406,-8.372011,-10.850470,-8.168846,-5.357652
1001.570312,-9.227225,-3.770467,-8.225388,-9.124086
1001.574219,-5.547892,-13.811659,-14.569737,-0.560516
1001.578125,-5.590118,-10.122962,-7.823318,-3.570099
1001.582031,-3.526415,-8.198105,-9.676690,-8.370583
1001.585938,-12.981306,-5.655745,-6.364039,-11.060397
1001.589844,-5.977054,-11.804877,-2.344913,-8.899372
1001.593750,1.744925,-7.450524,-7.143410,-0.212779
1001.597656,-3.041171,-3.265914,-4.927331,-6.230438
1001.601562,3.109716,2.679314,-1.559218,-4.526828
1001.605469,2.111163,4.976784,-3.020188,12.408104
1001.609375,4.175240,6.057965,-0.219617,-3.263090
1001.613281,-0.339139,15.749033,12.143804,5.731253
1001.617188,2.175275,11.959653,2.456331,6.159771
1001.621094,12.288461,12.357320,6.015166,13.593786
1001.625000,7.406855,14.384906,5.922221,4.499030
1001.628906,15.247912,3.676379,8.587222,13.852426
1001.632812,12.061837,11.818158,6.441819,8.218432
1001.636719,4.471046,10.342837,14.429651,-0.559478
1001.640625,5.524837,5.732179,14.983390,6.024800
1001.644531,7.634982,0.292389,5.517654,2.685071
1001.648438,5.517103,-3.593657,-6.704606,7.811216
1001.652344,4.710364,-9.893511,-0.830150,-5.973608
1001.656250,-4.866549,-8.187327,-11.709083,-6.774939
1001.660156,-9.182630,-0.480127,-5.076159,-0.120070
1001.664062,-5.574347,-1.892049,-5.110966,-8.580191
1001.667969,-10.128863,-6.290948,-0.389233,-1.806383
1001.671875,-9.377366,-17.123223,-10.399384,-4.324955
1001.675781,-14.269812,-11.113146,-14.671626,-9.242905
1001.679688,-5.124150,-10.755360,-9.499850,-11.668231
1001.683594,-10.981375,-11.431943,-5.550577,-14.867733
1001.687500,2.059819,-8.794006,-7.242053,-0.403724
1001.691406,-4.848175,-4.590727,-13.454080,-11.822305
1001.695312,-4.450997,-5.804513,-6.113529,-4.957126
1001.699219,-2.042835,5.915768,2.839682,-6.248506
1001.703125,0.905552,-1.123184,-0.493691,1.890769
1001.707031,10.511123,2.820480,3.272342,2.002756
1001.710938,7.491460,6.955339,11.351055,8.132769
1001.714844,13.171355,14.459193,10.960930,9.757887
1001.718750,7.519987,14.270576,8.489930,7.120893
1001.722656,7.803628,8.445419,12.572196,9.823818
1001.726562,12.180767,11.663329,13.959730,12.454565
1001.730469,11.288617,8.347642,7.308571,12.683329
1001.734375,12.071376,13.373411,10.469811,4.404425
1001.738281,1.529647,3.680660,6.282458,3.961511
1001.742188,7.730538,9.921711,6.260112,0.764842
1001.746094,0.372973,2.583202,4.718874,-1.758377
1001.750000,2.366982,1.529225,0.123382,4.864437
1001.753906,-0.841160,-6.407652,-13.568530,-1.052711
1001.757812,-3.228238,1.699960,-2.709336,-6.877432
1001.761719,-3.554920,-1.114350,-6.015645,-8.382585
1001.765625,-8.989589,-10.918073,-9.166276,-10.150701
1001.769531,-6.706061,-12.750066,-10.634513,-5.100565
1001.773438,-6.906055,-7.660575,-11.286297,-2.745762
1001.777344,-13.327147,-8.336846,-13.685381,-14.928355
1001.781250,-7.787123,-10.210944,-10.009392,-1.210931
1001.785156,-9.758864,-4.568904,-0.864899,-2.980584
1001.789062,-4.547790,-4.478181,-4.590783,-3.923648
1001.792969,2.695779,-3.714301,-8.806692,-3.857562
1001.796875,-0.420808,-4.949302,6.418733,1.001607
1001.800781,-1.062826,-1.096538,3.349144,-3.166743
1001.804688,1.833899,8.046275,-1.256914,0.178578
1001.808594,7.884552,2.927982,1.480365,1.516848
1001.812500,4.731559,7.209125,7.907072,5.149475
1001.816406,9.207893,12.223128,19.976697,9.554628
1001.820312,7.650527,15.145641,12.916308,11.151548
1001.824219,6.390945,4.859136,10.094977,18.507915
1001.828125,11.013350,10.408273,6.218271,9.641097
1001.832031,9.693683,6.792116,9.094623,4.923120
1001.835938,7.473125,6.632705,9.982537,5.123446
1001.839844,5.284579,8.764373,6.183361,7.444129
1001.843750,9.974872,1.027547,2.679655,3.652738
1001.847656,-5.180260,-0.280353,8.504100,4.723723
1001.851562,-3.297153,2.909406,6.271863,1.656456
1001.855469,0.444226,-19.005078,-4.294563,2.806525
1001.859375,-5.006366,-5.608289,-5.045543,-8.403653
1001.863281,-7.753953,-12.628002,-9.842586,-8.655492
1001.867188,-10.186951,2.244645,-10.934240,-7.187558
1001.871094,-2.831249,-9.098401,-9.613309,-5.638594
1001.875000,-12.588077,-9.295046,-15.770998,-7.438462
1001.878906,-15.624123,0.184633,-7.475398,-7.635750
1001.882812,-7.963003,-9.438547,-10.040977,-10.868397
1001.886719,-6.700811,-12.116529,-6.272011,-13.427656
1001.890625,0.065042,-1.194147,-6.102309,-0.478480
1001.894531,2.214217,-9.004536,6.956385,0.042454
1001.898438,-0.594453,-3.989915,3.614675,-1.235648
1001.902344,0.729317,4.706480,-0.355847,-1.364480
1001.906250,6.304756,-2.960546,3.810533,6.542894
1001.910156,5.112427,2.056784,11.804189,10.222067
1001.914062,14.606240,12.643432,8.098003,4.640029
1001.917969,7.290948,11.270047,8.787467,5.888517
1001.921875,14.232060,17.357350,5.715765,3.278641
1001.925781,8.447558,9.321451,16.173247,14.718167
1001.929688,10.279812,8.607445,13.561888,13.209930
1001.933594,14.292473,8.679182,6.593037,6.724026
1001.937500,11.482858,8.783938,1.624404,0.185266
1001.941406,3.215194,5.418092,2.622148,5.769617
1001.945312,11.791863,6.579000,-7.086175,3.885532
1001.949219,-3.042490,8.749752,2.248357,0.317291
1001.953125,-5.593369,-5.599223,-2.165548,0.648623
1001.957031,-0.461489,-10.162556,-5.702073,-3.621897
1001.960938,-3.487917,-9.205753,-3.349073,-8.226555
1001.964844,-7.096386,-9.923810,-12.088408,-9.813348
1001.968750,-6.393278,-12.101943,-12.950941,-7.730677
1001.972656,-6.927834,-12.605935,-6.841660,-9.359318
1001.976562,-13.081214,-6.423541,-14.674878,-13.882306
1001.980469,-3.186177,-7.127899,-14.711528,-9.699604
1001.984375,-7.872500,-8.551345,-13.186223,-12.795491
1001.988281,2.708620,-5.317016,-10.694031,-8.923837
1001.992188,-7.161985,-6.726862,0.514786,-1.692804
1001.996094,0.207394,-5.539587,-7.414955,-2.422231
1002.000000,-2.305454,-5.377168,5.794338,-2.002246
1002.003906,-3.531074,7.145190,0.322002,4.959757
1002.007812,10.646608,3.382592,6.718575,5.000510
1002.011719,13.349973,11.159225,-0.779375,7.407529
1002.015625,10.241077,10.319557,8.796159,9.473047
1002.019531,6.317003,10.004291,5.804146,3.585744
1002.023438,3.515977,6.464818,10.604982,9.358662
1002.027344,12.661958,11.185165,6.579754,8.700306
1002.031250,16.486732,9.887739,7.068414,5.881907
1002.035156,7.851268,11.750901,5.456300,14.794855
1002.039062,-1.455406,13.696918,9.731534,5.397498
1002.042969,-0.888905,0.396182,-0.136819,5.058742
1002.046875,3.527555,3.608384,-7.493236,-2.830550
1002.050781,-1.201389,-0.650827,-5.421044,4.023778
1002.054688,-4.799816,-4.993980,-3.042128,-11.782909
1002.058594,-4.261484,-1.560467,-5.110495,-1.898652
1002.062500,-14.207508,-6.786486,-9.714840,-7.018494
1002.066406,-7.837035,-6.886647,-11.516392,-13.456039
1002.070312,-10.442565,-12.088070,-13.111323,-11.163820
1002.074219,-14.666023,-6.739627,-10.948392,-15.284729
1002.078125,-5.992445,-9.249140,-16.415303,-7.184427
1002.082031,-14.210344,-9.323268,-13.643037,-2.796861
1002.085938,-6.529751,-6.304109,-3.225131,-5.261277
1002.089844,-2.817292,-5.274885,-6.453103,-7.609071
1002.093750,-6.924644,0.357603,6.183355,-2.043465
1002.097656,1.222593,-4.540042,-4.674296,-8.754856
1002.101562,3.431551,4.716972,-1.200590,1.269353
1002.105469,0.308439,2.418142,-2.162708,5.439490
1002.109375,7.266302,6.704064,5.378533,5.589818
1002.113281,1.531580,4.098363,8.459001,14.431496
1002.117188,7.665602,15.010243,5.410618,9.967315
1002.121094,6.964703,8.797034,7.699040,12.021914
1002.125000,11.353294,7.253661,20.744215,12.283586
1002.128906,16.754950,14.355222,18.145184,3.901153
1002.132812,8.616914,12.373880,12.884594,9.604917
1002.136719,5.820855,10.535998,5.841834,11.341521
1002.140625,5.163817,6.772378,6.014416,12.121397
1002.144531,0.168852,-2.019338,-6.876331,8.250705
1002.148438,3.039550,-2.709788,-5.479728,5.029689
1002.152344,-6.824161,-2.204744,-5.753286,-0.683845
1002.156250,1.752138,-8.164700,-5.801093,1.951936
1002.160156,-12.302083,-12.803222,-8.001570,-3.680282
1002.164062,-1.983407,-9.223009,-8.881712,-8.086099
1002.167969,-12.131175,-8.305396,-12.651062,-8.284010
1002.171875,-0.965797,-5.560890,-10.668625,-10.404137
1002.175781,-12.884104,-12.663796,-13.425938,-18.269855
1002.179688,-9.651800,-12.634542,-10.169775,-15.885578
1002.183594,-3.568188,-4.461895,-7.887986,-8.294349
1002.187500,-6.873182,-7.821343,-11.470276,-10.290578
1002.191406,-6.706657,-4.411299,1.158489,-5.312796
1002.195312,-1.152039,-6.688039,-7.643722,5.768137
1002.199219,-0.702193,0.525675,5.617156,1.178554
1002.203125,5.104299,2.761979,3.511807,-1.879489
1002.207031,3.468809,-0.465945,5.898704,7.287992
1002.210938,5.261034,4.602049,7.723492,2.749794
1002.214844,6.638969,11.340177,4.735966,5.873300
1002.218750,13.247079,8.798648,7.866806,12.250946
1002.222656,4.639917,9.843296,3.911564,11.367309
1002.226562,7.622117,18.106419,11.889701,11.917513
1002.230469,4.115443,8.009725,4.590741,10.999808
1002.234375,5.031005,8.936827,8.313344,6.798738
1002.238281,12.142020,9.290020,0.440702,3.761288
1002.242188,3.957177,4.043693,4.826362,7.717718
1002.246094,-4.268202,-2.355590,4.685117,-7.015911
1002.250000,1.262107,-0.842282,-7.649229,2.358044
1002.253906,1.963566,2.613071,-3.760728,-3.950184
1002.257812,-2.326760,-7.067154,-0.231377,-6.534784
1002.261719,2.001732,-6.509180,-0.586706,-14.483686
1002.265625,-11.830627,-7.687527,-12.916660,-3.132635
1002.269531,-17.820786,-5.492785,-6.266909,-9.314053
1002.273438,-11.392617,-16.559658,-11.218833,-12.189566
1002.277344,-11.282439,-10.263611,-14.985726,-12.896881
1002.281250,-7.097361,-12.657092,-11.112402,-1.779072
1002.285156,-12.704602,-11.135583,-3.531455,-14.662809
1002.289062,2.597261,-16.085916,-9.238501,-6.902259
1002.292969,0.995405,-0.609634,-2.406010,-3.298908
1002.296875,-4.692578,1.251465,-8.909016,-2.614768
1002.300781,6.538316,0.029538,-2.620423,-5.712652
1002.304688,2.937645,8.220763,3.145976,1.047507
1002.308594,0.573492,5.274509,4.120162,6.491951
1002.312500,3.801626,2.315694,12.402532,5.244609
1002.316406,8.826125,10.968653,17.576332,10.579225
1002.320312,7.850692,4.538456,9.129253,10.889924
1002.324219,4.058632,8.877910,7.490032,11.116275
1002.328125,8.307283,13.331435,8.950132,15.179761
1002.332031,11.123339,3.819842,6.314022,12.375131
1002.335938,9.240104,12.032534,6.377351,7.669350
1002.339844,6.910220,5.068455,4.793433,4.658316
1002.343750,10.463420,2.484854,-0.809118,0.580653
1002.347656,0.414238,-5.672923,-2.924232,-5.710975
1002.351562,4.891955,1.839870,0.679816,-1.659966
1002.355469,-1.541108,3.288448,-2.772338,-10.148639
1002.359375,-4.409850,-1.499707,-1.875698,-11.631366
1002.363281,-4.990749,-9.182929,-6.648455,2.712812
1002.367188,-9.450702,-5.453481,-3.964724,-9.333898
1002.371094,-7.488692,-8.110574,-9.792617,-14.493961
1002.375000,-13.947276,-7.537416,-5.646589,-10.431759
1002.378906,-15.214354,-9.420466,-16.456575,-11.261201
1002.382812,-15.323648,-10.598411,-2.034505,-8.216465
1002.386719,-5.030206,0.775710,-2.216092,-12.208498
1002.390625,-5.506619,-6.594718,-1.968562,2.259073
1002.394531,2.919734,-4.908406,-7.359642,-0.951087
1002.398438,-1.626135,-6.145343,-1.338144,2.970947
1002.402344,4.211556,-1.511120,4.501522,-1.265468
1002.406250,-2.427202,9.547421,6.221147,5.961711
1002.410156,7.794471,4.997900,5.404440,1.788015
1002.414062,8.886415,13.731022,9.380485,-0.512827
1002.417969,17.659911,14.513514,7.911363,9.553200
1002.421875,11.408600,10.521020,16.154170,11.665704
1002.425781,7.133555,14.341191,7.760176,13.730638
1002.429688,8.875074,14.698029,8.383100,8.939890
1002.433594,9.615958,12.791114,12.950386,16.682010
1002.437500,6.701280,10.760322,4.493033,4.783485
1002.441406,6.209827,3.602992,10.578409,10.734606
1002.445312,5.345307,6.202784,7.219197,5.797834
1002.449219,-0.605079,4.549505,1.150325,1.823746
1002.453125,1.486436,-6.648860,-8.003711,-5.617082
1002.457031,0.670281,-12.193263,-3.064145,3.324858
1002.460938,-5.068794,-9.324413,-4.931880,-4.995036
1002.464844,-13.889033,-11.649815,-4.603533,-8.761584
1002.468750,-3.270001,-9.008134,-8.147076,-17.304108
1002.472656,-7.166483,-10.464962,-12.964325,-6.513833
1002.476562,-11.381187,-6.980459,-13.043629,-6.028877
1002.480469,-14.310238,-5.632637,-7.555861,-13.166415
1002.484375,-8.357270,-15.869832,-13.624565,-12.606059
1002.488281,-9.354749,-6.884640,-19.428856,-2.992979
1002.492188,-8.392467,-7.063520,-8.588328,-8.476660
1002.496094,-6.060505,-4.768259,-5.812535,1.855129
1002.500000,2.781226,1.031005,-4.916452,1.473589
1002.503906,-2.278412,-5.053968,6.399692,-1.510157
1002.507812,4.460432,-0.161127,9.500166,2.984331
1002.511719,5.905481,6.402355,9.229336,14.790647
1002.515625,3.699375,1.889052,7.942358,11.164912
1002.519531,9.985272,7.503555,12.161255,14.371508
1002.523438,14.659691,4.786017,7.874965,16.260176
1002.527344,8.790747,5.844904,12.003664,0.651107
1002.531250,16.281479,9.005431,8.322212,7.344116
1002.535156,9.589287,11.987292,10.141661,10.906989
1002.539062,2.266722,5.253921,3.682329,6.490926
1002.542969,1.500927,5.385289,8.073571,0.080276
1002.546875,11.482192,0.221301,6.055519,2.432759
1002.550781,-2.981934,2.657076,4.422367,-3.096835
1002.554688,-1.667797,-4.145661,-0.521436,-0.164777
1002.558594,-5.832923,-3.245988,-9.451390,-2.722453
1002.562500,-1.081989,-10.697037,-4.211318,-8.322081
1002.566406,-11.040316,-5.624617,-4.410194,-7.865321
1002.570312,-8.247591,-8.184006,-11.086710,-10.355421
1002.574219,-11.928432,-8.894841,-10.062171,-13.626002
1002.578125,-11.569781,-6.553837,-9.073974,-13.009930
1002.582031,-6.031993,-4.334221,-8.728853,-6.471057
1002.585938,-9.027298,-5.625901,-9.703108,-4.267757
1002.589844,-9.121863,-3.024699,-1.414276,-10.920138
1002.593750,-5.333554,-2.812395,0.091711,-2.182135
1002.597656,1.351310,-3.828578,-1.829756,-7.638185
1002.601562,-1.554896,7.293435,3.638244,1.355444
1002.605469,5.070239,5.571908,5.853244,1.451792
1002.609375,4.291384,5.567550,8.577784,7.676491
1002.613281,10.878938,8.226621,19.107111,6.268164
1002.617188,19.559984,7.513443,2.846762,6.668338
1002.621094,8.348795,18.633976,11.881055,13.420755
1002.625000,9.981846,11.989747,8.523237,12.246815
1002.628906,7.664083,11.094839,12.193371,6.839896
1002.632812,5.733786,12.470715,7.490565,4.605937
1002.636719,2.181338,8.263230,9.816017,4.912910
1002.640625,10.958811,3.291838,2.564678,0.210670
1002.644531,3.767282,10.908270,-2.329472,9.050392
1002.648438,-0.467095,3.013070,4.284568,7.410039
1002.652344,-0.650068,-1.950107,-1.715689,0.136053
1002.656250,-7.021537,-0.947091,-9.060962,-6.899002
1002.660156,-4.223634,-2.308791,-2.707225,-0.168114
1002.664062,-6.879145,-8.030157,-9.199853,-1.435310
1002.667969,-14.734715,-7.161949,-8.600115,-10.753289
1002.671875,-3.275369,-9.353253,-7.671407,-14.493874
1002.675781,-8.745311,-8.302330,-9.024985,-9.287077
1002.679688,-10.349485,-10.594522,-6.643403,-1.250588
1002.683594,-5.420704,1.805061,-10.918259,-9.167037
1002.687500,-4.668333,-7.333705,-8.209309,-5.358900
1002.691406,-3.082339,-3.397882,-1.842437,-6.105550
1002.695312,6.173440,-6.130407,-1.088737,-0.619502
1002.699219,4.391820,-0.442151,-5.927897,1.048511
1002.703125,0.875620,2.461517,8.220500,1.127922
1002.707031,1.934474,9.132328,3.513020,4.967604
1002.710938,9.011992,5.993661,0.859553,6.363865
1002.714844,3.248082,10.474832,1.407799,6.736994
1002.718750,9.348320,7.234732,-0.993415,8.614815
1002.722656,10.372444,8.438392,6.722979,9.255010
1002.726562,15.871443,12.359970,10.374563,15.214210
1002.730469,3.015222,9.880350,6.104100,7.006253
1002.734375,5.973449,9.210370,14.459104,7.035421
1002.738281,8.234074,6.800324,5.350912,5.638894
1002.742188,2.700039,5.848853,11.378935,1.831479
1002.746094,4.773168,-0.668889,4.801425,8.334365
1002.750000,0.771350,3.194716,-1.620851,-10.338752
1002.753906,-8.204799,2.427322,-6.486199,-0.966692
1002.757812,-10.010254,-1.127846,-7.780269,-4.415684
1002.761719,-6.707185,-12.028990,-1.890322,-3.098299
1002.765625,-9.221506,-4.863297,-9.738220,-7.550649
1002.769531,-4.093478,-5.964834,-3.417232,-9.214497
1002.773438,-11.479474,-10.359817,-9.091555,-10.739647
1002.777344,-7.156678,-8.913378,-10.333204,-16.232728
1002.781250,-9.597935,-4.293248,-8.532024,-12.465565
1002.785156,-6.324073,-6.758067,-6.792576,-10.872453
1002.789062,-3.078684,-13.116303,-3.718751,-4.713022
1002.792969,-1.503981,-4.988347,-6.267129,-5.418919
1002.796875,-2.869040,-8.817292,-5.627247,-10.888198
1002.800781,-2.870826,3.368347,-7.549530,1.718103
1002.804688,-0.191960,-0.539738,1.269198,0.767406
1002.808594,3.220853,2.991487,1.233122,-2.929025
1002.812500,4.633383,1.638499,13.082260,-0.713820
1002.816406,9.810167,4.643004,9.279254,12.659582
1002.820312,7.805765,9.029627,5.142889,15.773254
1002.824219,10.274921,10.819576,11.231073,7.170128
1002.828125,12.775982,6.852241,14.537070,12.027782
1002.832031,10.879421,7.882843,9.819857,8.758141
1002.835938,6.749831,7.884319,6.375045,12.451620
1002.839844,14.163365,0.634507,2.405925,13.663251
1002.843750,0.225850,-1.784536,5.107815,-0.692910
1002.847656,2.012270,1.774293,0.250616,-2.047792
1002.851562,-0.923058,-3.007639,-7.023228,0.396234
1002.855469,-10.156545,-14.239053,-9.820270,-0.509934
1002.859375,-2.880856,-10.504183,-4.885413,-6.670371
1002.863281,-4.559973,-6.572748,-3.296039,-2.991059
1002.867188,-5.932549,-4.970059,-3.390372,-7.436225
1002.871094,-9.409573,-10.423868,-6.050604,-12.130797
1002.875000,-12.373196,-13.626610,-14.644325,-0.840922
1002.878906,-2.274419,-9.133352,-18.634351,-6.182789
1002.882812,1.149621,-8.738043,-7.545957,-6.171725
1002.886719,-10.886049,-7.376420,-5.101774,-7.986820
1002.890625,-1.566084,-8.139950,-2.588823,-2.816281
1002.894531,-15.320850,-7.053198,-4.603851,-6.165925
1002.898438,-0.171069,-2.351146,0.153096,1.624552
1002.902344,1.780688,2.326944,-1.434105,3.352248
1002.906250,2.629831,4.652292,12.012326,-0.517561
1002.910156,-3.727528,2.810411,9.810557,10.445254
1002.914062,7.607369,6.059050,10.904093,15.796679
1002.917969,9.931850,12.639714,13.137061,13.275881
1002.921875,9.002517,13.453900,1.618070,12.260802
1002.925781,14.679259,7.408254,16.377212,11.790010
1002.929688,10.836345,13.396722,10.351121,14.211223
1002.933594,11.506790,10.707537,13.221438,7.965695
1002.937500,8.554822,4.148271,4.096442,5.097807
1002.941406,9.680502,5.183929,7.138476,4.083371
1002.945312,6.897651,1.981681,6.141349,5.212950
1002.949219,-3.573623,1.431918,-2.419477,-2.041895
1002.953125,-2.064501,-0.391509,-2.621313,-8.103025
1002.957031,-9.172996,-2.638220,-6.937577,-6.100321
1002.960938,-2.465811,-8.637556,-7.449901,-8.740889
1002.964844,-8.400837,-8.853151,-7.872746,-7.222534
1002.968750,-5.767043,-11.593958,-5.818249,-9.484917
1002.972656,-17.250834,-5.013813,-11.782995,-11.659768
1002.976562,-14.017788,-10.081335,-7.913965,-14.491502
1002.980469,-10.303042,-5.746879,-7.664720,-9.919226
1002.984375,-15.966912,-7.229106,-6.933018,-5.682192
1002.988281,-5.885146,-6.891293,-4.215395,-5.613522
1002.992188,-3.476451,-12.102760,-1.536659,-3.397690
1002.996094,2.742621,-6.801787,-3.255584,4.121184
1003.000000,4.136096,-1.304489,2.328512,-1.518178
1003.003906,-4.063042,-7.614260,1.519382,3.009373
1003.007812,10.004300,3.123575,11.620646,-3.987909
1003.011719,6.010700,5.006938,2.817766,3.937994
1003.015625,9.526646,9.765563,12.756710,12.795320
1003.019531,10.286827,6.856067,9.433452,12.601248
1003.023438,8.274503,11.943476,13.257129,11.534997
1003.027344,4.992567,10.614451,10.086123,13.552206
1003.031250,12.012517,8.740268,11.774526,9.261104
1003.035156,13.457344,-1.525972,6.908756,7.449270
1003.039062,6.991130,6.779154,3.996381,3.764965
1003.042969,11.356246,1.829067,4.404490,10.152846
1003.046875,2.177673,1.949637,-1.407617,4.421342
1003.050781,-0.617089,-2.983760,1.980531,1.433509
1003.054688,-6.211010,-3.625769,-4.252586,-9.676336
1003.058594,-4.532105,2.879584,-4.890899,-4.587072
1003.062500,-10.344025,-10.844993,-4.726544,-5.942608
1003.066406,-11.337928,-10.203369,-14.234450,-5.333139
1003.070312,-9.122277,-5.740718,-5.382999,-9.904637
1003.074219,-10.643165,-5.808533,-10.825687,-7.156638
1003.078125,-12.001096,-11.446360,-11.912409,-11.398398
1003.082031,-9.646117,-4.636989,-11.038761,-9.159545
1003.085938,-11.535998,-10.234177,-6.151661,-7.566137
1003.089844,-1.108615,-5.759039,-10.327336,-5.174826
1003.093750,5.033506,-4.415985,2.731435,0.109150
1003.097656,-2.962643,-5.677300,5.200461,1.155045
1003.101562,6.750773,4.196291,-5.608884,-1.418000
1003.105469,1.047914,1.879914,2.230320,2.283721
1003.109375,2.178971,3.001849,1.661642,10.649178
1003.113281,1.016685,6.701795,11.453311,3.781089
1003.117188,12.332854,12.699070,3.373292,10.380447
1003.121094,11.169787,8.514775,11.026091,12.739157
1003.125000,4.858288,13.403714,5.357701,9.925431
1003.128906,8.611444,7.129283,9.248009,5.536518
1003.132812,8.256578,9.267747,9.655879,10.150391
1003.136719,3.757255,6.974753,6.708898,8.429147
1003.140625,1.525437,-1.252026,-4.192565,9.007886
1003.144531,5.060553,-0.444394,11.134983,8.357979
1003.148438,1.730027,0.981287,1.431826,-2.835152
1003.152344,4.888540,-5.532056,-7.206284,-0.463644
1003.156250,-8.017362,-1.187161,-0.816047,6.841347
1003.160156,-3.424727,-3.578573,-8.798226,-3.577856
1003.164062,0.035122,-7.096001,-9.980060,-4.298648
1003.167969,-2.398811,-12.806826,-14.862853,-12.015035
1003.171875,-4.373140,-10.981459,-8.062561,-5.192091
1003.175781,-11.438258,-8.918078,-15.889730,-6.178333
1003.179688,-9.947856,-7.063168,-11.079926,-9.036743
1003.183594,-4.297454,-12.082277,-6.019669,-10.873844
1003.187500,-9.378257,-10.438140,-11.640776,-4.891681
1003.191406,3.185195,-3.397914,-14.146023,-6.219499
1003.195312,-5.590074,3.122160,1.805286,-0.299674
1003.199219,-0.442403,1.023258,-2.594065,-2.485086
1003.203125,-0.623337,3.626326,-3.339678,0.795256
1003.207031,1.927289,3.670203,4.467442,6.876592
1003.210938,6.261872,7.030096,14.117513,5.264189
1003.214844,8.826164,6.445133,13.138695,3.848435
1003.218750,14.271863,14.293692,7.921342,12.326599
1003.222656,9.702425,7.566219,4.432547,10.646630
1003.226562,11.295164,8.630612,4.882540,3.142528
1003.230469,7.277219,4.324614,0.129796,9.953746
1003.234375,7.528487,2.221423,7.556070,8.791161
1003.238281,8.241186,2.216685,6.606829,9.263101
1003.242188,1.228044,3.506099,4.852976,4.581869
1003.246094,4.444075,0.735740,6.641768,5.474143
1003.250000,2.662789,4.530544,-1.962313,3.494324
1003.253906,7.077700,-10.243639,-3.349946,-8.478429
1003.257812,-4.518812,-8.678522,-1.307360,-6.633166
1003.261719,-6.231553,-4.592077,-4.600227,-3.640465
1003.265625,-8.695881,-7.034938,-16.453497,-11.470700
1003.269531,-9.855645,-16.357800,-5.224429,-7.055749
1003.273438,-10.080606,-7.449761,-9.765778,-14.823030
1003.277344,-10.010155,-12.051385,-3.028232,-5.984118
1003.281250,-12.894617,-12.642018,-10.796461,-7.492343
1003.285156,-4.734585,-16.609334,-1.871699,-4.846410
1003.289062,-3.979081,-2.433466,-4.025192,-0.825025
1003.292969,-6.949678,-5.169426,-6.383411,-0.755311
1003.296875,-1.688769,-0.519742,5.791313,1.122328
1003.300781,7.144976,6.701183,-0.182388,5.778785
1003.304688,16.004053,12.390391,-4.010945,-1.920706
1003.308594,12.136761,11.226313,1.884505,6.657978
1003.312500,15.639491,5.837993,8.480313,15.149816
1003.316406,18.399734,14.309765,3.298909,1.042967
1003.320312,10.797229,7.996564,16.565762,9.450292
1003.324219,6.725334,8.569488,12.866842,10.571440
1003.328125,14.492682,15.206572,8.063124,6.014770
1003.332031,11.983250,4.974658,14.664421,11.197004
1003.335938,4.288712,7.080797,10.441236,12.569796
1003.339844,5.077056,8.015530,4.579276,3.407280
1003.343750,3.484883,4.167164,5.610527,1.729897
1003.347656,-0.422185,5.990307,4.452582,2.462173
1003.351562,-9.334690,0.476027,-4.268395,1.262551
1003.355469,-5.198240,-5.759001,1.252599,1.175222
1003.359375,-7.697245,-4.975213,-1.831503,0.327272
1003.363281,-1.530291,-6.503378,-18.883973,-2.712791
1003.367188,-5.393543,-12.585955,-4.134025,-6.767734
1003.371094,-11.184295,-5.176487,-10.410875,-15.517044
1003.375000,-10.271610,-8.172466,-14.838422,-11.502553
1003.378906,-6.058696,-4.994804,-8.029699,-12.396477
1003.382812,-10.274753,-9.104212,-7.565948,-12.866187
1003.386719,-1.946951,-9.683918,-11.929182,-7.330979
1003.390625,-6.821328,-10.061952,-4.475303,2.352164
1003.394531,-2.868654,-5.614007,2.226945,-2.018438
1003.398438,5.101933,0.243895,-7.540317,5.258622
1003.402344,3.002342,-4.201270,5.860666,-2.316082
1003.406250,-1.232809,-0.367202,3.436834,6.284418
1003.410156,1.319417,1.667223,4.484092,-5.973158
1003.414062,11.162174,11.257021,10.739241,7.588799
1003.417969,10.170533,16.491856,9.462829,11.985291
1003.421875,11.084580,7.662973,13.124570,3.633716
1003.425781,6.176812,11.219201,4.289786,1.451074
1003.429688,9.817864,13.752564,18.969445,9.612098
1003.433594,8.427146,13.777548,6.127054,17.308305
1003.437500,12.443500,5.099870,9.081723,8.361283
1003.441406,-0.248768,8.356663,5.014260,10.837987
1003.445312,6.455721,2.414159,4.289552,7.471249
1003.449219,-4.232089,2.372223,3.059504,1.006287
1003.453125,0.874178,-0.032293,-0.754879,-5.417560
1003.457031,-2.112301,-1.076986,-6.673298,-3.523109
1003.460938,-5.245416,-15.199313,-7.513239,-9.668948
1003.464844,-8.968526,-8.181887,-7.597323,-12.678275
1003.468750,-13.266447,-11.425014,-15.365010,-5.835061
1003.472656,-14.915867,-8.690454,-9.662886,-11.769403
1003.476562,-9.229267,-9.988197,-13.524066,-7.818673
1003.480469,-10.264138,-10.150611,-7.400119,-7.032413
1003.484375,-4.184361,-7.586039,-9.590755,-12.858392
1003.488281,-1.726345,-6.902982,-13.530511,-3.913648
1003.492188,-8.225767,-4.507236,-8.760966,-9.093425
1003.496094,-2.278910,-4.718972,0.849161,1.486443
1003.500000,-6.024003,-1.978810,3.640598,7.672157
1003.503906,-1.260915,5.411157,4.397144,-1.341675
1003.507812,3.042745,-0.456149,0.683026,12.565197
1003.511719,-1.717795,3.161092,4.048785,1.620377
1003.515625,6.061175,10.005742,15.523746,0.885156
1003.519531,12.900921,15.051976,14.702557,2.925101
1003.523438,7.119789,6.570762,-2.364126,14.581576
1003.527344,5.683550,6.762610,8.805773,10.828037
1003.531250,13.316997,11.704931,16.608199,4.991525
1003.535156,0.726932,11.020676,2.734700,13.714477
1003.539062,6.724981,6.211759,10.281629,7.098116
1003.542969,0.160632,5.875250,-2.095153,-0.962959
1003.546875,-2.217982,5.432256,4.871723,2.880459
1003.550781,-0.169275,-0.818168,-2.059162,1.328129
1003.554688,-5.045732,-1.556772,-2.278405,-2.130155
1003.558594,-2.888513,-10.927052,-10.370162,-5.686056
1003.562500,-7.741331,-12.555850,-0.094378,-10.601818
1003.566406,-8.460781,-12.160437,-9.116857,-9.308873
1003.570312,-2.457907,1.002658,-15.417489,-15.320110
1003.574219,-6.233650,-9.666801,-7.101868,-7.897473
1003.578125,-14.171151,-5.667332,-12.121628,-6.637969
1003.582031,-8.380964,-6.419727,-3.764401,-8.693709
1003.585938,-5.220765,-13.120625,-7.299491,-4.125961
1003.589844,-8.213563,-6.427891,-6.915519,-5.670390
1003.593750,-12.549122,1.411843,-8.541791,1.233857
1003.597656,-4.025034,-2.773043,-2.684794,0.062968
1003.601562,4.120202,-0.173654,-0.524726,1.687623
1003.605469,6.074505,-0.356010,5.929723,2.679924
1003.609375,1.058423,1.506510,9.329001,8.500425
1003.613281,3.378685,6.149136,5.144461,6.246978
1003.617188,7.640005,3.328586,8.556359,7.794981
1003.621094,14.972249,9.936852,11.163212,5.828855
1003.625000,8.954047,8.724966,15.269563,9.768942
1003.628906,10.946141,13.111935,10.570639,13.518276
1003.632812,11.607278,9.154851,5.661678,17.261598
1003.636719,7.947757,6.867770,6.537307,3.782715
1003.640625,5.517526,12.023817,4.036329,2.799411
1003.644531,4.886954,-2.470174,3.456821,-0.005445
1003.648438,4.837496,2.201220,6.978739,1.310958
1003.652344,-7.252750,-3.025541,-1.817377,4.612872
1003.656250,0.933001,-3.786721,-8.388436,-3.859343
1003.660156,-0.944304,-12.129628,-7.146855,-12.124953
1003.664062,-6.803144,-9.680661,-10.050362,-4.548562
1003.667969,-6.144244,-12.156783,-2.177750,-3.024464
1003.671875,-9.095122,-7.279618,-4.355474,-10.376410
1003.675781,-6.701734,-6.911738,-10.985015,-11.220625
1003.679688,-1.248901,-19.182867,-7.604523,-12.372439
1003.683594,-10.136785,-7.763185,-10.853236,-9.706648
1003.687500,-6.673303,-5.665543,-12.356152,-5.571520
1003.691406,-8.533947,-4.453517,1.992338,-8.790036
1003.695312,-0.310037,0.592428,3.624416,-0.635319
1003.699219,-7.530107,-1.631488,0.672634,1.935458
1003.703125,-7.011423,3.293943,-4.367370,4.950559
1003.707031,-0.002079,4.982925,7.761603,4.540573
1003.710938,8.630903,9.351327,3.404728,5.606865
1003.714844,7.624864,11.011683,4.467265,3.628044
1003.718750,-3.305678,13.763107,6.974848,11.766952
1003.722656,6.963895,11.183902,7.515768,7.706738
1003.726562,4.040647,6.717048,0.880970,13.654231
1003.730469,11.174154,11.107783,4.816325,10.267008
1003.734375,6.330251,7.175715,13.514019,10.809531
1003.738281,15.094305,10.169833,11.457727,8.003623
1003.742188,8.488736,1.058750,8.070296,13.008737
1003.746094,1.409036,10.163371,5.611074,3.035576
1003.750000,1.507720,1.163247,-7.571681,0.489822
1003.753906,-7.988524,-3.384914,-2.192350,-5.953569
1003.757812,-3.234282,-6.905960,-8.799041,-6.206102
1003.761719,-6.235848,-11.511838,1.416348,-8.487793
1003.765625,-6.351117,-11.332909,-8.604837,-9.864518
1003.769531,-8.247096,-12.667683,-10.212214,-8.039966
1003.773438,-13.167405,-16.488659,-14.592010,-13.690292
1003.777344,-6.514392,-4.795006,-11.506604,-6.652323
1003.781250,-9.701112,-16.392023,-7.579988,-2.461232
1003.785156,-10.589666,-10.867547,-4.829377,-14.061702
1003.789062,-9.537132,-8.269611,-9.014754,4.630194
1003.792969,2.035826,0.747360,0.652245,-12.520534
1003.796875,2.514226,-4.211151,-8.100247,-2.744182
1003.800781,-2.326107,3.935935,-0.090741,-0.308236
1003.804688,4.663247,-4.958899,9.042032,4.121378
1003.808594,9.083024,0.214557,4.330527,6.683065
1003.812500,4.281160,6.826908,10.851509,13.882315
1003.816406,10.901027,10.395762,13.901139,2.983549
1003.820312,-1.604237,7.271763,10.803982,5.209316
1003.824219,11.552086,10.034462,12.202540,12.184193
1003.828125,3.624426,11.174171,7.294758,8.470596
1003.832031,12.437408,10.097891,8.495515,15.312507
1003.835938,8.715954,8.279104,7.676422,8.053570
1003.839844,4.526948,3.810082,3.840835,-2.086230
1003.843750,6.584177,4.770443,4.416286,8.842105
1003.847656,3.288130,-2.185207,4.087628,10.809858
1003.851562,-1.018644,7.255676,8.115580,-7.813704
1003.855469,-2.335547,3.105901,0.921389,-10.489734
1003.859375,-5.695126,-6.636475,-5.824047,-3.328177
1003.863281,-2.429287,-13.130659,-11.347496,-3.308886
1003.867188,-3.220056,-5.217567,0.317059,-5.975545
1003.871094,-8.144781,0.827020,-18.273126,-8.432858
1003.875000,-7.944044,-17.059689,-10.892194,-3.498199
1003.878906,-7.738887,-13.261546,-7.391361,-17.711556
1003.882812,-5.683318,-9.150478,-5.028994,-10.092266
1003.886719,1.625073,-13.974821,-8.408591,-9.099607
1003.890625,-2.530264,-5.149942,-11.151989,-5.801456
1003.894531,-3.727815,-11.807402,-12.592548,-3.525324
1003.898438,-9.008220,2.995351,-1.959521,-2.906134
1003.902344,-4.193180,-2.689302,2.302845,-0.836885
1003.906250,8.737161,4.578380,-0.856961,0.931773
1003.910156,6.919599,9.378435,6.724909,-0.728934
1003.914062,5.855860,7.605651,6.324072,-5.383112
1003.917969,18.956830,12.955584,7.373974,7.822323
1003.921875,15.047928,10.880933,11.414992,9.718907
1003.925781,7.483169,10.809999,11.448577,10.767227
1003.929688,7.450199,6.524663,8.376591,9.360649
1003.933594,4.367995,4.963794,11.113968,11.861509
1003.937500,3.737744,9.796116,8.641626,8.275152
1003.941406,2.725476,9.981104,1.827380,3.064217
1003.945312,-0.374029,7.845653,3.736299,2.988126
1003.949219,2.305780,-0.442474,-1.831612,2.113480
1003.953125,4.090969,-1.459989,1.097599,-3.269566
1003.957031,-7.234758,-5.609870,-11.917403,-5.951169
1003.960938,-3.701800,-7.444416,-9.656756,-7.957463
1003.964844,-1.977247,-8.748668,-13.368372,-8.262651
1003.968750,-12.449157,-6.387218,-8.143340,-13.517114
1003.972656,-7.008512,-14.051238,-11.518056,-8.779765
1003.976562,-13.336666,-9.930659,-8.248068,-6.768908
1003.980469,-14.443157,-9.318992,-7.204209,-11.753987
1003.984375,-0.324716,-5.980603,-11.373348,-15.512753
1003.988281,-5.345805,-4.897453,0.136604,-8.180693
1003.992188,-4.245297,-9.273413,-4.968338,-6.014809
1003.996094,4.591283,-3.075401,-0.608590,-3.290086
1004.000000,-1.609965,-4.012806,-3.623122,1.985801
1004.003906,3.567138,-0.567831,4.477213,1.119047
1004.007812,1.868690,10.504134,8.810740,13.100707
1004.011719,17.832213,3.453314,8.495737,7.847635
1004.015625,2.676042,13.342405,4.094547,13.027542
1004.019531,2.973533,8.667720,8.512083,14.337426
1004.023438,6.621302,11.379542,14.220550,10.827822
1004.027344,12.152813,9.633354,14.555644,7.413715
1004.031250,13.862309,8.278986,13.210292,5.464367
1004.035156,12.916158,12.498791,8.953459,6.674283
1004.039062,5.779512,11.094648,8.116983,8.245043
1004.042969,8.042686,4.304249,3.671455,5.450685
1004.046875,4.195596,5.557390,3.164036,1.660754
1004.050781,5.458508,11.249180,-4.343194,-1.233640
1004.054688,-2.146157,-7.869045,-0.983040,0.369176
1004.058594,-6.187790,5.105997,-12.464929,3.420387
1004.062500,-2.890695,-5.096774,-4.065083,-7.258556
1004.066406,-10.496990,-3.121478,-2.599984,-9.985418
1004.070312,-10.044843,-5.121348,-13.105666,-12.876532
1004.074219,-5.375371,-11.917820,-5.384901,-6.494996
1004.078125,-7.612609,-8.610458,-10.099920,-10.593315
1004.082031,-8.684160,-2.608593,-11.706852,-11.710523
1004.085938,-13.102454,0.482835,-4.961487,-12.957982
1004.089844,-6.792482,-3.909067,-0.457635,-9.681619
1004.093750,-3.806690,-6.290110,-4.444188,0.593411
1004.097656,-0.910701,-1.988311,-2.934574,0.172245
1004.101562,6.727605,1.839939,-1.099037,-0.936894
1004.105469,5.642005,9.186806,3.321436,1.481454
1004.109375,13.434532,1.698778,5.842419,8.643246
1004.113281,12.475734,2.968555,6.357701,5.831961
1004.117188,11.497744,8.409004,10.501167,6.354714
1004.121094,11.633682,13.209929,1.374787,13.446058
1004.125000,9.302997,5.508819,3.803392,12.199725
1004.128906,3.037061,10.898561,11.267796,6.130440
1004.132812,4.691473,10.289116,13.854630,8.161959
1004.136719,8.392342,9.982487,3.196979,10.199628
1004.140625,6.493248,4.496199,5.173524,4.368681
1004.144531,4.260555,1.602745,6.704715,6.084506
1004.148438,6.117240,-5.972202,5.566402,-2.387512
1004.152344,-3.064077,-6.448790,-1.475182,-5.872831
1004.156250,-6.631381,-8.858758,-9.980686,-4.368370
1004.160156,-8.196910,-4.900525,-2.861052,-5.258283
1004.164062,-6.130886,-5.260942,-4.424013,-9.136677
1004.167969,-4.851421,-14.133857,-17.353934,-13.267872
1004.171875,-15.101400,-11.394973,-10.141733,-20.132269
1004.175781,-6.416723,-15.123287,-18.648621,-7.526863
1004.179688,-10.231219,-12.215190,-7.846340,-16.094537
1004.183594,-5.800776,-12.524333,-13.618450,-0.812203
1004.187500,-1.029549,-11.237515,-7.648830,-10.083005
1004.191406,2.840590,-5.515920,1.211846,-9.415227
1004.195312,-3.919555,2.618697,-5.907783,-8.691080
1004.199219,3.515395,11.325484,-2.109100,-10.907751
1004.203125,2.090291,-1.546630,-1.290829,-2.604027
1004.207031,-2.199613,2.963247,0.167013,15.092862
1004.210938,5.283147,-1.623818,2.215411,8.832566
1004.214844,0.739661,10.452532,13.270990,10.381606
1004.218750,13.292104,10.283667,2.815751,10.779717
1004.222656,11.500355,6.685574,6.809520,5.547450
1004.226562,12.054074,11.036732,5.936089,9.395549
1004.230469,12.219149,11.200554,12.983249,6.363184
1004.234375,11.888845,9.846303,8.012350,6.395643
1004.238281,6.413535,3.442313,4.393817,4.390650
1004.242188,-0.018777,4.769222,2.001944,9.880248
1004.246094,5.578096,-5.038675,6.454901,4.609660
1004.250000,2.246254,3.142648,2.158482,-2.383009
1004.253906,0.656159,-1.297495,-4.680669,-7.524794
1004.257812,-9.350068,-4.021555,-12.643982,-7.896001
1004.261719,-13.916191,-7.465629,-5.975196,-6.373336
1004.265625,-7.554934,-5.661390,-13.236067,-13.379112
1004.269531,-8.441422,-8.554735,-14.554950,-9.480838
1004.273438,-7.674046,-13.178150,-12.322261,-10.974319
1004.277344,-9.855478,-9.383894,-2.225824,-12.619643
1004.281250,-7.592398,-5.618071,-13.878728,-6.633787
1004.285156,-0.510963,-2.191979,-6.235452,-4.954086
1004.289062,-0.947921,-5.191254,-10.643906,-5.801452
1004.292969,-4.331752,-6.450253,-2.891897,-3.546424
1004.296875,3.389299,-2.275393,-13.687152,-0.322575
1004.300781,5.852961,-4.125332,2.973223,5.485043
1004.304688,-4.210720,-0.674909,7.243734,5.458525
1004.308594,3.064892,2.299054,2.824522,3.597484
1004.312500,13.295201,5.098664,5.424557,8.303314
1004.316406,13.458152,8.088101,10.501207,4.701189
1004.320312,15.092991,13.536621,14.966925,7.607466
1004.324219,9.662534,15.614253,7.840706,15.054025
1004.328125,11.545370,11.939292,6.094466,7.977216
1004.332031,5.618730,5.387359,2.483738,5.171194
1004.335938,0.531715,9.883249,-1.166421,10.282018
1004.339844,5.729155,13.982625,13.116778,2.177902
1004.343750,7.810506,-0.918388,9.673385,1.746106
1004.347656,-0.507793,1.601420,4.744100,-7.806687
1004.351562,-4.301834,3.480196,-6.280586,0.073837
1004.355469,-4.612095,-3.354252,-4.382684,-6.284196
1004.359375,-0.904275,-0.384535,-0.607827,-3.449033
1004.363281,-3.508815,-5.245136,-7.718672,-11.688992
1004.367188,-5.879558,-10.237801,-6.056077,-13.464507
1004.371094,-9.319930,-7.795768,-10.205333,-6.199280
1004.375000,-10.090389,-3.095966,-7.001926,-6.452288
1004.378906,-11.698297,-15.440760,-8.854766,-9.446576
1004.382812,-18.490501,-4.901980,-2.722274,-7.266378
1004.386719,-5.898462,-14.589174,-6.462772,-4.047742
1004.390625,-6.221253,-13.775832,-10.581653,-0.658040
1004.394531,-4.918299,-11.099803,0.938486,-3.968431
1004.398438,2.098247,-2.708553,3.199081,-0.458502
1004.402344,1.510931,1.702191,2.708445,-1.584602
1004.406250,4.629550,6.499921,5.432908,2.391309
1004.410156,7.195494,6.853449,9.280142,8.639928
1004.414062,2.629591,7.289622,9.194317,12.537700
1004.417969,5.551960,0.560850,16.437898,6.922372
1004.421875,6.370337,15.089566,6.872341,12.693868
1004.425781,14.072255,9.838775,10.815556,12.634803
1004.429688,12.187697,12.726687,13.504151,7.421771
1004.433594,14.554327,8.106141,9.315180,10.226068
1004.437500,12.049901,6.150201,5.124492,2.860956
1004.441406,4.510542,6.075412,-1.412912,6.967561
1004.445312,5.772194,3.091203,6.303733,6.895020
1004.449219,-0.927012,-6.876807,4.932240,2.558576
1004.453125,-8.286698,-9.750286,-8.116231,4.745937
1004.457031,-9.276181,-5.579712,-0.487734,5.093598
1004.460938,-4.333186,-2.275435,-3.756128,-9.421230
1004.464844,-8.938685,-5.506891,-8.172118,-1.284591
1004.468750,-6.704692,-13.087499,-1.993840,-1.007994
1004.472656,-15.029190,-15.286630,-15.631757,-13.202790
1004.476562,-11.352178,-8.634792,-12.952324,-14.354626
1004.480469,-10.364235,-3.422218,-13.413983,-8.582137
1004.484375,-9.751266,-5.782084,-5.256213,-4.222750
1004.488281,-5.828995,-17.708533,-2.201757,-6.496898
1004.492188,-0.808714,-10.435641,-0.446179,-3.194235
1004.496094,-10.933969,-4.729651,3.299831,0.987840
1004.500000,7.759516,1.212790,-1.319343,-7.475228
1004.503906,3.707087,6.517332,3.627711,5.845772
1004.507812,10.795238,9.132525,5.377700,6.071401
1004.511719,9.743810,6.682531,14.869916,6.140343
1004.515625,20.597233,7.528363,12.791546,12.402921
1004.519531,7.889773,16.695933,7.346054,10.022143
1004.523438,14.535608,3.947195,4.185789,11.489599
1004.527344,12.827415,11.585703,18.333653,10.328616
1004.531250,14.696458,4.110872,16.119240,11.525202
1004.535156,2.826901,4.741797,15.187416,13.035602
1004.539062,4.926331,2.417495,4.481260,0.325133
1004.542969,9.139699,-0.403771,2.554171,7.188382
1004.546875,13.358635,7.441229,11.474809,6.833727
1004.550781,-3.008810,-1.443617,0.747689,5.402213
1004.554688,-3.668853,-2.162684,-0.083931,-3.940333
1004.558594,0.359516,-14.292916,-12.383323,-3.351072
1004.562500,-11.576633,-6.492908,-4.556511,-6.686694
1004.566406,-7.952125,-14.397694,-0.974229,-10.930327
1004.570312,-12.846755,-14.814289,-5.634000,-8.261645
1004.574219,-9.943317,-13.089453,-2.559501,-9.869063
1004.578125,-11.639127,-14.118741,-12.417299,-13.384716
1004.582031,-11.549655,-4.422864,-6.660486,-5.792306
1004.585938,-9.898373,-8.294002,-16.370486,-3.142025
1004.589844,-9.922209,-7.788292,-5.742286,-3.744738
1004.593750,-8.798245,-0.414400,-3.308008,-4.587348
1004.597656,-2.112506,4.072196,-0.321589,5.836969
1004.601562,-0.483374,4.191140,4.021550,3.398611
1004.605469,0.240330,7.531189,5.710240,2.139987
1004.609375,3.522409,9.341745,7.521628,9.957628
1004.613281,7.088429,10.596257,6.474696,5.648920
1004.617188,3.885147,4.221004,10.582028,11.951417
1004.621094,13.643578,6.508806,4.877462,12.550421
1004.625000,6.089782,13.335131,9.310168,20.180539
1004.628906,7.507890,7.961845,11.437431,3.568142
1004.632812,4.846627,7.494454,14.096859,-0.263127
1004.636719,5.405220,3.953740,15.811410,5.112899
1004.640625,3.714266,8.818694,3.376437,10.334109
1004.644531,0.785797,6.482107,0.020696,4.188221
1004.648438,-0.606344,6.003587,1.700315,1.169892
1004.652344,-2.036242,-0.639418,-3.151916,-1.572191
1004.656250,-3.008492,-2.687001,0.285490,-0.129049
1004.660156,-7.146720,-10.104031,-4.428763,-11.834225
1004.664062,-8.369236,-12.297712,-10.993822,-10.863977
1004.667969,-7.182354,-13.746430,-10.774512,-13.084128
1004.671875,-6.290439,-9.199544,-14.703540,-3.612468
1004.675781,-15.124233,-14.418021,-11.552263,-9.542094
1004.679688,-15.785943,-11.841733,-23.001446,-10.388971
1004.683594,-7.151211,-4.447735,-7.965841,-7.432354
1004.687500,-10.179050,-1.521903,-14.299815,-7.058371
1004.691406,-7.371985,-6.742535,0.921969,-2.615927
1004.695312,-3.174834,1.196334,-0.138926,-3.999366
1004.699219,-4.959494,-1.356671,5.066431,2.843926
1004.703125,-0.768912,11.855620,0.227042,2.613280
1004.707031,6.547993,3.495439,5.895495,2.189180
1004.710938,0.470728,-1.855461,1.904469,9.104154
1004.714844,13.336100,11.594087,10.530926,8.574885
1004.718750,11.808726,15.823062,7.141964,8.396137
1004.722656,13.178399,4.927218,8.863954,3.726958
1004.726562,15.022166,17.792990,6.445717,7.013203
1004.730469,9.777873,9.101095,3.923474,12.212068
1004.734375,9.326460,11.489902,5.975552,10.694902
1004.738281,10.244437,-0.848210,5.029256,11.324754
1004.742188,4.826962,10.449041,13.694122,3.933253
1004.746094,4.381867,1.506016,4.785275,-0.579190
1004.750000,1.551821,6.288354,0.530704,-1.145718
1004.753906,-5.430924,-9.752315,-2.146112,2.262487
1004.757812,-7.863290,0.763207,-9.438148,-5.134474
1004.761719,-5.093788,-12.071716,-0.101312,-1.363108
1004.765625,-8.303973,-9.185398,-7.233175,-1.254704
1004.769531,-7.008469,-15.126659,-11.498000,-2.203935
1004.773438,-10.028638,-11.274400,-12.445201,-4.784462
1004.777344,-7.022329,-15.503362,-14.464274,-11.241539
1004.781250,-12.490538,-17.918253,-7.157733,-5.483779
1004.785156,-12.339426,-1.191470,-7.818832,-3.286246
1004.789062,-9.139936,-4.628837,-5.479667,-6.904850
1004.792969,-5.054534,-2.446959,-3.095932,-2.540904
1004.796875,-7.010616,-7.728092,-5.929517,-4.426318
1004.800781,-0.610738,3.128406,0.049212,-2.752957
1004.804688,-0.731564,-2.408768,5.879018,6.320688
1004.808594,0.545714,0.707050,5.186992,0.092421
1004.812500,9.399736,-2.417641,11.077617,10.463842
1004.816406,3.262219,10.033862,10.632736,7.534087
1004.820312,9.584584,14.842271,12.685874,12.415789
1004.824219,11.303221,8.452263,14.893399,2.935291
1004.828125,6.930257,19.602153,3.413470,4.496808
1004.832031,8.981603,13.425699,4.628309,16.825705
1004.835938,5.479134,4.207308,11.234643,6.043125
1004.839844,3.823711,2.720688,1.391969,1.548556
1004.843750,3.444647,9.239278,7.190920,1.707838
1004.847656,6.839528,-4.812315,-4.784280,4.530930
1004.851562,-1.130547,-8.796217,2.754882,3.768996
1004.855469,-5.273394,3.997306,1.970527,-2.083653
1004.859375,-3.199992,-7.320487,-7.188115,-1.116613
1004.863281,-10.943828,-6.052850,-5.839857,-1.115479
1004.867188,-5.440027,-11.767688,-9.814909,-15.477579
1004.871094,-7.204695,-12.771025,-2.839210,-8.006373
1004.875000,-12.901806,-11.999314,-10.838903,-10.487126
1004.878906,-14.946890,-11.330507,-11.047775,-5.341990
1004.882812,-3.789611,-6.314576,-6.084554,-15.796754
1004.886719,-8.218719,-15.639192,-4.903135,-9.091010
1004.890625,-3.334891,-5.501855,-4.701519,-3.853710
1004.894531,-6.236011,-6.030852,0.505757,-3.697253
1004.898438,-2.726948,2.783147,0.082276,-0.491950
1004.902344,-0.508700,6.472793,2.708128,9.430072
1004.906250,3.399730,5.300582,5.846546,3.235666
1004.910156,5.306736,6.019665,9.884588,7.980553
1004.914062,2.354196,11.559419,9.261172,10.457279
1004.917969,6.940489,17.643570,16.796313,3.267293
1004.921875,9.146002,15.748108,6.101527,15.119728
1004.925781,4.195757,9.682455,6.939454,11.971790
1004.929688,6.350449,10.770338,3.686983,5.445098
1004.933594,7.229059,9.072210,4.892702,8.358183
1004.937500,9.007162,2.128222,3.811033,11.660101
1004.941406,9.595040,6.784079,-1.505790,9.696840
1004.945312,-1.420016,3.518249,8.227123,-0.201921
1004.949219,0.735327,-1.652872,-1.888894,3.597817
1004.953125,-0.550137,-5.320127,1.265865,-3.446432
1004.957031,-3.277824,-4.601714,-0.952282,-20.910331
1004.960938,-12.878207,-1.638796,-1.794388,-0.396178
1004.964844,-14.534477,-10.302393,-12.826206,-7.477266
1004.968750,-8.948017,-10.979273,-10.957623,-14.273181
1004.972656,-9.542870,-9.612496,-5.713937,-14.636927
1004.976562,-9.783525,-17.711125,-6.887381,-11.997399
1004.980469,-11.594913,-8.840917,-8.009033,-11.283749
1004.984375,-7.558809,-10.700286,-5.650567,-6.844643
1004.988281,-2.500001,-5.524168,-5.982030,-10.074223
1004.992188,-4.793574,-8.660192,-0.739470,-8.014938
1004.996094,-5.948262,-2.459506,0.759047,-1.284645
1005.000000,0.430619,5.694013,-4.072875,-4.367569
1005.003906,7.108438,7.620188,7.370297,1.129582
1005.007812,4.311388,6.008239,4.672815,3.182544
1005.011719,2.917153,4.111218,3.897444,-3.729490
1005.015625,4.996444,14.808073,18.447683,12.120054
1005.019531,3.884460,8.094506,6.137909,10.513474
1005.023438,15.847605,3.402808,11.005506,9.542760
1005.027344,11.783262,15.961720,11.892447,14.655072
1005.031250,11.192442,11.331958,3.382725,10.422421
1005.035156,10.342031,7.080639,7.563421,10.497435
1005.039062,11.324051,12.812391,8.172477,8.250290
1005.042969,5.138049,3.474210,-0.543093,4.597020
1005.046875,-2.781375,-2.581106,0.981358,6.469845
1005.050781,0.410173,3.471748,-6.910633,-1.097189
1005.054688,-1.449348,-1.752558,-1.023375,2.649209
1005.058594,-1.912481,-3.081572,-5.228511,-4.378225
1005.062500,-9.717188,-16.021616,-3.829734,-10.219820
1005.066406,-7.846088,-7.414775,-4.698040,-9.348375
1005.070312,-14.529466,-11.773458,-6.911746,-10.454317
1005.074219,-9.021978,-7.125514,-10.735189,-10.325985
1005.078125,-12.611661,-11.493829,-13.818923,-2.592392
1005.082031,0.371461,-6.070392,-3.601703,-6.836967
1005.085938,-11.471784,-6.050723,-9.385115,-7.675937
1005.089844,-1.215337,-2.053201,-10.455513,-1.158765
1005.093750,-5.303809,-5.070315,-5.102974,-12.801950
1005.097656,2.694521,-0.106715,1.070781,1.436255
1005.101562,-1.791707,-4.516121,-3.193635,4.853625
1005.105469,6.135001,0.169697,9.147088,9.087692
1005.109375,0.501057,9.956920,5.584350,5.304386
1005.113281,12.478635,0.467971,8.966482,3.530710
1005.117188,10.079716,7.276185,8.146436,13.737101
1005.121094,11.022967,10.997483,7.926255,4.171840
1005.125000,4.926189,11.369966,16.750474,13.573893
1005.128906,13.638905,15.673437,12.531260,2.600446
1005.132812,5.359162,9.379588,4.431934,16.621682
1005.136719,7.577839,4.098912,4.471935,8.165856
1005.140625,-0.109198,5.727729,5.433007,5.482814
1005.144531,8.915765,10.138149,5.935504,6.494559
1005.148438,-4.192157,4.464903,6.353278,-0.710735
1005.152344,-6.361205,-7.508781,-3.570816,-6.599672
1005.156250,-5.341603,-8.318563,-5.766783,-6.206011
1005.160156,-8.144040,-6.682891,-7.621591,-5.626075
1005.164062,-4.926599,-14.892689,-6.948563,-4.265847
1005.167969,-8.516494,-14.910769,-9.476214,-5.859322
1005.171875,-14.855956,-12.418445,-12.330403,-4.343393
1005.175781,-1.619120,-11.272578,-13.796233,-15.930004
1005.179688,-6.756376,-11.402316,-11.795051,-7.089298
1005.183594,-11.841521,-5.379168,-12.102250,-7.968487
1005.187500,-1.762371,-11.361069,-5.736803,-6.657564
1005.191406,-5.924886,-3.659307,-9.792086,-1.016861
1005.195312,-6.263571,0.741970,1.263319,0.219636
1005.199219,5.538337,-1.166364,-0.894284,-7.053634
1005.203125,5.383400,4.066060,5.543491,7.809141
1005.207031,6.977143,1.445570,4.933757,-0.465264
1005.210938,9.999687,5.386961,-2.535284,12.376219
1005.214844,5.547309,7.128439,11.187392,7.590879
1005.218750,3.364897,8.993920,5.888588,5.029642
1005.222656,16.931055,9.464702,10.208644,6.625014
1005.226562,14.717123,6.396343,10.006091,14.456169
1005.230469,17.850946,8.217327,10.572727,6.733278
1005.234375,-0.952159,13.033950,8.083220,18.508326
1005.238281,4.615421,9.822507,-1.028678,3.383213
1005.242188,5.538328,2.198994,2.795764,3.416991
1005.246094,-2.504335,7.684544,3.921586,-3.944203
1005.250000,4.167949,-1.640035,-0.737183,3.420868
1005.253906,-5.066261,-2.260680,0.782934,0.552436
1005.257812,-8.556905,-4.858381,-4.956264,-11.796852
1005.261719,-9.451955,-13.679094,1.369714,-0.758347
1005.265625,-8.368958,-5.576872,-12.478885,-7.008324
1005.269531,-8.002391,-10.881490,-7.469222,-5.750973
1005.273438,-7.294916,-17.321105,-10.482639,-8.061378
1005.277344,-9.884607,-13.079062,-9.995753,-7.804394
1005.281250,-7.167642,-12.636008,-3.218953,-14.593719
1005.285156,-7.618288,-10.068059,-9.283744,-0.930095
1005.289062,-11.888612,3.645682,-6.441646,-10.692023
1005.292969,1.717176,-5.305222,0.690013,-13.620821
1005.296875,-1.772814,-2.379978,1.582132,4.291179
1005.300781,1.110298,0.766177,-0.656328,5.285958
1005.304688,3.932073,1.294269,6.047614,5.118094
1005.308594,8.248077,6.370205,2.732773,1.724945
1005.312500,12.400388,0.351235,2.632258,9.231732
1005.316406,6.856895,6.440723,6.376751,5.048165
1005.320312,17.800753,7.934401,15.261449,16.199143
1005.324219,12.470313,9.529102,13.065524,11.611033
1005.328125,10.054327,8.163442,15.050790,6.346351
1005.332031,12.189587,4.306791,7.221097,4.148663
1005.335938,4.116653,3.462361,19.654327,8.020139
1005.339844,9.545765,9.263323,4.635496,5.110779
1005.343750,5.324866,-0.278875,0.418542,4.705573
1005.347656,-0.374094,5.844070,-2.104788,-7.156823
1005.351562,-3.930443,0.052587,-6.080089,-2.326646
1005.355469,-3.289008,-1.005796,-5.014792,-7.326640
1005.359375,-4.224112,-12.899114,-7.927287,-8.598397
1005.363281,-7.000020,-10.791512,-10.299272,-6.314718
1005.367188,-6.035593,-3.571546,-10.278343,-5.622479
1005.371094,-10.376367,-12.142579,-11.318638,-7.275242
1005.375000,-8.924444,-4.853798,-12.517246,-17.115087
1005.378906,-11.767016,-8.629076,3.730451,-14.588120
1005.382812,-9.203617,-6.968257,-8.420161,-4.889636
1005.386719,-7.331004,-7.728462,-7.849225,-8.804495
1005.390625,-2.366807,-10.723598,-3.295984,-2.779487
1005.394531,-6.854179,-2.798211,-8.781757,0.317146
1005.398438,-9.798734,-1.589570,-3.639891,-7.498415
1005.402344,3.417330,1.221039,-0.264484,8.977876
1005.406250,8.070563,4.912360,4.862626,2.414662
1005.410156,1.632232,4.942751,5.999033,3.020396
1005.414062,8.773098,9.201333,-1.393741,15.065852
1005.417969,15.734336,11.679578,10.932098,7.228632
1005.421875,12.458577,10.372884,10.458896,17.541546
1005.425781,10.452126,11.814002,4.446827,8.384150
1005.429688,12.286660,13.696386,11.201596,12.838955
1005.433594,3.676115,5.518143,12.617989,11.175893
1005.437500,2.035792,12.914395,8.129589,6.671291
1005.441406,6.938071,10.469201,5.288202,-0.787692
1005.445312,8.772678,-0.081467,3.774904,-2.917440
1005.449219,-0.393122,3.928775,-5.738516,-0.932042
1005.453125,-4.092057,-2.472360,-0.932462,-3.492437
1005.457031,-6.580203,-4.688903,-9.690392,3.494194
1005.460938,-6.254485,-6.795564,-10.218392,-1.146434
1005.464844,-5.301943,-5.239284,-12.810277,-2.888660
1005.468750,-8.125491,-3.712719,-10.892779,-4.767691
1005.472656,-12.857729,-9.518777,-15.232202,-14.614886
1005.476562,-10.913421,-12.288494,-7.152268,-6.794837
1005.480469,-8.700980,-6.810902,-14.503300,-11.197738
1005.484375,-19.787180,-16.828225,-5.386180,-6.926224
1005.488281,-4.333546,-8.404749,-12.526544,-10.017998
1005.492188,0.902333,-3.361812,-10.706172,-7.538044
1005.496094,-7.476326,-7.482922,1.972506,-5.481176
1005.500000,-11.043118,-2.603951,-5.348890,-4.696998
1005.503906,-4.561597,7.621195,6.466987,3.481216
1005.507812,-0.039809,7.105271,0.104216,4.685426
1005.511719,11.565631,12.843999,8.860221,3.771750
1005.515625,10.799505,12.407713,7.972293,5.347492
1005.519531,11.183052,6.071714,13.200464,14.077293
1005.523438,7.828268,5.180986,9.911908,4.471077
1005.527344,10.127912,8.637902,13.027004,14.258582
1005.531250,7.157918,4.390979,16.261890,10.849554
1005.535156,-0.938544,9.330896,3.892098,13.380696
1005.539062,11.053580,3.836372,2.148120,8.468160
1005.542969,4.986667,8.862259,1.962807,0.573924
1005.546875,1.993610,1.556224,7.040657,-0.550753
1005.550781,-1.390540,-3.266270,-1.691589,5.367502
1005.554688,2.363840,-7.119664,-7.264409,-1.009412
1005.558594,-8.999856,3.841215,-14.443505,-12.843628
1005.562500,2.496755,-3.508729,-6.931864,-5.320493
1005.566406,-9.510971,-7.244249,-10.180469,-7.183246
1005.570312,-7.100894,-6.866346,-7.526869,-11.864628
1005.574219,-7.653783,-11.215369,-9.928809,-8.687052
1005.578125,-8.463905,-1.537290,-5.425442,-9.640894
1005.582031,-9.664276,-6.969633,-9.678006,2.642612
1005.585938,-8.911080,-6.661471,-13.507096,-11.222957
1005.589844,-0.576356,-2.792596,-2.030965,-2.756430
1005.593750,-9.458951,0.735880,-9.777743,-2.996349
1005.597656,4.326960,-1.340393,-10.229808,-3.305958
1005.601562,-1.610686,2.931213,3.184321,4.953503
1005.605469,8.656627,6.874002,3.764758,4.497171
1005.609375,9.637641,3.884291,9.991864,5.854914
1005.613281,-0.316503,6.340844,-0.326663,-2.601141
1005.617188,5.443754,5.435616,7.728561,11.462312
1005.621094,6.776233,9.886016,10.751866,11.482609
1005.625000,10.213546,11.409314,8.059219,6.835030
1005.628906,4.454712,6.479544,9.366838,13.166148
1005.632812,6.087929,9.312607,10.428501,10.586504
1005.636719,1.981888,1.090412,5.670560,-0.473719
1005.640625,8.233020,4.232036,7.858756,6.149637
1005.644531,-4.090220,1.027621,-1.698299,0.386089
1005.648438,4.416041,-0.697524,6.068088,-5.621914
1005.652344,2.187628,-4.564649,-0.685891,-6.745780
1005.656250,-3.190049,-8.339409,-1.404173,-3.621869
1005.660156,-6.186596,-0.898889,-6.165459,-10.081287
1005.664062,-8.583013,-6.748443,-8.768445,-12.958547
1005.667969,-13.372510,-8.296296,-5.086115,-4.052323
1005.671875,-11.529105,-8.947610,-7.029667,-11.579936
1005.675781,-9.992209,-3.270794,-5.422802,-8.564638
1005.679688,-13.200965,-7.209586,-14.675006,-10.691478
1005.683594,-8.643218,-5.095277,-11.708134,-11.882602
1005.687500,-3.887627,-4.917240,1.245185,3.085401
1005.691406,-5.177292,-7.629133,3.573663,-8.633782
1005.695312,-1.564034,2.550237,2.120712,-8.961455
1005.699219,3.306318,0.397253,-0.033408,-2.289600
1005.703125,-2.455719,2.636302,3.387157,4.821213
1005.707031,1.337934,7.494174,-1.837839,2.686361
1005.710938,9.815656,4.287384,-0.627597,-1.560226
1005.714844,15.322008,4.726037,7.445017,4.969549
1005.718750,8.073903,13.306515,9.250357,9.670330
1005.722656,12.209265,4.625751,6.652168,8.074349
1005.726562,10.053463,18.355451,0.428810,20.434528
1005.730469,14.158401,11.782436,4.803964,7.891826
1005.734375,3.686553,11.359713,10.823584,6.074570
1005.738281,7.142331,6.628730,21.001561,8.770182
1005.742188,6.817515,0.890368,10.093815,13.475267
1005.746094,1.224446,1.368381,7.469618,2.433474
1005.750000,-0.734008,-2.955602,2.257599,-2.272322
1005.753906,2.291986,-4.249610,-0.975485,-3.995104
1005.757812,1.694763,-7.646548,-5.237479,0.005257
1005.761719,0.408976,-6.172586,-2.392200,-8.182567
1005.765625,-3.581879,-4.540885,-1.540811,-8.846355
1005.769531,-11.151132,-1.814198,-15.289779,-13.386957
1005.773438,-2.058823,-12.406917,-9.329580,-13.928877
1005.777344,-2.296660,-11.511712,-10.520536,-15.029600
1005.781250,-14.879641,-10.344686,-6.297506,-2.251492
1005.785156,-7.123961,-2.564504,-0.444526,-10.475866
1005.789062,-4.283040,-3.349022,-6.473234,-5.182544
1005.792969,-10.366201,-3.481801,-6.577460,-7.706748
1005.796875,-6.024075,-9.779865,-3.051068,0.985288
1005.800781,3.437068,3.349207,1.111979,0.158826
1005.804688,1.602408,2.267965,0.714950,1.412393
1005.808594,5.932294,6.593985,5.560748,4.304350
1005.812500,7.613911,2.228663,9.566129,5.312531
1005.816406,12.311276,7.532458,9.582239,6.184018
1005.820312,14.274510,6.783191,10.044291,8.218064
1005.824219,11.886832,10.444386,9.036582,7.663528
1005.828125,9.844742,9.059680,9.107642,10.902174
1005.832031,7.658663,11.827749,10.020035,10.599138
1005.835938,2.384343,5.897219,15.037292,12.173220
1005.839844,-2.801462,-0.827818,4.951792,2.011331
1005.843750,6.159909,1.224715,0.831007,6.705660
1005.847656,4.765352,-8.152512,-3.665688,3.271401
1005.851562,2.026537,-0.872416,-0.417941,-0.528388
1005.855469,-6.205133,3.616365,-3.237176,-3.441672
1005.859375,-10.366724,-9.602690,-6.105490,-5.202120
1005.863281,-9.573158,-13.463597,-4.000738,-11.939702
1005.867188,-12.258948,-9.234806,-14.178582,-3.600568
1005.871094,-14.801580,-14.655098,-6.059102,-8.631360
1005.875000,-8.980011,-9.336738,-11.013053,-12.706431
1005.878906,-10.232649,-9.888835,-11.844857,-17.981283
1005.882812,-10.114139,-8.852268,-6.359717,-11.205957
1005.886719,-9.059775,-6.906486,-5.174411,-8.349726
1005.890625,-0.975454,-1.186716,-12.524187,-9.676292
1005.894531,-7.844977,0.642817,-2.329666,-11.463568
1005.898438,4.064068,-0.482208,-4.345029,-0.041157
1005.902344,-0.940093,0.734786,0.896758,-1.962571
1005.906250,10.159491,0.917037,5.355791,0.762036
1005.910156,3.611892,-2.369555,1.299440,3.888521
1005.914062,9.602336,9.636329,2.398287,11.354722
1005.917969,-1.093704,11.727752,7.867654,8.252135
1005.921875,2.947344,17.627985,8.053432,6.750827
1005.925781,13.854822,11.939614,7.815944,10.077825
1005.929688,9.789743,7.696590,11.952158,13.498438
1005.933594,11.875163,8.713564,9.816720,5.660890
1005.937500,4.661101,6.246746,8.769519,8.724211
1005.941406,0.326448,3.630253,2.952020,5.402685
1005.945312,3.410556,6.775512,4.004383,3.761470
1005.949219,-0.802285,4.389032,1.886134,-1.451953
1005.953125,-2.140446,0.923339,-6.364208,6.867312
1005.957031,-6.454961,5.025836,-10.207825,-3.191341
1005.960938,-4.179928,-11.012332,-13.467991,-11.391118
1005.964844,-13.776637,-4.677681,-8.094353,-7.034682
1005.968750,-11.464664,-13.176717,-11.901231,-4.075062
1005.972656,-6.575979,-19.741229,-15.016028,-13.172846
1005.976562,-13.949304,-11.178202,-20.222336,-5.886368
1005.980469,-8.228056,-13.708804,-8.811303,-10.699879
1005.984375,-9.775567,-8.413967,-9.495256,-8.935468
1005.988281,-9.545471,-16.053678,-9.121207,-0.559446
1005.992188,-3.259348,-0.253907,-5.843979,-7.624398
1005.996094,-4.075399,0.249461,-4.013369,-8.891862
1006.000000,2.899511,4.623469,0.479022,0.507689
1006.003906,2.199790,3.578259,5.918421,8.731038
1006.007812,6.171735,-3.697313,-2.300811,2.519962
1006.011719,8.155105,14.930798,2.870272,14.348557
1006.015625,6.519712,11.194351,13.442856,11.542610
1006.019531,4.297735,4.750975,10.782752,9.563341
1006.023438,10.363654,4.733147,6.411822,10.086493
1006.027344,9.011224,9.994086,10.369069,7.555373
1006.031250,14.536919,3.376871,11.019270,7.130212
1006.035156,5.908565,11.231466,8.021877,10.061599
1006.039062,8.539834,2.681656,13.532194,8.828908
1006.042969,-0.690206,0.300308,1.652708,10.251311
1006.046875,0.726679,1.573835,3.045279,10.013149
1006.050781,-0.318041,4.140329,-0.820057,0.142602
1006.054688,3.209849,-15.225521,-6.916580,-5.255032
1006.058594,-10.978946,-5.700192,-3.677000,-9.326102
1006.062500,-7.350895,-1.268369,-10.175335,-0.773516
1006.066406,-15.256999,-3.812846,-10.291601,-7.636510
1006.070312,-9.024918,-14.573735,-8.768205,-11.348792
1006.074219,-11.492556,-11.875699,-6.390404,-11.090251
1006.078125,-13.160650,-6.394449,-11.433121,-11.892662
1006.082031,-8.445323,-10.726033,-12.413716,-12.546556
1006.085938,-9.191153,-7.965729,-5.600272,-2.975935
1006.089844,-8.969202,-6.610182,-5.987538,-2.271528
1006.093750,-14.743316,-2.466798,-4.226186,-0.857363
1006.097656,-6.456885,-4.891250,-6.352334,-11.341592
1006.101562,1.551581,-0.210742,-2.311772,-1.104506
1006.105469,3.692066,1.919811,5.872320,-3.765345
1006.109375,2.206208,3.559162,6.391377,5.775872
1006.113281,8.808011,7.674180,12.248020,3.764058
1006.117188,5.876916,11.085907,13.072160,9.595002
1006.121094,11.837126,12.250936,14.674730,10.831079
1006.125000,11.290599,12.539290,8.694058,6.363499
1006.128906,19.299939,8.930475,6.017928,9.003662
1006.132812,6.982938,3.922205,4.001923,10.478667
1006.136719,7.618302,8.665909,3.290240,5.919903
1006.140625,4.684589,2.335184,9.748088,8.211874
1006.144531,-2.290019,1.334772,6.209745,0.200322
1006.148438,1.098531,-0.948002,-1.653983,-5.758734
1006.152344,0.187693,-9.677827,-3.631321,1.475967
1006.156250,-8.069756,-2.616047,-3.260577,-0.949873
1006.160156,-4.655699,-7.730119,-3.132913,-7.935952
1006.164062,-7.328954,-9.684536,-5.575222,-4.674441
1006.167969,-3.688004,-11.652496,-10.443336,-14.376906
1006.171875,-14.594153,-12.424302,-2.852469,-7.569692
1006.175781,-10.349251,-8.483638,-10.860618,-12.817512
1006.179688,-2.945087,-6.562805,-13.130449,-9.323200
1006.183594,-1.880633,-6.554590,-2.948347,-8.821575
1006.187500,-11.957702,-5.930846,0.028540,-12.860929
1006.191406,-4.253812,-7.601500,-3.664029,-4.680399
1006.195312,-13.123597,-0.234770,-1.021166,-1.567687
1006.199219,2.565360,3.562879,-2.970048,-5.934141
1006.203125,5.816835,-2.170574,7.291072,6.616780
1006.207031,5.746442,7.129291,1.848309,1.320195
1006.210938,11.345886,12.224550,6.760374,7.649338
1006.214844,12.740648,13.993583,7.965740,8.729575
1006.218750,9.367326,11.572804,11.433451,8.531094
1006.222656,5.384882,4.717060,19.495212,16.434861
1006.226562,15.792429,7.987208,7.590407,3.066435
1006.230469,4.321858,4.951162,6.952042,7.943818
1006.234375,1.742263,6.631823,6.901369,0.212747
1006.238281,4.481072,4.699849,12.957592,8.706238
1006.242188,5.749810,7.803750,8.403949,3.315093
1006.246094,7.063163,-0.620550,2.916651,-1.812972
1006.250000,2.841520,0.352281,-1.900271,1.923816
1006.253906,-4.836302,-1.261251,-6.939075,-9.487892
1006.257812,-5.452377,-2.502037,2.883788,-3.559575
1006.261719,-4.127837,-2.409550,-10.178290,-1.404536
1006.265625,-11.164278,-5.109201,-4.203848,-13.073602
1006.269531,-9.197027,-15.013191,-7.013344,-6.211926
1006.273438,-10.623939,-10.554897,-9.857261,-8.369426
1006.277344,-9.912459,-12.982057,-7.751551,-7.549857
1006.281250,-11.891940,-5.511906,-2.383980,-6.093921
1006.285156,-8.506833,-5.793899,-10.500900,-7.836917
1006.289062,-5.416252,-11.360711,-11.916034,-2.240362
1006.292969,-4.844224,-3.320112,-5.927117,6.941776
1006.296875,-5.502218,4.223609,-1.267922,-4.420857
1006.300781,-3.326626,4.955524,3.868916,7.977278
1006.304688,0.143452,5.343384,1.510918,-0.074248
1006.308594,3.789322,2.901087,6.354080,4.987678
1006.312500,9.451744,5.052911,10.136365,13.931695
1006.316406,11.615517,11.243620,11.339485,8.857467
1006.320312,10.837379,6.983066,13.012011,4.525281
1006.324219,7.022719,9.990641,19.730371,10.406081
1006.328125,19.651192,5.829915,12.559881,17.478634
1006.332031,8.347965,8.627748,12.143548,14.248177
1006.335938,2.926625,13.681997,10.800410,4.486454
1006.339844,10.815910,10.125707,7.435668,8.874194
1006.343750,1.969763,1.013835,0.848402,3.900265
1006.347656,-0.831981,1.431517,4.961246,6.925681
1006.351562,-4.019952,-5.544495,1.917833,1.129935
1006.355469,-4.300098,5.116227,-1.319592,4.761374
1006.359375,-8.954993,-5.866071,-0.972322,-2.700611
1006.363281,-9.786648,-6.861281,-14.538880,-7.674188
1006.367188,-7.046551,-3.411140,-5.258699,-7.652290
1006.371094,-6.515687,-10.616822,-13.502973,-3.040536
1006.375000,-6.891328,-8.140049,-15.155678,-6.079912
1006.378906,-17.373253,-13.509031,-11.258785,-5.027535
1006.382812,-10.053596,-11.066304,-7.419098,-7.007201
1006.386719,-5.748721,-3.007331,-13.188896,-7.170745
1006.390625,-4.845575,-3.988945,-14.273492,-11.744474
1006.394531,-3.255067,-6.435511,-6.480549,-0.942842
1006.398438,-0.195715,-3.453127,2.665704,-1.059693
1006.402344,-0.611197,3.709345,-2.966845,-1.654777
1006.406250,4.036825,2.914069,0.075661,3.836761
1006.410156,7.785416,2.019619,5.432904,6.945913
1006.414062,7.238311,11.256982,6.108148,4.916026
1006.417969,11.297818,6.954558,1.391128,9.153200
1006.421875,13.545706,10.362394,16.292129,3.351481
1006.425781,5.417443,9.903950,1.070226,6.753860
1006.429688,6.771568,11.336254,17.410132,8.604665
1006.433594,9.390614,6.928789,4.467755,11.434843
1006.437500,7.970945,11.227876,10.994059,3.074677
1006.441406,13.018839,5.550082,8.860222,5.676255
1006.445312,0.189046,-0.097598,1.095023,6.318309
1006.449219,4.524937,-8.156658,0.971406,-4.764047
1006.453125,-9.867795,-7.359168,-0.132447,2.224411
1006.457031,-4.037150,0.450309,1.950088,-9.021804
1006.460938,-6.736721,-1.402027,-2.430283,-7.681817
1006.464844,-10.495640,-7.372141,-6.429911,-5.457749
1006.468750,-5.945352,-7.663700,-10.951231,-10.649090
1006.472656,-6.566725,-13.341256,-10.017829,-10.442810
1006.476562,-7.904485,-1.620286,-12.422840,-7.084250
1006.480469,-6.280142,-17.908370,-8.606935,-11.216587
1006.484375,-9.529898,-10.208620,-13.759036,1.936274
1006.488281,-4.955965,-7.867333,-6.827632,-2.404843
1006.492188,-8.090607,-5.173671,-3.561156,-8.039384
1006.496094,-3.922671,-0.530758,-11.905828,-6.996268
1006.500000,5.416391,-6.273494,2.189830,0.672422
1006.503906,4.223055,-0.620547,3.218521,-4.611571
1006.507812,8.020503,8.625401,5.203919,5.136680
1006.511719,4.874185,6.116626,5.089027,4.305451
1006.515625,8.182659,12.153216,10.860029,9.890068
1006.519531,7.906186,9.960276,5.073059,11.231771
1006.523438,13.528556,10.519458,15.502024,6.032093
1006.527344,15.826604,14.686113,9.345298,9.720555
1006.531250,11.365036,7.369625,3.596318,7.058825
1006.535156,-0.381122,3.616126,13.034944,8.599512
1006.539062,3.790919,6.591893,14.631714,13.672797
1006.542969,1.568508,5.609466,3.364144,3.212166
1006.546875,7.309592,-0.512243,1.238686,3.774368
1006.550781,6.477319,-2.880626,4.689092,5.146243
1006.554688,-3.275645,3.237909,-1.287845,-6.279261
1006.558594,-9.379505,-7.585222,-5.741804,-4.076850
1006.562500,-3.441525,-8.496653,-9.610688,-3.466746
1006.566406,-3.904656,-13.710174,-8.085195,-9.790600
1006.570312,-10.035231,-5.336323,-11.389168,-4.346128
1006.574219,-18.678666,-6.048245,-15.139343,-10.614975
1006.578125,-1.196536,-8.300930,-8.969226,-14.028473
1006.582031,-0.560820,-8.923445,-4.904502,-11.846356
1006.585938,-11.629035,-1.024980,-3.269598,-10.026928
1006.589844,-4.962480,-4.207586,-4.267205,-8.877268
1006.593750,3.552205,-2.009593,-6.550218,-4.995330
1006.597656,-6.654262,-8.478305,1.788396,-0.153029
1006.601562,1.566153,8.154140,2.726126,-0.711057
1006.605469,6.938830,6.647753,-1.134246,8.045233
1006.609375,11.686478,3.664735,12.567317,3.249620
1006.613281,8.223966,4.842573,9.439718,8.000035
1006.617188,12.230620,12.790134,12.057654,14.765276
1006.621094,12.440889,8.858518,4.361923,4.860066
1006.625000,4.775047,10.335110,13.619523,14.002210
1006.628906,13.296435,2.725490,12.438413,10.014797
1006.632812,2.871633,5.503634,1.945699,8.303287
1006.636719,11.434484,3.307815,5.709689,7.190612
1006.640625,11.547703,2.070732,7.180575,9.346825
1006.644531,4.807280,-2.298828,3.559011,7.260411
1006.648438,5.635097,4.941996,1.663267,1.796914
1006.652344,-2.354589,-1.901834,5.325806,-5.707776
1006.656250,-5.239225,-0.901448,-1.784643,3.417712
1006.660156,-4.645496,-3.050747,-3.666297,-10.219518
1006.664062,-5.636122,-4.902734,-9.070201,-3.378570
1006.667969,-14.609929,-4.635697,-8.485690,-11.692856
1006.671875,-7.541612,-14.398384,-1.784116,-7.383140
1006.675781,-16.031051,-16.213659,-10.369703,-14.367110
1006.679688,-8.725025,-9.720769,-12.848825,-12.452335
1006.683594,-16.766283,-4.404383,-10.736983,-11.340904
1006.687500,-1.922093,-12.054285,-3.978747,-4.707161
1006.691406,-7.515572,0.275346,-3.133131,-1.982121
1006.695312,3.589900,-6.697161,-8.668076,-5.060908
1006.699219,-4.269461,-3.302152,-2.629918,7.714196
1006.703125,-0.094748,5.512531,2.236668,5.185098
1006.707031,3.843899,6.588380,6.957659,0.344338
1006.710938,5.445311,3.899695,9.285429,6.617391
1006.714844,7.924430,7.689505,0.893421,4.936802
1006.718750,5.611794,17.826964,8.863042,2.041191
1006.722656,6.664652,7.675056,6.174925,8.937779
1006.726562,12.609618,7.406144,14.250038,11.123150
1006.730469,0.311685,11.571891,14.738152,7.390915
1006.734375,8.842878,10.852440,9.547392,14.931977
1006.738281,0.977464,0.755847,6.962303,4.278456
1006.742188,8.242804,5.154433,1.381925,8.297209
1006.746094,-4.239627,1.301392,2.927070,-2.067447
1006.750000,1.729980,-2.183691,-2.261124,2.930942
1006.753906,2.553877,-5.628468,-1.828370,2.313547
1006.757812,-2.010585,2.193806,-12.963105,3.078620
1006.761719,-3.141841,-10.799537,-3.959369,-11.851106
1006.765625,-1.592153,-4.304591,-13.348517,-11.307245
1006.769531,-10.850743,-6.751365,-2.753245,-12.584299
1006.773438,-7.171099,-11.831129,-13.042636,-4.532144
1006.777344,-7.367405,-10.599886,-12.475200,-12.740631
1006.781250,-3.461010,-9.357691,-11.060192,-5.522029
1006.785156,-12.706697,-9.179787,-7.802195,-14.326796
1006.789062,-5.890084,-5.374604,-8.466901,-5.700828
1006.792969,0.079236,-2.965529,-3.652207,-14.509897
1006.796875,-5.837519,-3.360085,3.419188,3.322587
1006.800781,-0.112312,9.272382,0.909653,0.725635
1006.804688,9.235444,4.064115,-0.247306,4.708086
1006.808594,7.081695,-1.547552,-3.232324,-2.258639
1006.812500,4.282068,5.083773,5.467338,10.103447
1006.816406,19.754387,4.862903,4.623511,9.400181
1006.820312,7.688476,10.998480,12.585752,11.751030
1006.824219,8.962080,4.158489,12.801498,5.315759
1006.828125,6.985894,9.425819,7.787591,6.514560
1006.832031,17.795675,18.813019,2.202616,3.584402
1006.835938,10.896656,7.469358,16.531386,7.763846
1006.839844,5.809393,0.641075,4.127265,13.830320
1006.843750,-1.417548,6.971325,6.374375,4.241005
1006.847656,6.754886,-1.675543,-0.340384,-2.136628
1006.851562,-6.541784,-1.082409,-7.665493,-4.073810
1006.855469,-7.436403,-7.888291,-2.181809,-8.741185
1006.859375,-5.639200,-12.798162,-10.440275,2.583018
1006.863281,-4.178494,-7.553218,-9.533495,-14.240985
1006.867188,-6.054287,-12.238952,-10.100279,-2.381442
1006.871094,-5.943685,-7.341589,-12.107945,-11.695123
1006.875000,-4.702548,-11.149418,-12.252606,-17.329021
1006.878906,-14.090509,-8.763568,-5.368933,-6.140660
1006.882812,-4.348288,-9.193187,-3.586685,-2.610688
1006.886719,-6.806319,-5.380982,-7.508492,-3.612597
1006.890625,-9.378684,-5.107311,-1.189289,-5.258387
1006.894531,-6.632241,-4.716957,4.365798,-10.565506
1006.898438,-5.099272,-6.044978,-0.437222,-0.796097
1006.902344,0.885175,-1.561490,2.227880,2.982325
1006.906250,-4.047919,1.209099,-1.900628,5.955646
1006.910156,14.345511,6.950365,6.276487,9.980995
1006.914062,10.567675,-1.294540,12.208219,13.761165
1006.917969,10.256840,11.939851,13.539790,5.085839
1006.921875,11.109620,9.395539,11.529625,12.256800
1006.925781,9.176228,7.668110,10.705007,2.346159
1006.929688,10.760507,10.641063,6.970671,13.892583
1006.933594,14.651195,14.627694,10.793810,5.882929
1006.937500,10.353512,12.840491,4.615799,7.760219
1006.941406,7.600103,7.845205,1.282407,6.481409
1006.945312,2.963294,3.744036,3.606654,2.531630
1006.949219,-0.402205,-0.833723,2.783879,-2.994682
1006.953125,-2.374491,0.741407,-4.442541,-2.944065
1006.957031,-8.576597,2.781240,-3.696055,-9.617447
1006.960938,-1.343424,-4.282236,-1.990455,-5.588678
1006.964844,-6.913521,-13.908272,0.682638,-10.120224
1006.968750,-10.658158,-12.064739,-3.578229,-13.119465
1006.972656,-14.280692,-10.537460,-9.781539,-7.975984
1006.976562,-10.356377,-14.812654,-5.928332,-7.706872
1006.980469,-5.306044,-18.660092,-14.864568,-13.701265
1006.984375,-7.720146,-5.268920,-10.436395,-11.295139
1006.988281,-7.923262,-10.105272,-5.297805,-11.863502
1006.992188,0.251838,1.520101,-7.266139,-12.338233
1006.996094,-6.150300,0.555484,-1.912915,-1.461488
1007.000000,1.639018,-4.567100,-4.426071,-1.393530
1007.003906,4.079751,0.668940,-3.270199,-1.777705
1007.007812,6.376703,6.328553,3.767219,4.667153
1007.011719,17.155024,9.297199,11.438479,3.344410
1007.015625,5.569675,10.857556,6.663284,6.232220
1007.019531,11.139521,6.464984,11.603208,13.295991
1007.023438,6.056417,17.202760,7.479800,15.402106
1007.027344,19.020105,7.513315,13.010012,13.069391
1007.031250,6.223619,15.396641,7.594888,14.825695
1007.035156,3.041391,7.555773,8.828815,7.142076
1007.039062,7.418122,5.929487,9.283091,9.384423
1007.042969,6.629152,4.583077,3.840685,6.914830
1007.046875,3.397369,4.812457,-1.314542,-3.194903
1007.050781,-1.362013,-4.189306,1.753783,-1.646303
1007.054688,0.262373,0.008851,-8.596023,-1.632326
1007.058594,-1.819744,-5.322253,-8.844947,-8.561468
1007.062500,-11.005441,-11.466912,-5.349764,-9.110137
1007.066406,-11.420185,-3.639978,-6.568804,-13.858307
1007.070312,-8.576509,-15.950471,-16.157387,-6.790617
1007.074219,-6.719166,-17.395706,-7.676773,-13.818030
1007.078125,-6.857233,-7.186696,-11.803254,-6.333257
1007.082031,-14.929840,-10.670012,-3.162751,-8.177925
1007.085938,-13.526622,-20.193954,-18.152156,-10.045266
1007.089844,-9.683735,-7.147956,-9.248201,-12.931961
1007.093750,-6.714259,-1.033964,-5.947887,-3.053115
1007.097656,1.617288,-3.916984,-4.089611,2.364468
1007.101562,0.913787,1.441187,0.544210,3.239012
1007.105469,0.141869,-1.242043,7.484091,8.453232
1007.109375,1.881989,7.446610,3.939079,3.150960
1007.113281,9.813921,13.460867,12.942375,5.301923
1007.117188,14.563768,4.446844,8.799793,12.026626
1007.121094,1.295157,11.873067,8.480055,11.958899
1007.125000,8.907617,5.807082,11.903073,14.678263
1007.128906,7.200141,8.016726,16.098319,17.252487
1007.132812,5.190347,6.769704,7.473590,7.631646
1007.136719,13.534999,5.078133,2.710687,9.277526
1007.140625,7.387179,5.328661,8.321629,8.753933
1007.144531,1.738794,3.838789,4.610975,1.335011
1007.148438,-0.705135,-2.036165,-0.849055,9.474730
1007.152344,2.529652,-0.351991,-2.104371,-4.951085
1007.156250,-1.474914,-4.759289,-1.224815,-8.259227
1007.160156,-3.150217,-5.778594,-0.953393,-8.752791
1007.164062,-6.972270,-14.135786,-5.918467,-7.355731
1007.167969,-2.408976,-4.291475,-14.647179,-14.399269
1007.171875,-14.594269,-12.563133,-7.214143,-6.440531
1007.175781,-11.339562,-5.082889,-19.632813,-7.450715
1007.179688,-9.718918,-9.040021,-8.899047,-7.912213
1007.183594,-13.540318,-17.632710,-6.636021,-14.998553
1007.187500,-9.134882,-9.833101,-10.189313,-3.040382
1007.191406,-5.235547,-7.019731,-8.002656,0.410797
1007.195312,-6.598585,-6.515419,3.752006,-7.855758
1007.199219,4.850286,-0.627467,1.291932,-0.029662
1007.203125,-0.254805,-0.072682,3.786252,5.237578
1007.207031,2.445463,2.940581,1.355454,7.004763
1007.210938,9.825977,4.867404,16.823771,3.416704
1007.214844,9.636895,3.712185,10.160251,8.872426
1007.218750,12.151506,10.934313,7.999188,9.561393
1007.222656,10.677075,7.238983,4.107162,8.318537
1007.226562,6.078355,12.782135,13.108100,9.732126
1007.230469,13.493542,11.114820,5.003526,13.324532
1007.234375,1.405025,6.390899,10.524013,5.743518
1007.238281,4.855624,3.488292,-0.744501,5.439265
1007.242188,2.895290,8.368551,1.823091,4.804561
1007.246094,1.457430,6.734777,-0.244309,-6.263662
1007.250000,1.709248,-0.058487,-3.631810,-2.670828
1007.253906,-1.832025,-1.398472,-0.028627,-1.626048
1007.257812,-9.029743,-9.021034,-10.924488,-10.531925
1007.261719,-1.556068,-7.841020,-18.853892,-10.383472
1007.265625,-15.001552,-7.798481,-8.998903,-6.692047
1007.269531,-13.308126,-8.022079,-10.089543,-7.462167
1007.273438,-6.009041,-10.871580,-8.016215,-15.781909
1007.277344,-5.041076,-6.704965,-8.057118,-17.250664
1007.281250,-12.337300,-3.698150,-8.236824,-10.878856
1007.285156,-10.031106,-0.094622,-11.736389,-8.016611
1007.289062,-10.910104,-1.866504,-1.833422,-1.271787
1007.292969,-8.060671,-5.818761,-9.478105,-5.692679
1007.296875,-0.722824,-2.706835,-0.796353,-6.202457
1007.300781,0.879013,2.142652,-1.988233,6.950275
1007.304688,-5.837638,4.280466,-2.022843,2.107096
1007.308594,-3.356820,2.728386,5.388225,5.888718
1007.312500,8.271011,7.284848,10.225971,8.925983
1007.316406,15.325143,5.921823,6.891123,3.422867
1007.320312,12.002110,14.184513,9.334111,11.315940
1007.324219,0.923695,3.789814,6.036180,14.498425
1007.328125,7.925555,-2.316357,1.671852,12.469046
1007.332031,8.820540,6.156390,5.958139,10.619792
1007.335938,6.459911,10.825755,1.576345,2.299659
1007.339844,2.850178,7.970939,4.662036,9.186164
1007.343750,6.416344,10.272348,4.274444,2.405272
1007.347656,-0.055620,5.737697,7.534003,-3.002008
1007.351562,-3.394825,6.788590,2.125639,4.995999
1007.355469,-3.356312,-5.076032,-0.813186,-1.286359
1007.359375,-7.761303,-9.616916,-1.079221,-11.019741
1007.363281,-7.350478,-4.472979,-7.754778,-11.013991
1007.367188,-8.722453,-1.536039,-1.491389,-4.626321
1007.371094,-6.171884,-7.070870,-8.657663,-9.849544
1007.375000,-13.018430,-13.307978,-16.992586,-11.983435
1007.378906,-13.009425,-1.938120,-7.309991,-6.535134
1007.382812,-11.270304,-7.294074,-7.514321,-7.119283
1007.386719,-11.576359,-1.313730,-7.177963,-11.488769
1007.390625,-9.999007,-5.618516,-4.833843,-7.190789
1007.394531,-4.796981,-4.176824,-0.937732,1.768680
1007.398438,-1.557146,0.622622,1.126870,-4.576159
1007.402344,4.772692,-2.739896,-2.715488,4.574559
1007.406250,4.275737,9.406467,-1.422558,5.925666
1007.410156,7.206254,4.019875,8.281391,7.475748
1007.414062,11.591983,8.504455,5.537648,6.888635
1007.417969,11.169024,6.088491,12.084292,6.841839
1007.421875,8.282376,12.090924,3.786628,9.853408
1007.425781,5.443855,14.617798,16.351117,14.587728
1007.429688,11.626277,9.507282,7.131485,11.254491
1007.433594,6.236524,5.415469,3.793621,12.430748
1007.437500,5.235287,3.927124,-0.909866,4.392703
1007.441406,8.317352,6.360063,3.952731,6.277748
1007.445312,5.567106,6.049159,-0.653462,2.676877
1007.449219,-0.844946,-0.772295,0.586764,0.818441
1007.453125,-13.250036,0.001720,-1.071883,-0.186994
1007.457031,1.930359,-6.933460,-0.926466,-5.840831
1007.460938,-0.787914,-11.036988,-7.864038,-13.114616
1007.464844,-3.845332,-11.324401,-13.141933,-5.019445
1007.468750,-8.318228,-6.744395,-5.809661,-14.934898
1007.472656,-3.099792,-10.161901,-8.681409,-11.415430
1007.476562,-13.536025,-13.026544,-8.426038,-4.324965
1007.480469,-10.186521,-7.553290,-6.229024,-9.152000
1007.484375,-14.950323,-10.208539,-11.059822,-6.606768
1007.488281,-10.549922,-4.169993,-8.474414,-13.195742
1007.492188,-9.748586,1.490918,2.213746,-2.187944
1007.496094,-5.318102,-2.356348,-7.016561,-0.886335
1007.500000,-1.006590,-4.488476,1.990685,-0.718336
1007.503906,-1.120483,9.501043,7.710456,5.190539
1007.507812,0.764789,5.651102,4.027698,8.766652
1007.511719,16.620031,6.417042,14.841853,6.096699
1007.515625,8.805459,0.496364,5.497646,4.793206
1007.519531,8.246628,15.022302,5.836801,5.978323
1007.523438,13.161701,8.201996,12.627037,9.726167
1007.527344,14.403093,17.253707,9.693052,5.956733
1007.531250,6.102831,13.794724,8.828415,10.237123
1007.535156,1.478093,11.302963,5.488967,9.760269
1007.539062,10.493892,4.595735,7.732399,14.072202
1007.542969,2.607068,4.080638,4.256874,1.593174
1007.546875,-2.630352,5.421531,5.866296,5.788467
1007.550781,-4.499132,-4.410477,5.779598,-5.049864
1007.554688,-6.810676,-4.505321,-5.982982,1.557568
1007.558594,0.507690,-7.039085,-3.285762,1.560721
1007.562500,-4.860961,-4.312625,-6.762859,-1.397458
1007.566406,-9.083544,-8.676604,-3.391035,-4.049319
1007.570312,-4.678374,-12.380682,-11.670237,-16.768370
1007.574219,-15.902404,-8.410108,-5.161675,-8.417804
1007.578125,-15.788671,-11.200429,-9.915665,-13.182203
1007.582031,-9.487561,-8.922385,-15.360577,-3.913074
1007.585938,-6.656976,-13.907065,-5.365917,-13.108386
1007.589844,-9.330252,-0.206512,-2.980866,0.583780
1007.593750,-7.702116,-8.664538,-3.922473,-0.141159
1007.597656,-0.093552,-2.260448,-3.349575,2.925377
1007.601562,1.110844,9.885570,-1.287439,4.728892
1007.605469,4.590011,7.156375,2.451498,0.711401
1007.609375,9.208315,5.761611,3.603827,4.063897
1007.613281,15.112634,-0.710280,1.301106,4.905008
1007.617188,11.172125,9.465854,11.520762,8.736607
1007.621094,8.866282,6.230927,8.621154,12.743411
1007.625000,14.539608,8.007742,9.641537,11.994566
1007.628906,-1.256611,3.169625,5.939225,11.238306
1007.632812,5.054356,10.128706,12.765814,10.927984
1007.636719,13.196089,11.202676,4.276434,2.082817
1007.640625,1.156282,7.913721,4.592743,1.208870
1007.644531,2.045918,-2.585286,1.124386,-1.787683
1007.648438,4.108007,5.692800,-1.731230,-2.241083
1007.652344,-2.565240,-0.575446,-5.034974,1.185126
1007.656250,-7.854068,-0.843378,-4.070346,-8.091755
1007.660156,1.466002,-6.615735,-10.430271,-12.333907
1007.664062,-9.675769,-3.607494,-9.387605,-4.543930
1007.667969,-12.158734,-16.591427,-9.497322,-11.321601
1007.671875,-7.967676,-4.692315,-13.563501,-12.583307
1007.675781,-14.294989,-20.393538,-13.487536,-12.859131
1007.679688,-13.349373,-8.123432,-1.382316,-13.059000
1007.683594,-11.938567,-8.032186,-9.834935,-17.515435
1007.687500,-8.522544,-8.902511,-7.523924,-3.636359
1007.691406,-6.912577,-11.002935,-3.889812,0.456685
1007.695312,-2.685084,-0.888506,2.866601,-7.388633
1007.699219,-3.064155,-1.778579,-3.304220,-3.722059
1007.703125,-0.265298,4.985813,-0.410173,1.296950
1007.707031,2.084981,5.991658,7.563182,-0.023106
1007.710938,8.585774,8.791308,2.786085,10.592709
1007.714844,4.694084,3.675088,11.183189,11.553447
1007.718750,11.841453,8.188795,5.754055,-3.397312
1007.722656,8.334383,10.722033,14.367310,10.897513
1007.726562,11.235722,8.747370,14.512348,-2.929055
1007.730469,9.148370,5.917217,12.229704,10.219352
1007.734375,9.618489,10.075971,7.490683,8.810500
1007.738281,6.357849,11.023946,4.757529,10.597188
1007.742188,-1.178595,6.079336,4.660483,-4.284400
1007.746094,10.934214,-0.913924,2.042186,-5.288291
1007.750000,1.562976,2.159625,-1.212165,0.381363
1007.753906,-5.559876,8.650257,-5.272195,-2.448574
1007.757812,-12.509905,-8.502854,-5.549835,0.992754
1007.761719,-6.933061,-5.343086,-6.667565,-8.407768
1007.765625,-7.083961,-16.896566,-7.949536,-11.099829
1007.769531,-7.803421,-5.025410,-6.548234,-13.069125
1007.773438,-17.922369,-6.223080,-7.457038,-10.798265
1007.777344,-5.455678,-9.568636,-12.316749,-13.284233
1007.781250,-5.341223,-2.655137,-16.089652,-10.232555
1007.785156,-8.081996,-4.565694,-14.545819,-5.199550
1007.789062,-3.518748,-11.679424,-11.207628,-7.180048
1007.792969,-7.728174,-5.211695,-10.898575,-1.469508
1007.796875,-3.927044,4.404316,5.501847,-5.295688
1007.800781,5.215553,-3.494413,5.882288,2.598459
1007.804688,6.781913,1.268738,-2.000557,2.237927
1007.808594,9.537627,6.709854,8.964886,2.570849
1007.812500,10.471427,11.615280,4.444491,7.451477
1007.816406,9.651621,6.258829,10.217598,6.833146
1007.820312,16.774010,2.525971,9.707996,6.985861
1007.824219,6.180895,15.754742,3.189925,10.394257
1007.828125,15.058450,11.260044,10.362684,19.020024
1007.832031,9.670023,4.664222,6.194566,2.037989
1007.835938,11.702214,10.006227,10.874229,2.848908
1007.839844,4.978243,4.924152,5.372690,4.016027
1007.843750,-0.058447,2.097931,8.259429,11.201211
1007.847656,-9.192992,4.792945,3.197016,0.500127
1007.851562,-3.722016,-4.907130,-6.960543,5.237968
1007.855469,-13.309139,-2.879941,-7.047151,-13.296579
1007.859375,-3.436794,-5.494617,-8.106884,-0.101447
1007.863281,-5.544473,-1.187554,-3.280796,-11.507197
1007.867188,-18.822509,-4.543384,-11.124505,-10.397962
1007.871094,-15.259057,-8.344194,-8.622932,-14.594350
1007.875000,-10.797074,-12.982735,-14.466926,-2.530388
1007.878906,-7.400214,-16.056421,-10.401637,-7.851226
1007.882812,-7.259190,-7.319758,-9.735284,-1.394302
1007.886719,-15.711331,-0.656619,-16.827844,-4.469373
1007.890625,-7.079629,-7.378636,-3.948451,-10.608709
1007.894531,-5.672025,-4.970321,-7.511156,-2.513263
1007.898438,-3.552805,-0.421481,2.496854,-4.761499
1007.902344,0.775355,4.943624,-0.715505,-4.594966
1007.906250,6.775223,1.584276,0.822868,-0.848720
1007.910156,9.798002,4.538007,5.341578,9.960674
1007.914062,6.004448,9.047417,15.794470,9.661655
1007.917969,8.494784,5.503679,7.958345,13.137642
1007.921875,6.746518,14.662403,7.415569,11.981716
1007.925781,5.908284,7.272456,10.145085,10.868536
1007.929688,3.173689,10.046894,16.024270,14.255164
1007.933594,11.955601,17.510240,10.868221,17.335582
1007.937500,1.107922,4.043202,3.967349,10.853127
1007.941406,2.313671,10.046088,5.324661,1.314807
1007.945312,1.592476,3.454559,3.681089,2.061605
1007.949219,-6.793640,0.871222,3.563496,-1.706774
1007.953125,1.003095,-0.221670,-6.722114,-2.201787
1007.957031,-4.996266,-3.957124,-3.305782,-9.090238
1007.960938,-3.718271,-8.217737,-5.592144,-6.098520
1007.964844,-3.416106,-6.358315,-10.098230,-8.950209
1007.968750,-1.899506,-7.337836,-7.413754,-15.523562
1007.972656,-8.673711,-8.930344,-11.566655,-4.175185
1007.976562,-15.558379,-13.012024,-6.429635,-18.503420
1007.980469,-4.314153,-11.039325,-6.779671,-14.050713
1007.984375,-9.708161,-14.483513,-14.325132,-0.984615
1007.988281,-7.883067,-5.841899,-9.216701,-4.149736
1007.992188,-1.913244,-2.669065,-5.497214,-8.486711
1007.996094,0.161470,-4.462336,-2.916996,-3.290923
1008.000000,4.432751,0.240884,0.515053,-3.514401
1008.003906,4.175658,3.814627,2.073095,-2.592026
1008.007812,8.844969,-0.654459,0.535191,6.239526
1008.011719,15.070515,6.393389,7.823738,7.532911
1008.015625,7.636636,8.058842,7.141536,4.638230
1008.019531,9.572535,3.476601,7.244737,3.405438
1008.023438,10.329469,9.855559,14.063253,12.949710
1008.027344,11.931722,16.623666,10.984462,12.004290
1008.031250,10.447026,8.210739,6.984231,13.842919
1008.035156,8.627952,4.562700,9.639641,8.004908
1008.039062,6.704739,0.459525,6.027629,12.934156
1008.042969,8.503022,5.113179,3.376123,3.471724
1008.046875,4.003961,6.496534,9.473633,0.485103
1008.050781,-4.083116,-8.566895,-2.020206,6.992303
1008.054688,-3.521411,-6.862765,-2.692023,-5.619062
1008.058594,-2.634107,-6.717161,0.482267,-7.253791
1008.062500,-11.090747,-11.814540,-4.831798,-1.990434
1008.066406,-6.123664,-11.430904,-6.363697,-9.375720
1008.070312,-1.700544,-13.080802,-2.914261,-12.382175
1008.074219,-12.241134,-8.438996,-13.314397,-15.134226
1008.078125,-9.410664,-12.441165,-15.831162,-5.372893
1008.082031,-13.774890,-12.944739,-14.646930,-13.202494
1008.085938,-9.102883,-9.454923,-10.572094,-6.695453
1008.089844,-7.084715,-2.483188,-1.919168,-8.185923
1008.093750,-6.887468,-1.201970,-6.191128,-6.998702
1008.097656,-5.510894,-3.261978,-4.030130,7.899994
1008.101562,-2.006622,-4.626536,7.397858,-2.205399
1008.105469,3.461480,8.999225,4.065482,1.632516
1008.109375,2.496630,3.495308,5.489567,12.898374
1008.113281,1.343369,10.093071,4.253357,1.786096
1008.117188,18.894937,8.330219,5.659863,13.607329
1008.121094,8.286462,11.084320,5.371005,11.861272
1008.125000,7.968597,8.984721,8.683188,2.314398
1008.128906,6.001415,14.216917,12.931703,1.993565
1008.132812,5.998004,9.938087,13.489427,6.639849
1008.136719,9.232495,6.258516,-0.305004,6.493602
1008.140625,-0.608560,-0.699589,6.859653,1.719619
1008.144531,1.405377,3.230074,12.250130,1.165864
1008.148438,8.957836,0.640661,0.136709,-4.597634
1008.152344,5.478668,-5.544519,3.155395,-0.380777
1008.156250,-7.109394,-0.495600,-2.872013,-2.835305
1008.160156,-5.884512,-4.591534,-8.660115,-4.856133
1008.164062,-8.725584,-5.350284,-8.961430,-10.071478
1008.167969,-9.464378,-7.918720,-8.411558,-4.366211
1008.171875,-10.898537,-8.851024,-7.991936,-11.986950
1008.175781,-12.409827,-10.713823,-16.257318,-14.804058
1008.179688,-12.738024,-14.483323,-9.425553,-6.451846
1008.183594,-6.024534,-7.988819,-5.348588,-7.615860
1008.187500,-8.682265,-5.902437,-10.650870,-13.572601
1008.191406,-6.808856,-10.255443,-7.033236,0.858476
1008.195312,-5.524296,1.324887,-1.108107,-2.098078
1008.199219,-0.765723,0.652954,-0.659886,1.379318
1008.203125,7.236266,7.347990,-6.311253,2.278659
1008.207031,2.883063,2.884143,2.651783,4.331237
1008.210938,10.892752,10.620144,3.310148,8.891469
1008.214844,13.413473,9.408589,6.329870,7.135401
1008.218750,5.894750,6.250816,16.667224,7.191041
1008.222656,9.134974,17.056471,14.868209,13.148927
1008.226562,12.846057,11.588669,6.590316,8.695036
1008.230469,11.412612,3.498285,17.201289,6.513043
1008.234375,4.226869,5.081258,5.450707,6.756794
1008.238281,10.379530,5.586870,1.678599,1.646061
1008.242188,1.711685,4.001639,7.640768,4.650937
1008.246094,7.176857,-1.639854,-1.718161,7.066201
1008.250000,8.374379,-4.247586,-0.940528,-2.202304
1008.253906,1.315447,-8.067445,-5.568821,-1.386250
1008.257812,-2.617351,-5.654000,-3.318413,-6.507754
1008.261719,-11.868594,-4.276894,-9.795807,-7.342726
1008.265625,-9.112436,-7.553229,-11.016013,-15.541158
1008.269531,-10.969881,-7.177643,-9.581656,-12.238916
1008.273438,-12.987726,-15.692563,-11.595612,-14.142035
1008.277344,-8.553903,-22.072005,-18.190007,-7.461957
1008.281250,-6.739526,-3.473048,-12.682983,-7.020402
1008.285156,-0.061528,-0.974373,-9.107053,-5.706342
1008.289062,-11.289458,-8.489163,-6.752702,-4.435540
1008.292969,-8.290095,1.066704,-3.012443,-3.181043
1008.296875,2.068978,0.515659,3.861307,-1.578940
1008.300781,-2.235753,-0.210137,-0.634297,-3.963588
1008.304688,3.738258,4.954826,-0.940556,0.787003
1008.308594,2.511984,10.735996,-1.067716,7.097937
1008.312500,2.397504,5.501181,5.725498,8.078396
1008.316406,8.434478,10.014940,5.421846,7.561503
1008.320312,4.565920,12.832485,2.865283,6.974129
1008.324219,12.026336,5.309710,3.030838,7.176104
1008.328125,11.608693,4.165512,12.866556,14.276102
1008.332031,6.886799,8.668701,13.659562,10.009717
1008.335938,8.627546,8.992024,6.841403,8.941112
1008.339844,6.044445,7.203344,11.544066,12.434914
1008.343750,1.049622,0.616837,3.434376,5.624981
1008.347656,7.589978,3.889186,2.281272,-1.431278
1008.351562,-2.510413,0.868996,-6.568891,2.503574
1008.355469,-0.353282,-11.088288,-3.989762,0.755607
1008.359375,-5.534728,-4.747504,2.817201,-7.996598
1008.363281,-4.804379,-9.664082,-6.493033,-3.685573
1008.367188,-5.027860,-10.873816,-12.945195,-10.464536
1008.371094,-10.903948,-19.914618,-10.055547,-12.728158
1008.375000,-12.576962,-9.519633,-15.934095,-8.516437
1008.378906,-5.289113,-9.799783,-16.320895,-10.739800
1008.382812,-14.999435,-0.430764,-5.906178,-6.242112
1008.386719,-10.548382,-12.051704,-7.064233,-10.925720
1008.390625,-1.225582,-2.791484,-3.771202,-0.890479
1008.394531,-7.762217,0.281096,0.429215,1.227468
1008.398438,-0.612859,-2.991087,-6.390419,-4.050334
1008.402344,3.369038,6.535397,-4.978667,-5.480783
1008.406250,8.908652,1.806582,5.200180,-1.899955
1008.410156,4.327918,5.020202,2.511750,9.886488
1008.414062,5.522981,6.687165,9.627159,7.494058
1008.417969,3.835329,10.131531,11.887711,14.764647
1008.421875,0.247538,5.788700,9.521447,7.533142
1008.425781,6.581421,10.625354,9.202688,10.356375
1008.429688,10.208951,3.896564,4.045895,10.708959
1008.433594,8.974539,3.214693,12.867855,11.503918
1008.437500,9.670184,6.111671,4.422979,1.712030
1008.441406,7.411351,4.609466,8.499579,-1.874292
1008.445312,-2.177554,8.072635,9.883356,7.144974
1008.449219,4.954218,4.422802,0.302455,-4.795809
1008.453125,-4.867318,2.358756,-2.210371,-2.725761
1008.457031,-2.308730,-8.392193,-6.960728,0.264051
1008.460938,0.895120,-7.713123,-1.360925,-2.064293
1008.464844,-0.149766,-10.274219,-3.948993,-4.913195
1008.468750,-13.324904,-8.064779,-11.518129,-4.011759
1008.472656,-8.706308,-15.898981,-12.145330,-7.326020
1008.476562,-1.230507,-15.155834,-2.383084,-4.953873
1008.480469,-9.797842,-13.012618,-6.686633,-7.109514
1008.484375,-6.162304,-10.796144,-8.093237,-2.156251
1008.488281,-4.778055,-10.048807,-4.278433,-9.013426
1008.492188,-1.423713,-0.580019,-4.446388,-2.951740
1008.496094,-3.505669,1.306014,-0.609306,-2.693867
1008.500000,3.377620,-1.623662,4.152506,-0.502013
1008.503906,7.966063,9.620966,0.859136,3.225467
1008.507812,5.952110,3.066094,-0.639154,-0.183183
1008.511719,5.134399,7.815525,14.273113,5.086254
1008.515625,6.080197,11.502431,1.573594,9.692219
1008.519531,12.083116,11.360135,8.972220,12.034757
1008.523438,6.073223,9.990875,13.574826,6.834378
1008.527344,14.636776,16.513274,4.245945,7.019934
1008.531250,16.432364,18.015654,13.829048,10.258334
1008.535156,5.728861,5.488250,7.500411,5.512101
1008.539062,5.256155,13.405964,5.512779,5.000667
1008.542969,7.614834,4.341467,3.840080,4.975012
1008.546875,4.971741,5.357110,0.632147,3.488989
1008.550781,-4.126457,-1.976041,2.226478,0.350569
1008.554688,-4.466318,0.487859,0.584112,-5.887531
1008.558594,-10.116440,-7.413616,-15.012272,-12.882382
1008.562500,-1.845305,-8.597606,-8.463772,-11.850070
1008.566406,-11.976614,-9.799836,-9.064882,0.579231
1008.570312,-13.051360,-3.471900,-9.967877,-7.780244
1008.574219,-11.112528,-4.354752,-1.308526,-13.340286
1008.578125,-4.500642,-17.421318,-6.268173,-10.550638
1008.582031,-6.828621,-7.296513,-9.028760,-13.136485
1008.585938,-5.985611,-3.998598,-16.310255,-9.153516
1008.589844,-7.854249,-1.868478,-0.145826,-5.802688
1008.593750,0.598634,-6.355777,-6.317220,-4.938592
1008.597656,-7.449376,-6.377893,-4.066259,1.634074
1008.601562,2.113556,-1.373912,-1.293827,-6.011983
1008.605469,7.281807,9.505313,-2.836644,7.820780
1008.609375,2.623805,3.050754,4.179088,8.025196
1008.613281,5.141835,9.900827,1.366065,10.269286
1008.617188,11.271641,9.385263,11.295727,10.590890
1008.621094,11.948077,10.961541,9.398783,15.210811
1008.625000,8.770839,5.236852,13.111286,13.636576
1008.628906,15.303434,3.644724,6.104506,6.739792
1008.632812,9.440806,6.368385,13.249220,11.841018
1008.636719,3.304172,7.064501,5.589254,12.328793
1008.640625,1.803313,6.657990,5.642991,5.636025
1008.644531,3.999754,6.564349,10.718008,1.890281
1008.648438,-1.130906,5.934107,-1.638166,-1.846611
1008.652344,1.665686,-4.076138,1.202364,4.735795
1008.656250,-6.438890,-4.130313,-7.938464,-4.759980
1008.660156,-12.211568,-4.865808,-7.981009,-7.378917
1008.664062,-8.690431,-10.744102,-8.495343,-14.723619
1008.667969,-6.460849,-7.780757,-15.591855,-14.030294
1008.671875,-9.299772,-11.899732,-10.927591,-12.730566
1008.675781,-9.085930,-9.747928,-12.500292,-12.285542
1008.679688,-7.814942,-8.345256,-6.104573,-4.072371
1008.683594,-5.645213,-11.687016,-2.248552,-10.706214
1008.687500,-2.949964,-6.610358,-3.353341,-3.372659
1008.691406,-8.197557,-5.679015,-6.926733,-2.488105
1008.695312,-2.951596,5.804673,-0.338114,-3.553180
1008.699219,-3.280147,0.832500,-4.704771,4.344243
1008.703125,7.112955,4.407878,2.354992,0.760089
1008.707031,2.669734,6.664637,6.384727,6.881953
1008.710938,3.224384,5.737774,6.456654,10.398857
1008.714844,6.371935,5.618835,12.027649,7.449248
1008.718750,11.216975,11.169206,15.408372,4.365211
1008.722656,18.990686,16.193235,16.179915,16.825259
1008.726562,10.667346,2.386795,7.214670,7.306009
1008.730469,9.590012,6.990341,12.278279,12.086873
1008.734375,1.702961,5.912406,-5.299988,7.130115
1008.738281,10.847401,6.700816,9.739331,6.018210
1008.742188,6.806475,5.127669,3.496862,3.829904
1008.746094,4.687958,-2.242060,5.966654,-1.478626
1008.750000,4.427098,-1.976078,2.691522,-4.111848
1008.753906,-0.176788,-0.699237,-4.894951,-1.466510
1008.757812,-4.493362,-5.180009,-2.889644,-8.308257
1008.761719,-4.886949,-7.274323,-3.740245,-9.624430
1008.765625,-7.036832,-9.256782,-6.892930,-9.344812
1008.769531,-7.422103,-9.664422,-8.227412,-6.997873
1008.773438,-7.022609,-12.694918,-9.182872,-14.153851
1008.777344,-13.139142,-8.837598,-7.434016,-9.301779
1008.781250,-15.492721,-9.420174,-2.650275,-5.165974
1008.785156,-10.502352,-8.686888,-6.668818,-7.726383
1008.789062,-6.241101,-8.674499,-8.079072,-0.693652
1008.792969,-5.096204,-9.537917,8.033379,-5.973964
1008.796875,-4.416247,-11.384200,-5.031966,3.426784
1008.800781,10.994607,-3.916993,-0.484807,2.996045
1008.804688,2.750684,4.676161,5.952624,4.192921
1008.808594,4.329310,5.080902,9.117137,10.539637
1008.812500,2.210909,7.748518,10.188850,13.908580
1008.816406,8.574638,10.870204,10.307483,2.042618
1008.820312,10.249373,9.773451,10.014461,12.150413
1008.824219,5.225509,5.376154,10.107318,18.058828
1008.828125,4.122134,9.072526,8.564788,11.243040
1008.832031,9.017383,9.790447,11.524506,7.617140
1008.835938,6.060988,3.685132,0.454100,8.344787
1008.839844,4.565376,7.078709,5.087417,4.656485
1008.843750,9.679345,1.900618,3.569538,0.129975
1008.847656,1.648676,2.249083,-5.611817,2.005480
1008.851562,0.186963,1.396305,0.456876,-7.604915
1008.855469,-2.383581,0.768813,4.071075,-7.888211
1008.859375,-9.354651,-9.124453,2.709266,-3.850904
1008.863281,-3.539664,-1.479461,-0.856623,-6.132146
1008.867188,-6.637635,-8.741486,-4.153601,-9.958328
1008.871094,-7.980575,-9.640515,-8.841347,-6.641676
1008.875000,-12.313979,-12.048732,-11.506405,-10.603366
1008.878906,-4.283679,-12.384712,-7.834648,-5.685622
1008.882812,-17.680587,-10.635272,-3.381831,-13.031745
1008.886719,-12.122745,-4.502005,-10.512092,-0.086467
1008.890625,-4.488917,-8.710006,1.646957,6.902749
1008.894531,-1.485440,-1.820476,-8.894968,-8.053232
1008.898438,0.693086,3.742585,-5.576371,-1.956813
1008.902344,2.511025,1.316818,2.681316,3.216964
1008.906250,5.129024,5.311236,5.657253,9.371139
1008.910156,1.269783,7.206801,5.686076,6.654135
1008.914062,8.555180,8.674735,15.224213,5.220565
1008.917969,12.708787,9.256369,14.096639,12.601958
1008.921875,15.691916,8.716945,5.558445,19.790122
1008.925781,11.685977,10.707531,7.568048,7.332647
1008.929688,10.484537,17.805169,12.875734,5.540486
1008.933594,4.663069,4.969776,7.363019,8.520855
1008.937500,3.257564,3.900122,6.395056,8.113326
1008.941406,11.194190,5.408953,2.245002,4.404742
1008.945312,6.813450,5.395464,4.634724,6.577132
1008.949219,-4.411103,3.968257,3.526110,-3.391335
1008.953125,-3.507011,-4.939008,-5.072904,-3.072263
1008.957031,-10.247835,3.171082,-3.615219,4.264179
1008.960938,-5.301845,-1.197262,-2.287742,-8.140227
1008.964844,-0.821162,1.368489,-3.232580,-5.364382
1008.968750,-7.618716,-9.833022,-9.316058,-11.148445
1008.972656,-6.922575,-11.177751,-13.090248,-13.677951
1008.976562,-13.273387,-13.941102,-9.615046,-9.160390
1008.980469,-9.224529,-14.152880,-9.285563,-12.934529
1008.984375,-11.425385,-3.636964,-3.952267,-3.320043
1008.988281,-7.970819,-2.409125,-15.133240,-8.927549
1008.992188,-4.115817,-3.327640,-0.203218,-3.150516
1008.996094,-0.427800,-2.627756,-1.132974,-12.991325
1009.000000,-5.009044,-7.491308,-4.914447,-7.916853
1009.003906,-0.658561,4.038554,-3.293562,-6.270094
1009.007812,1.734911,0.708681,10.515348,8.571481
1009.011719,7.081202,13.359548,0.797530,5.635766
1009.015625,-3.306198,7.038182,9.858612,3.013513
1009.019531,16.812344,13.442114,15.874545,8.472846
1009.023438,6.238574,11.926294,5.179205,13.742719
1009.027344,9.023121,11.923005,7.915535,4.308220
1009.031250,9.010086,12.709278,9.530354,7.217214
1009.035156,8.282998,7.911056,2.531576,8.287082
1009.039062,11.216206,4.242438,5.746687,7.519390
1009.042969,4.164840,8.219290,9.089706,9.338353
1009.046875,0.312765,-0.122293,8.180928,5.032114
1009.050781,-2.517916,0.936477,0.818047,0.060363
1009.054688,-0.905691,-2.544815,-3.236881,-9.724110
1009.058594,-5.719815,-3.789985,-0.958433,-8.010183
1009.062500,-16.938331,-11.423783,-10.010149,-8.226374
1009.066406,-8.446139,-4.781926,-11.524915,-5.343888
1009.070312,-11.225772,-7.732585,-13.400047,-13.118075
1009.074219,-5.669291,-10.710261,-10.565369,-11.283959
1009.078125,-10.343507,-10.251734,-6.815186,-15.442145
1009.082031,-16.291408,-9.533229,0.752949,-2.498585
1009.085938,-12.412856,-14.072732,-0.816867,-8.877380
1009.089844,-6.353714,-0.350266,-8.235176,-9.979110
1009.093750,-3.409843,0.794306,-4.273688,-5.606021
1009.097656,-6.337453,-1.367968,-6.218059,-6.640493
1009.101562,3.543341,2.587763,3.691694,2.483224
1009.105469,4.343410,-1.113980,5.647736,-0.024913
1009.109375,5.507029,1.913301,0.218639,6.814915
1009.113281,8.136501,5.527304,6.511840,7.190986
1009.117188,9.975204,11.368377,5.972397,10.220522
1009.121094,5.251280,12.474008,13.440076,7.619969
1009.125000,4.792129,2.433117,4.632746,8.182310
1009.128906,12.711300,12.813795,12.395346,17.986651
1009.132812,14.461176,11.765572,10.225665,11.372876
1009.136719,10.069251,9.514000,7.431497,6.271509
1009.140625,6.939762,7.765125,6.904605,6.285356
1009.144531,4.495748,5.350420,4.751720,3.943559
1009.148438,4.191349,0.601691,-2.999632,0.135039
1009.152344,1.050291,-0.679513,1.547880,-4.916504
1009.156250,-3.418304,-4.147989,-4.523348,-4.746469
1009.160156,-6.350606,-4.038387,-2.686412,-4.528723
1009.164062,-3.746180,1.897008,3.031562,-8.582961
1009.167969,-16.058503,-12.063327,-12.347619,-12.008493
1009.171875,-12.646340,-10.627929,-8.407366,-20.893739
1009.175781,-5.704358,-5.068706,-11.314559,-7.956327
1009.179688,-6.085017,-13.686524,-12.308035,-9.126231
1009.183594,-5.781568,-7.068079,-9.640531,-11.391054
