timestamp,TP9,AF7,AF8,TP10
1000.000000,-3.332815,0.604902,-0.842405,-1.225659
1000.003906,6.000503,-2.789420,-1.482785,-1.760302
1000.007812,0.026007,2.703346,5.389961,5.812879
1000.011719,7.051094,11.179007,3.983746,8.912117
1000.015625,6.909202,9.923329,13.146903,3.146791
1000.019531,7.284670,14.238920,22.882463,6.092855
1000.023438,10.645588,7.907563,18.424314,13.521360
1000.027344,15.999052,12.820337,5.751771,18.675265
1000.031250,11.948910,6.103189,12.784265,15.990398
1000.035156,9.029524,14.155576,6.456642,12.051935
1000.039062,7.904167,2.781831,4.436777,10.519125
1000.042969,-2.363231,8.231140,2.828843,3.976678
1000.046875,6.835524,6.061277,-3.717206,5.562973
1000.050781,-0.878176,-0.733842,-5.302565,3.026858
1000.054688,4.928728,-2.781845,-1.747014,-5.394038
1000.058594,-9.393780,3.350024,-10.459484,-3.021159
1000.062500,-4.833036,-1.222822,-5.460602,-3.151031
1000.066406,-6.651983,-16.816943,-2.936401,-8.880464
1000.070312,-4.413094,-10.121225,-10.753224,-9.263083
1000.074219,-13.280174,-12.561530,-6.649198,-7.192626
1000.078125,-7.844721,-12.749856,-9.444054,-0.382080
1000.082031,-7.816597,-10.056527,-5.179488,-12.159228
1000.085938,-9.498998,-1.403206,-13.671996,-11.736677
1000.089844,-4.207568,-1.069122,-2.085364,-6.635154
1000.093750,-7.213981,-1.188588,-7.728077,2.704966
1000.097656,-1.827920,-1.689691,-3.147149,-4.285319
1000.101562,2.245055,-6.974610,1.374100,7.360542
1000.105469,0.763348,8.871791,10.792882,-2.115174
1000.109375,5.906404,3.119504,-0.124331,8.822341
1000.113281,1.221947,5.064374,7.173707,10.966889
1000.117188,15.287738,9.248492,13.822386,11.082218
1000.121094,5.833560,11.706838,9.039040,13.118811
1000.125000,14.252403,11.838970,6.549687,7.807486
1000.128906,0.563202,4.994356,8.096647,10.166007
1000.132812,5.311308,4.844170,8.365306,-0.293580
1000.136719,6.561439,15.685483,0.266564,14.249190
1000.140625,0.480574,9.746634,8.836461,6.994248
1000.144531,1.666625,-1.605483,4.864301,6.404023
1000.148438,4.687616,6.097391,-6.485144,5.085247
1000.152344,1.045173,4.089931,-6.010899,-7.977550
1000.156250,-7.101586,2.679336,-5.135478,3.746338
1000.160156,-5.185438,-6.559716,-6.816265,-1.601623
1000.164062,-10.729708,-6.093910,-5.101779,-11.988064
1000.167969,-10.414701,-3.694759,-7.648514,-15.468003
1000.171875,-8.989416,-5.377579,-10.737313,-11.583140
1000.175781,-14.053992,-7.208628,-4.483823,-10.343956
1000.179688,-5.208342,-11.205489,-2.688403,-10.067460
1000.183594,-17.389180,2.020520,-11.358448,-11.319638
1000.187500,-14.399734,-6.720993,-2.973356,-7.493893
1000.191406,-2.274503,-6.920480,-4.709789,-6.690115
1000.195312,-0.359201,-7.453786,-4.425701,2.461316
1000.199219,-1.857491,5.181640,0.375752,1.016342
1000.203125,-2.363200,1.834561,4.292775,2.736933
1000.207031,6.008612,8.604012,6.161707,5.342427
1000.210938,-0.909742,6.597434,11.747798,9.749625
1000.214844,10.398371,9.532950,6.904163,1.978278
1000.218750,5.480556,9.353036,7.533364,3.610920
1000.222656,5.191711,10.079829,9.900264,10.306685
1000.226562,4.971417,13.978649,5.104114,3.942891
1000.230469,16.544082,13.833598,13.693398,5.209337
1000.234375,4.313206,3.686156,5.672720,13.445659
1000.238281,6.809687,2.028130,11.036362,8.200461
1000.242188,3.412411,3.552402,6.701466,6.155188
1000.246094,3.185669,1.881838,6.508233,1.466430
1000.250000,-4.721245,-7.315273,-5.270966,-1.858448
1000.253906,-0.594122,-1.254849,-12.838585,-4.350005
1000.257812,-6.994652,0.415662,-3.919866,-7.138745
1000.261719,-2.374037,-1.238347,-7.141465,-5.009059
1000.265625,-14.570697,-4.479263,-6.285781,-0.787807
1000.269531,-4.197186,-7.258534,-0.406073,-11.830981
1000.273438,-16.994583,-7.346993,-11.974997,-14.029526
1000.277344,-9.586063,-8.164540,-1.252770,-13.604077
1000.281250,-20.739499,-4.883449,-15.183402,-9.511878
1000.285156,-10.377071,-10.265835,-7.785286,-6.994743
1000.289062,-3.952085,-5.317075,-3.608519,-6.376426
1000.292969,-6.979790,-3.377313,-0.212815,-1.504772
1000.296875,-4.708046,-3.920312,-6.206116,-12.434839
1000.300781,4.534167,-2.331764,5.938699,-5.159470
1000.304688,4.264907,6.135823,3.916788,3.172633
1000.308594,4.694095,3.654667,5.378109,-2.461375
1000.312500,6.483343,12.095755,9.463701,12.677690
1000.316406,12.516334,11.873254,9.501950,10.630478
1000.320312,7.288417,9.328234,9.642417,7.525817
1000.324219,9.104431,7.466443,13.221093,12.936194
1000.328125,7.595266,13.255710,4.208707,13.866346
1000.332031,6.207734,12.536347,8.465400,6.533328
1000.335938,3.357584,9.498649,8.926877,8.479369
1000.339844,11.533922,1.913943,4.191592,9.609603
1000.343750,-2.879091,2.768950,4.158047,-0.916250
1000.347656,2.565864,4.022609,-8.733227,-1.259506
1000.351562,3.180738,3.403567,-1.858664,-3.478924
1000.355469,3.560582,-5.522938,-3.735516,-3.681007
1000.359375,-4.732980,-6.356189,-6.996922,-5.384910
1000.363281,-5.742227,-3.784301,-1.624284,-9.384206
1000.367188,-13.612151,-6.603604,-5.762532,-14.795026
1000.371094,-18.573409,-6.364822,-11.532175,-9.306125
1000.375000,-1.580824,-13.003700,-8.973510,-12.589765
1000.378906,-6.887134,-8.597221,-7.884513,-12.612417
1000.382812,-11.971060,-6.551926,-7.470443,-16.380610
1000.386719,-5.570460,-9.195241,-6.144206,-4.717625
1000.390625,-8.168551,-3.697709,-8.733067,-4.475036
1000.394531,4.326079,-3.705933,2.836433,-4.111009
1000.398438,0.153484,-0.098894,-0.746219,3.814920
1000.402344,-3.090236,4.588636,9.905860,-3.724004
1000.406250,3.311026,10.642135,-3.596172,0.224444
1000.410156,4.717687,-3.326719,6.651359,8.393669
1000.414062,8.589084,5.425078,4.171151,5.400543
1000.417969,12.648825,11.665472,10.228319,3.941924
1000.421875,9.300089,8.348034,9.320968,13.585052
1000.425781,12.756539,15.315174,8.866192,12.081236
1000.429688,15.088512,10.294235,10.970984,7.597606
1000.433594,1.331797,10.664674,9.838447,5.578778
1000.437500,4.790491,5.553992,12.184423,4.666992
1000.441406,6.594507,6.901157,0.089556,5.221076
1000.445312,-1.560549,-2.476925,0.936217,1.259829
1000.449219,5.033073,-0.988308,2.619524,2.713462
1000.453125,-3.727191,2.311979,-4.017372,-6.017768
1000.457031,-4.566754,-2.475004,-3.241190,-4.877479
1000.460938,-6.648546,-11.518810,-9.326722,-2.366752
1000.464844,-4.327578,-12.778243,-1.801692,-6.460418
1000.468750,-17.547543,-6.723545,-9.696137,-9.565842
1000.472656,-11.276745,-16.115506,-11.211012,-7.737229
1000.476562,-10.228909,-10.703245,-10.524187,-13.365626
1000.480469,-14.659085,-4.146736,-7.822440,-4.351040
1000.484375,-2.092818,0.506632,-13.156779,-11.443490
1000.488281,-4.497266,-7.911662,-11.444678,-2.496829
1000.492188,-4.655265,-10.438648,-9.859079,0.714890
1000.496094,-3.756769,1.205577,4.379095,-1.906416
1000.500000,1.482333,6.465210,-1.054174,1.454797
1000.503906,-3.511958,-0.556879,-6.228898,-2.122331
1000.507812,5.013378,5.222820,1.670048,6.040391
1000.511719,9.391518,3.018197,8.096225,6.745798
1000.515625,9.073893,4.305921,13.042318,5.042351
1000.519531,10.648158,9.590887,12.800903,15.758743
1000.523438,13.484469,15.713139,5.037268,16.201576
1000.527344,7.882259,6.971477,15.164626,12.163833
1000.531250,13.704862,10.016143,8.130395,13.223924
1000.535156,14.096019,8.952314,7.459107,7.721626
1000.539062,12.062367,5.898153,9.522486,3.980915
1000.542969,3.535713,3.293569,5.864981,7.367482
1000.546875,7.462859,-0.239023,2.699427,4.061350
1000.550781,-2.032180,-4.943063,0.956433,-0.956942
1000.554688,-0.299258,-4.466943,-0.911842,-1.187136
1000.558594,0.060429,-11.035900,-4.193405,-6.883289
1000.562500,-6.421235,-6.701225,-7.550370,-11.892514
1000.566406,-3.599727,-12.699470,-16.763794,-12.224375
1000.570312,-2.592635,-8.321181,-5.268406,-8.549007
1000.574219,-10.324832,-15.569928,-1.849459,-11.466854
1000.578125,-5.863586,-12.025256,-5.363121,-17.705725
1000.582031,-10.450671,-9.120542,-6.906722,-11.182167
1000.585938,-9.115748,-5.259708,-19.704474,-5.235211
1000.589844,-6.814243,-1.374335,-3.036418,-8.490888
1000.593750,0.632573,4.913867,-0.961977,-2.983684
1000.597656,-6.185460,1.704585,-4.537914,7.348473
1000.601562,-2.454735,-0.178895,-2.194441,-5.590671
1000.605469,8.622625,0.550559,11.910308,3.874899
1000.609375,9.082066,1.044002,9.752702,3.552599
1000.613281,-0.749203,13.366016,7.579012,7.311507
1000.617188,2.312240,7.430167,3.132270,5.198413
1000.621094,7.381374,8.754331,7.272456,10.517864
1000.625000,8.716223,11.224480,13.298465,10.385257
1000.628906,6.013279,4.385310,8.702084,3.950532
1000.632812,7.823510,8.295262,13.758433,5.682999
1000.636719,5.238363,14.278846,5.716336,6.219152
1000.640625,10.770526,5.261863,11.877430,9.350601
1000.644531,5.702807,-3.527118,1.610530,0.087296
1000.648438,-1.773573,1.124519,-4.072908,2.778376
1000.652344,0.620975,-3.535400,2.122536,-0.349606
1000.656250,-3.885751,3.810217,-3.115284,-9.127415
1000.660156,-2.465989,7.309836,-2.310044,-5.969686
1000.664062,-9.158247,-18.360038,-11.870833,-12.239657
1000.667969,-11.260787,-8.264283,-9.601440,-6.686355
1000.671875,-8.412943,-12.041152,-11.510372,-14.230150
1000.675781,-6.331509,-8.734020,-2.798631,-8.708051
1000.679688,-8.272311,-7.575480,0.806941,-12.364444
1000.683594,-15.728672,-13.803471,-12.157978,-6.478679
1000.687500,0.842805,3.941350,-6.333230,-10.271415
1000.691406,-4.388502,-9.585366,-5.457790,-6.690019
1000.695312,-4.024094,-1.144294,0.965795,-3.913588
1000.699219,1.520839,1.403985,0.708114,-1.648800
1000.703125,5.658389,-1.064086,-3.945396,6.691389
1000.707031,5.559790,4.057460,6.370223,2.319769
1000.710938,6.075453,7.195483,4.209954,11.609903
1000.714844,6.565771,11.149656,13.810372,11.398665
1000.718750,7.707995,4.231288,19.842429,7.714825
1000.722656,15.025356,19.695115,9.549517,4.979905
1000.726562,10.807167,9.437125,15.971666,0.895974
1000.730469,8.544879,7.862817,14.201669,10.802607
1000.734375,2.485601,7.174836,14.146330,9.805152
1000.738281,6.967840,7.049667,7.050667,13.370889
1000.742188,0.464818,7.878551,8.933924,-1.196151
1000.746094,0.947887,5.217052,5.134932,1.891311
1000.750000,3.050737,4.760424,3.995345,2.930689
1000.753906,-1.390428,-9.344931,-4.319553,2.280807
1000.757812,-0.949159,-6.924378,2.370717,-7.096615
1000.761719,-8.828092,-0.716925,-10.655957,-9.125112
1000.765625,-6.274477,-5.234301,-7.669565,3.280907
1000.769531,-14.234640,-7.059426,-13.264429,-9.505477
1000.773438,-8.019614,-5.397347,-8.028065,-8.007173
1000.777344,-11.990048,-11.053400,-9.253900,-2.486385
1000.781250,-17.357994,-8.707329,-3.416924,-13.035203
1000.785156,-12.968433,-4.989547,-1.901478,-11.553755
1000.789062,-5.066758,-8.771377,-4.044686,-7.002697
1000.792969,-1.729259,-2.997864,2.114132,-3.121176
1000.796875,-0.853004,-3.763031,-5.916845,1.233921
1000.800781,0.512964,2.202242,-0.113871,1.142366
1000.804688,0.352097,-0.373635,0.508607,3.399202
1000.808594,2.358442,3.377355,10.803179,5.666057
1000.812500,11.665910,6.594932,9.543149,12.590025
1000.816406,6.157899,5.157848,10.691127,11.359317
1000.820312,10.376481,10.739786,7.535353,6.118340
1000.824219,15.084541,14.272634,7.478903,8.920612
1000.828125,12.233485,12.806365,5.532504,10.278306
1000.832031,10.058639,12.339365,11.325839,12.364737
1000.835938,8.238836,16.409665,3.087401,8.191404
1000.839844,9.637512,13.563173,9.300831,10.521711
1000.843750,4.672949,7.485670,6.181293,-1.462622
1000.847656,4.335662,11.996649,5.739115,4.125445
1000.851562,3.570932,2.086438,-13.781430,-1.514787
1000.855469,1.108640,-4.226527,-3.607776,5.227712
1000.859375,-1.277406,-9.494195,-3.881595,-2.464820
1000.863281,-11.920203,-6.890826,-5.402818,-14.541325
1000.867188,-11.073548,-11.091561,-11.476440,-4.111775
1000.871094,-9.496852,-11.219505,-2.694546,-16.436996
1000.875000,-11.971871,-13.340161,-11.939156,-11.729907
1000.878906,-7.010437,-6.447470,-1.890237,-14.114631
1000.882812,-11.660755,-15.779363,-13.553866,-11.791963
1000.886719,-5.003791,-7.544187,-10.294701,-13.342322
1000.890625,-10.265220,-8.544677,-2.134354,-2.474351
1000.894531,-0.695131,-9.928979,-1.583837,-0.920460
1000.898438,-5.294494,-2.915539,0.354499,2.229211
1000.902344,-4.179433,-2.752517,-0.508640,1.750171
1000.906250,0.240016,5.082535,5.391434,8.671351
1000.910156,4.397151,4.885309,8.453566,2.697099
1000.914062,11.477753,7.554672,9.720720,3.157856
1000.917969,12.814819,19.817221,11.780353,12.769791
1000.921875,8.058503,3.857830,5.339040,12.281986
1000.925781,5.152621,6.230427,11.427137,7.730851
1000.929688,7.709819,11.155423,16.049021,-2.084112
1000.933594,5.935238,17.540048,11.724634,13.553486
1000.937500,-0.263301,8.816040,0.300474,12.198118
1000.941406,5.880044,6.159241,4.652335,5.741204
1000.945312,-4.240898,-8.787897,6.746472,9.941438
1000.949219,5.997168,4.852798,-2.771955,3.776564
1000.953125,-1.701222,-8.992604,-4.679616,-7.108344
1000.957031,-5.115727,-0.446407,-7.444245,-4.583548
1000.960938,-8.442426,-9.976484,-4.056343,-12.399182
1000.964844,-2.404379,-7.263839,-8.067662,-9.600871
1000.968750,-4.604215,-8.905768,-10.358952,-1.696062
1000.972656,-15.543555,-7.892232,-17.623020,-6.689886
1000.976562,-14.377444,-9.306710,-15.342642,-12.333034
1000.980469,-3.777007,-6.088412,-4.003588,-9.085300
1000.984375,-6.447314,-8.434233,-11.024870,-2.808583
1000.988281,-5.306415,-8.370945,-8.095019,-15.623840
1000.992188,-0.474398,-6.434695,-8.471638,-3.770807
1000.996094,-4.436915,-7.716872,-1.173349,-6.029683
1001.000000,-0.530659,-2.981689,-2.007428,1.669799
1001.003906,7.192537,5.180718,3.201119,2.228420
1001.007812,7.505222,6.324042,9.069156,0.192096
1001.011719,-0.632558,0.069329,9.519516,9.774229
1001.015625,9.648223,1.706299,7.892238,6.793732
1001.019531,10.900833,13.643709,10.700305,10.988093
1001.023438,6.004290,6.476313,8.645089,12.619550
1001.027344,6.675695,10.704671,14.067710,6.905248
1001.031250,10.133694,8.183623,11.304766,4.013820
1001.035156,3.229579,6.274908,12.208782,4.311330
1001.039062,3.005827,-2.524556,-1.018732,2.803249
1001.042969,3.292262,6.845918,12.168431,7.906472
1001.046875,4.448788,2.126499,-3.377448,5.022187
1001.050781,-3.235364,-10.968743,-6.136377,-1.974273
1001.054688,-6.333298,-2.473523,-2.501053,-6.488534
1001.058594,-1.524762,-14.637118,-2.710793,-1.253128
1001.062500,-3.719831,-10.921352,-7.487812,-6.910300
1001.066406,-8.494924,-7.593954,-3.696465,-5.287431
1001.070312,-14.404239,-16.081652,-8.781952,-9.405370
1001.074219,-2.950269,-6.797996,-10.793687,-8.982558
1001.078125,-5.160608,-11.944784,-8.962406,-8.416285
1001.082031,-11.626594,-6.262260,-16.162008,-12.454096
1001.085938,-0.874569,-1.010262,-13.243340,-8.460481
1001.089844,-3.754037,-9.832666,-0.435568,-4.198978
1001.093750,-9.537016,-0.631039,-2.493098,-3.708324
1001.097656,-3.450469,4.102249,-2.310380,2.907956
1001.101562,1.621798,3.646339,-6.275593,5.084633
1001.105469,1.415231,2.910703,4.594500,4.016458
1001.109375,7.004785,10.123188,2.826750,4.433473
1001.113281,7.646693,4.657715,7.700285,12.069049
1001.117188,6.591459,14.423486,4.297347,5.512098
1001.121094,6.926967,13.643917,9.571635,14.118317
1001.125000,13.488348,8.867321,9.987751,9.279062
1001.128906,13.130872,5.761394,6.896681,9.263168
1001.132812,6.527994,11.062176,3.478598,11.235671
1001.136719,-1.826762,4.762038,8.111300,4.075939
1001.140625,4.600916,8.639357,1.103874,-2.219590
1001.144531,3.566884,2.934904,-2.468867,-0.461599
1001.148438,1.340478,-2.564122,-2.560788,0.934950
1001.152344,-3.607891,-7.393930,-1.476595,-3.178931
1001.156250,-8.008370,-3.202683,-4.395959,-1.367949
1001.160156,-8.516027,-6.147193,-10.899253,-18.042690
1001.164062,-9.882760,-10.755725,-9.451907,-3.572382
1001.167969,-4.055577,-14.210650,-11.135844,-10.001673
1001.171875,-6.419876,-18.380013,-14.733360,-8.279356
1001.175781,-9.908668,-8.425738,-7.640166,-10.239004
1001.179688,-13.365037,-4.347654,-12.092968,-6.694900
1001.183594,-10.695737,-13.954375,-15.098532,-12.981705
1001.187500,-8.670594,-12.928148,-0.488287,-6.398009
1001.191406,1.433110,-2.450798,-8.357419,-0.872516
1001.195312,-3.187053,-7.555061,-4.117584,-8.370891
1001.199219,-0.818405,-6.608527,-2.533430,-2.960323
1001.203125,-3.257173,2.385073,3.513722,2.170884
1001.207031,-0.784514,0.176016,2.156215,7.574957
1001.210938,8.999270,6.913837,11.535165,0.999305
1001.214844,5.092580,5.268518,6.248779,7.316124
1001.218750,8.565694,9.838486,9.371435,7.786218
1001.222656,8.945965,4.911442,4.149770,12.474055
1001.226562,8.812879,6.014854,13.583264,6.584087
1001.230469,8.271787,12.320791,16.310592,8.652565
1001.234375,9.948761,2.070528,14.467250,11.641539
1001.238281,5.028432,10.287140,9.108698,8.966963
1001.242188,4.956607,5.588813,2.939007,5.484623
1001.246094,2.100837,2.511731,2.503894,5.885730
1001.250000,-3.321354,1.767811,-2.753700,1.225778
1001.253906,-4.456416,-1.004527,-3.166880,-2.308525
1001.257812,-7.371414,-8.113710,-6.585271,-8.570506
1001.261719,-7.436574,-13.622055,-14.341307,-5.071268
1001.265625,-9.379461,-5.509930,-4.258153,-14.663236
1001.269531,-18.832415,-8.210575,-8.954068,-9.135972
1001.273438,-9.386216,-12.646270,-7.468618,-9.643451
1001.277344,-10.442947,-11.132369,-9.201068,-10.310007
1001.281250,-16.295726,-13.805861,-10.524657,-12.652190
1001.285156,-11.113579,-2.241792,-8.958732,-4.846647
1001.289062,0.672997,-1.267589,-4.113164,-7.749725
1001.292969,-4.871236,-6.951436,2.595232,0.141371
1001.296875,-1.878686,7.814278,-4.185708,-3.650470
1001.300781,0.267668,3.203381,-4.464133,3.176381
1001.304688,4.824388,3.798134,-1.082919,9.144825
1001.308594,-1.013744,7.632863,1.353247,7.210730
1001.312500,8.100995,-2.196967,7.598400,6.021918
1001.316406,9.479609,3.561073,9.423064,9.606575
1001.320312,3.021132,12.550813,19.761564,10.145989
1001.324219,6.692498,4.320723,9.843552,15.944471
1001.328125,6.748415,21.998594,15.200844,13.249151
1001.332031,9.620131,9.919796,6.159103,1.889673
1001.335938,8.620142,6.298015,6.102754,8.723408
1001.339844,5.344126,8.448154,1.401606,1.962091
1001.343750,2.788617,8.243893,3.619090,7.983008
1001.347656,2.285521,-1.790853,-4.382880,-3.856776
1001.351562,-6.170443,-1.666564,-3.552105,-1.766402
1001.355469,-2.828100,-5.643099,0.876315,-5.932620
1001.359375,-3.609310,-5.977653,-7.815984,-8.975244
1001.363281,-6.402620,-2.275288,0.837037,-10.453365
1001.367188,-9.558668,-13.127188,-9.379074,-11.926586
1001.371094,-8.165871,-10.997737,-12.085880,-19.582731
1001.375000,-13.014380,-8.393457,-6.258301,-6.842726
1001.378906,-12.599171,-9.774633,-14.450806,-10.997375
1001.382812,-9.541863,-9.904857,-2.497903,-5.080773
1001.386719,-9.141395,-7.508721,1.598229,-6.611044
1001.390625,-6.972888,2.221484,-12.688075,-9.648836
1001.394531,-9.034464,0.077487,-2.586698,-1.022722
1001.398438,-0.378735,-4.261727,0.923413,-4.005810
1001.402344,1.046641,2.121883,2.430383,5.997453
1001.406250,1.245441,11.046276,3.937193,9.016382
1001.410156,3.737320,7.846339,4.802703,5.468768
1001.414062,7.738940,8.250457,10.223536,2.187449
1001.417969,9.458321,10.753955,13.393363,14.242722
1001.421875,11.724532,2.178016,6.088757,12.557051
1001.425781,11.262981,15.015565,5.770691,11.611779
1001.429688,10.704745,7.827006,4.022237,8.464281
1001.433594,6.944973,11.281209,13.176307,8.094394
1001.437500,13.160935,3.302712,14.005828,14.918408
1001.441406,5.527148,1.376300,3.129954,10.603095
1001.445312,8.372527,-0.306268,4.793545,-2.894581
1001.449219,-0.021495,1.951134,5.559222,2.313923
1001.453125,-0.642660,4.659849,2.609692,1.876873
1001.457031,-4.707106,-4.144097,-1.019133,-5.310708
1001.460938,-1.582387,-9.139420,-11.366152,-2.599216
1001.464844,-4.216495,-11.456005,-9.810265,-8.483111
1001.468750,-4.056194,-4.790546,-16.070024,-7.760978
1001.472656,-11.566610,-7.572662,-19.181107,-13.681773
1001.476562,-22.536491,-1.129040,-13.678961,-15.079484
1001.480469,-14.052227,-10.441330,-0.881281,-5.351274
1001.484375,-5.055091,-3.957230,-11.584613,-2.127328
1001.488281,-14.120953,-5.931118,-9.951245,-1.704865
1001.492188,-5.090920,-11.545681,-0.155312,-5.370513
1001.496094,-5.686908,-8.800095,-6.012755,-3.924382
1001.500000,-6.247395,-4.653941,-2.071015,0.075735
1001.503906,5.170504,-0.103731,-0.494484,5.240870
1001.507812,-1.389021,-0.819589,3.380507,-0.799428
1001.511719,8.094175,9.979471,5.654580,3.107819
1001.515625,10.047586,5.112736,2.753189,9.847040
1001.519531,13.359931,17.144477,8.920140,13.572680
1001.523438,8.836543,9.349773,4.069228,12.794125
1001.527344,10.404214,10.560973,16.519329,2.687436
1001.531250,7.502214,16.547593,13.567792,15.213694
1001.535156,7.510019,8.875292,6.530836,7.593409
1001.539062,1.927857,-0.121232,4.997096,3.409885
1001.542969,7.254361,9.290496,5.505670,5.143443
1001.546875,-1.939443,9.129596,3.626124,-0.995576
1001.550781,-5.332626,0.665919,2.879830,-3.599405
1001.554688,-1.390074,-0.641620,0.614876,-3.986964
1001.558594,-3.107219,-1.610399,-1.395217,-9.609678
1001.562500,-3.670806,-4.581874,-7.814903,-2.928946
1001.566406,-6.029234,-12.721334,-13.177057,-9.132846
1001.570312,-9.165638,-13.989253,-11.225928,-8.088407
1001.574219,-9.508569,-8.442119,-9.085151,-11.674770
1001.578125,-12.140166,-12.481989,-16.400683,-8.606053
1001.582031,-13.159382,-9.969797,-10.404147,-9.506367
1001.585938,-12.454535,-7.855031,-3.873448,-4.497598
1001.589844,-5.815787,-11.472347,-8.008931,-11.285902
1001.593750,3.936459,-4.448155,-0.453519,-9.139799
1001.597656,2.430520,1.340273,0.267147,-2.103758
1001.601562,-3.576535,-8.409974,6.811354,1.464099
1001.605469,-6.476035,4.960832,4.568764,4.861988
1001.609375,5.225389,5.781647,15.063235,2.753680
1001.613281,3.981700,9.923799,0.078235,7.691569
1001.617188,19.019410,7.773587,7.707455,-1.084787
1001.621094,15.500545,9.859865,12.258698,8.091423
1001.625000,16.338330,9.074930,17.464827,6.139008
1001.628906,9.522204,17.633592,9.160592,11.023871
1001.632812,4.105082,11.612267,3.983285,10.750234
1001.636719,9.923296,14.979800,13.575471,8.862962
1001.640625,2.576752,8.838498,5.514777,6.573354
1001.644531,7.427794,-0.124677,1.977051,-1.055704
1001.648438,10.296525,10.078622,-1.127970,0.804569
1001.652344,-3.445962,-0.076941,-5.631626,-1.862468
1001.656250,-5.028004,-6.599557,-6.284213,-7.231729
1001.660156,-9.633082,-3.968151,-11.056748,-2.453490
1001.664062,-5.820787,-6.869279,-7.922526,-9.292943
1001.667969,-4.691915,-8.532232,-6.961561,-5.556926
1001.671875,-16.156709,-11.844808,-6.826287,-18.236260
1001.675781,-10.550787,-10.693539,-10.544355,-9.687069
1001.679688,-5.354344,-10.135517,-5.719903,-12.443348
1001.683594,-10.433750,-10.996323,-5.271212,-9.676425
1001.687500,-3.173540,-14.324606,-18.084834,-10.278865
1001.691406,-2.733837,-11.127622,-5.962443,-6.058046
1001.695312,-3.289481,-7.839924,-0.741800,-5.198862
1001.699219,-7.879515,-7.158675,-0.207787,1.325484
1001.703125,-3.139850,2.348344,2.011522,-3.718121
1001.707031,3.897872,1.301056,0.103804,5.353839
1001.710938,15.093436,17.092032,6.523059,9.101223
1001.714844,7.802160,7.653693,8.695245,-0.237082
1001.718750,7.726065,12.112361,18.839035,10.472335
1001.722656,4.577931,11.705587,6.099942,6.811401
1001.726562,5.469400,9.265671,14.642787,6.498303
1001.730469,15.851604,7.093199,7.659780,17.395428
1001.734375,13.248716,11.393605,2.037206,7.006327
1001.738281,2.373005,0.764143,3.969352,5.283552
1001.742188,4.549995,3.697912,-1.639275,7.623232
1001.746094,6.289192,2.993776,-3.453607,1.521629
1001.750000,-5.277475,1.433759,-8.769446,-2.605788
1001.753906,-4.113149,1.307239,-0.545267,-5.921207
1001.757812,-8.738228,-6.520173,-5.038536,-2.564413
1001.761719,-4.199352,-7.068226,-10.025655,-3.847695
1001.765625,-4.546900,-12.906696,-8.445171,-15.811726
1001.769531,-12.767570,-5.125462,-1.203874,-8.890933
1001.773438,-8.144367,-18.648272,-14.144412,-13.557438
1001.777344,-13.867805,-8.476765,-11.068601,-6.871392
1001.781250,-6.019509,-11.890820,-8.894285,-4.385006
1001.785156,-9.697878,-5.843137,-3.497037,-5.454691
1001.789062,-11.835690,-3.689979,3.206615,-4.673361
1001.792969,-8.513654,-8.661421,-11.893433,-5.000282
1001.796875,-6.007202,-1.408530,-3.695188,-4.860999
1001.800781,-0.507637,-0.137251,2.392388,-6.972581
1001.804688,11.038603,-3.393113,-4.327962,-0.865885
1001.808594,-3.519202,4.627109,4.799624,7.641001
1001.812500,14.360627,2.757180,5.542145,3.803031
1001.816406,9.393164,11.165770,12.204466,12.707055
1001.820312,9.238710,9.534913,11.109846,15.944077
1001.824219,11.130178,9.515829,15.738970,10.476254
1001.828125,9.936784,5.220049,14.077054,2.994478
1001.832031,8.897260,4.111423,13.720197,2.843535
1001.835938,-1.134942,5.498502,12.280727,0.789797
1001.839844,4.506884,-0.015373,10.278812,4.535122
1001.843750,1.469843,6.095983,8.893663,8.135274
1001.847656,0.606980,-0.205702,-1.931131,-2.544825
1001.851562,-4.076592,8.946234,-2.004225,3.817349
1001.855469,-5.846489,-3.876664,-5.137439,-6.745461
1001.859375,-4.246543,-11.003662,-11.234533,-4.197800
1001.863281,-6.648364,0.789072,-8.438022,-5.791064
1001.867188,-6.200822,-6.511529,-0.289801,-2.943952
1001.871094,-10.523050,-4.057853,-10.943530,-12.169771
1001.875000,-11.746774,-16.564461,-11.251710,-12.963439
1001.878906,-9.958674,-2.909698,-7.131312,-11.642161
1001.882812,-15.163457,-10.429885,-4.424460,-7.207497
1001.886719,-4.691261,-11.554367,-7.665553,-7.706183
1001.890625,-4.609316,-1.824639,-3.815782,-3.319459
1001.894531,-3.668020,4.616914,-5.981323,-3.451645
1001.898438,-6.422218,-1.733415,3.475583,4.207473
1001.902344,-4.490405,-11.195565,-0.008399,2.620092
1001.906250,4.309825,6.836634,-1.924310,2.214927
1001.910156,8.835527,1.867617,10.397539,5.532120
1001.914062,5.803673,6.916445,10.934134,10.326804
1001.917969,9.892634,5.439283,13.092866,15.042653
1001.921875,6.236489,14.318509,11.102079,5.590614
1001.925781,13.093614,3.355238,11.749723,12.378383
1001.929688,10.612795,13.222269,7.759450,7.137616
1001.933594,13.898886,10.214800,11.001334,13.282841
1001.937500,7.112748,0.974909,9.455933,4.951432
1001.941406,1.580304,5.193325,9.869804,-2.170554
1001.945312,4.584441,-0.785532,2.420914,-4.016974
1001.949219,-0.083260,-6.441430,4.915501,-1.061765
1001.953125,-10.009492,-0.617227,-6.810721,-5.114499
1001.957031,1.992829,2.834943,-1.900910,-2.935134
1001.960938,-3.117542,-8.019619,-7.187078,-5.697878
1001.964844,-12.404933,-10.596313,-6.814093,-6.486350
1001.968750,-10.878604,-5.735461,-12.994507,-5.561301
1001.972656,-15.192646,-9.996596,-9.867496,-16.386688
1001.976562,-7.971561,-15.203137,-7.378082,-6.258118
1001.980469,-14.667776,-8.172561,-11.795717,-11.539092
1001.984375,-10.031886,-0.133638,-7.768690,-7.449168
1001.988281,-5.234087,-8.029914,-9.959413,-5.685819
1001.992188,1.070848,0.913404,-6.434348,-8.051009
1001.996094,-3.366877,0.602712,-2.083713,-3.764133
1002.000000,4.596936,-4.146430,3.792533,1.318858
1002.003906,3.038433,2.388802,5.792948,5.053146
1002.007812,4.915043,-1.146565,15.339631,10.049287
1002.011719,13.104496,7.868946,6.294638,-0.172179
1002.015625,6.603995,9.948735,1.773334,17.677218
1002.019531,5.788384,8.468647,11.393862,12.555169
1002.023438,4.356513,8.000529,1.691932,10.830869
1002.027344,11.485687,18.585691,6.951838,10.275689
1002.031250,1.560029,7.201398,14.679392,11.633541
1002.035156,10.914879,13.151148,0.013979,9.087754
1002.039062,10.713671,3.731720,6.837483,9.328103
1002.042969,-1.398524,4.277700,10.293845,6.780136
1002.046875,1.930700,5.260683,-5.291594,-1.191085
1002.050781,1.897077,0.304689,1.457967,-2.868320
1002.054688,1.899267,-7.427499,-9.553561,3.163312
1002.058594,3.165613,1.406204,-6.657183,-9.038661
1002.062500,-15.424876,-4.730046,-6.997151,-7.387150
1002.066406,-14.295339,-8.610965,-12.037903,-7.631169
1002.070312,-11.965992,-12.207685,-13.742505,-14.541186
1002.074219,-7.370151,-14.872160,-10.571648,-12.904663
1002.078125,-5.407843,-10.098672,-9.581485,-10.290321
1002.082031,-11.516637,-14.364580,-7.859210,-7.148199
1002.085938,-5.895080,-9.568637,-11.591882,-14.083303
1002.089844,6.405937,-9.698171,-8.545524,-14.470130
1002.093750,-5.607532,-8.389250,0.273969,-4.106272
1002.097656,-2.334811,-2.361121,0.996468,-4.733193
1002.101562,4.412491,-0.545333,3.974843,-1.224316
1002.105469,5.970935,2.644716,-3.000148,9.203171
1002.109375,11.846589,3.965910,7.202204,5.351939
1002.113281,11.251732,10.153985,12.159015,5.714235
1002.117188,6.997793,13.955262,7.180196,18.013711
1002.121094,5.434196,19.459631,12.833692,8.562155
1002.125000,7.679883,4.580951,6.338115,10.219864
1002.128906,6.238998,6.159494,11.866639,5.199808
1002.132812,13.007687,1.436140,6.103834,9.626387
1002.136719,1.134243,7.540948,4.790795,12.060649
1002.140625,3.678145,-0.597852,4.719585,8.128714
1002.144531,-0.355746,9.321529,2.776291,5.575770
1002.148438,1.724909,-4.511135,-9.041284,0.278229
1002.152344,-0.033440,-4.615287,-3.884842,-1.043749
1002.156250,-2.582749,-2.052805,-4.892754,-6.530770
1002.160156,0.749317,-5.522117,-6.215311,-7.715941
1002.164062,-6.737042,-10.190815,-14.196583,-1.402631
1002.167969,-5.151837,-5.616081,-2.423181,-12.428185
1002.171875,-11.318449,-10.447252,-15.303423,-11.354099
1002.175781,-10.526929,-7.116129,-14.779565,-16.628100
1002.179688,-8.931402,-4.633812,-15.189128,-11.289915
1002.183594,-7.801665,-11.961280,-2.199742,-1.823851
1002.187500,-2.973602,-11.015308,-8.776952,-11.820921
1002.191406,-7.045134,-3.689542,-6.464365,-4.458548
1002.195312,2.403753,0.824563,-4.120148,-5.388848
1002.199219,4.830456,0.012443,2.408010,3.612488
1002.203125,1.392980,2.631260,3.519500,-0.139327
1002.207031,0.362398,-0.351984,0.027805,5.252339
1002.210938,7.051425,9.245413,2.137667,2.548678
1002.214844,9.607772,5.255139,18.772654,5.838379
1002.218750,8.527904,17.688946,8.121180,16.464499
1002.222656,13.355973,10.642794,9.254403,2.718580
1002.226562,2.081921,11.473720,7.015157,11.164815
1002.230469,14.158331,11.800359,10.569278,9.819289
1002.234375,13.846798,5.813671,2.235968,4.714748
1002.238281,9.576480,10.481839,5.003133,9.805757
1002.242188,-0.442241,4.294429,7.387261,12.324346
1002.246094,1.760354,6.854323,4.641832,-1.197737
1002.250000,-2.457013,0.939676,-5.389020,8.275158
1002.253906,-3.996648,-2.709916,-1.912677,-6.293181
1002.257812,-9.840163,-4.073605,-13.750036,-9.005955
1002.261719,-4.661350,-10.101003,-10.152116,-4.725878
1002.265625,-9.123293,-10.347410,-10.096070,-12.225832
1002.269531,-12.762483,-5.447589,-4.073692,1.119075
1002.273438,-12.011390,-5.975788,-17.363561,-11.936819
1002.277344,-5.793854,-9.148268,-2.449710,-9.473707
1002.281250,-10.056064,-4.377860,-7.270893,-16.998637
1002.285156,-9.608687,-12.805711,-10.773184,-9.881165
1002.289062,-6.002852,-2.684481,-9.577383,-5.883764
1002.292969,-8.043440,-7.121562,1.710810,2.481167
1002.296875,-2.276508,0.304321,-2.747378,-1.136826
1002.300781,3.761520,0.001700,3.147671,-0.485519
1002.304688,5.065999,4.643793,6.042508,3.076188
1002.308594,2.252110,-0.229411,2.745027,5.879787
1002.312500,10.294313,6.421041,2.446566,6.627993
1002.316406,14.589859,8.378260,10.333633,8.606408
1002.320312,5.926237,14.119117,14.102445,8.979697
1002.324219,8.439537,9.160614,12.015855,4.694881
1002.328125,6.449919,13.683446,7.705953,11.738039
1002.332031,12.153762,9.354961,7.857032,11.850823
1002.335938,4.855088,10.908812,14.955753,14.567981
1002.339844,9.491531,7.927561,12.726837,4.387925
1002.343750,7.290369,5.873837,4.425982,7.012391
1002.347656,0.334532,7.106996,10.211125,-1.038822
1002.351562,-1.873350,-2.857821,3.844605,3.576976
1002.355469,3.047326,-5.745482,-3.408099,-2.544035
1002.359375,-3.878833,-7.866265,-1.416537,-3.381088
1002.363281,-0.723270,-4.689394,-9.915968,-9.692410
1002.367188,-9.944654,-8.272331,-7.472633,-9.001523
1002.371094,-10.226341,-17.165527,-13.613772,-8.619285
1002.375000,-8.361497,-9.203054,-9.719232,-7.298018
1002.378906,-4.496723,-6.622177,-15.250256,-3.527366
1002.382812,-8.790086,-4.537208,-6.505795,-1.094707
1002.386719,-7.968657,-2.378682,-6.600047,-4.018417
1002.390625,-13.395715,-5.458461,-0.132183,-0.922978
1002.394531,-3.595322,-3.443181,-1.719375,-5.158674
1002.398438,10.181352,1.361602,0.215856,-0.405491
1002.402344,2.201857,3.388143,1.636727,0.870490
1002.406250,-4.280598,2.594496,-4.845704,0.494776
1002.410156,5.498343,2.406830,6.382048,8.047192
1002.414062,13.327336,3.547182,-1.092695,11.811787
1002.417969,8.662314,10.369262,10.987354,12.952274
1002.421875,10.400698,9.104984,3.316133,10.580267
1002.425781,6.255943,4.877991,12.127142,13.239286
1002.429688,1.402016,9.758320,10.159221,12.878646
1002.433594,11.820636,10.166832,9.442492,13.352847
1002.437500,1.844639,8.879271,5.166804,6.848755
1002.441406,7.291604,-6.226313,2.235222,4.141829
1002.445312,10.348053,0.438326,7.768815,5.537519
1002.449219,-4.725801,-3.230739,-3.081800,-4.417328
1002.453125,-2.465417,0.806775,-5.217698,-7.071378
1002.457031,-1.635377,-7.360291,-2.053034,-1.032895
1002.460938,-5.016336,-4.636433,-8.724060,-11.167590
1002.464844,-16.885644,-10.214882,-7.085825,-10.971167
1002.468750,-9.119895,-16.506998,-11.149891,-4.546179
1002.472656,-4.609185,-9.290556,-11.814650,-7.070877
1002.476562,-6.364641,-7.355525,-14.094592,-8.883435
1002.480469,-8.986309,-9.984236,0.834674,-8.696634
1002.484375,-9.039028,-11.903342,-3.272800,-6.863878
1002.488281,-8.159457,-6.129684,-12.780184,-3.582589
1002.492188,0.411164,-6.458229,-0.540024,-3.707946
1002.496094,-3.038133,-5.767472,-3.995008,3.899895
1002.500000,-1.317974,-5.079577,5.120624,2.748779
1002.503906,10.133572,7.222452,2.671549,3.414496
1002.507812,4.001093,4.744492,9.717293,6.843663
1002.511719,5.849145,10.097618,13.533098,5.281483
1002.515625,3.923355,9.668858,6.499891,1.526082
1002.519531,12.938357,5.386441,6.996460,6.513906
1002.523438,11.704386,11.848658,9.779157,6.344766
1002.527344,15.972338,13.022193,3.444628,-0.549277
1002.531250,15.729486,-3.044962,8.404723,5.575297
1002.535156,9.820402,7.651069,6.884976,7.717920
1002.539062,2.631691,3.135537,12.161894,11.726520
1002.542969,1.084813,5.723680,6.396540,3.266425
1002.546875,-1.437262,7.421921,1.195368,0.819766
1002.550781,-4.975057,5.812792,2.125994,-6.982780
1002.554688,-7.905967,-5.337000,-2.813228,-7.119348
1002.558594,-6.589677,-8.587028,-5.401340,-11.782126
1002.562500,-5.882950,-9.236295,-10.173392,-9.689373
1002.566406,-9.340371,-13.515035,-11.454561,-9.609624
1002.570312,-7.951659,-6.002773,-11.959675,-7.196977
1002.574219,-2.563596,-14.525988,-11.002719,-7.780749
1002.578125,-5.681307,-6.090102,-10.485501,-4.612564
1002.582031,-5.070664,-5.402478,-9.371196,-4.517740
1002.585938,-9.828919,-13.797667,-5.350888,-7.454711
1002.589844,-6.476484,-4.912809,-4.476672,-6.144655
1002.593750,-1.307472,-8.193497,-2.785194,-1.711286
1002.597656,-1.470758,-1.129785,5.129162,-2.234763
1002.601562,7.348609,0.766838,-3.397195,9.645801
1002.605469,5.717316,6.855308,-2.524576,3.808390
1002.609375,4.088518,2.953590,-0.327852,0.780936
1002.613281,8.113531,11.194525,8.468628,10.081961
1002.617188,12.670517,7.588477,2.250204,7.838579
1002.621094,11.905698,3.832369,9.671536,3.308521
1002.625000,17.958921,21.374528,8.682743,2.663788
1002.628906,10.200187,11.192840,3.340206,8.254501
1002.632812,2.914038,5.243872,-0.092556,5.952002
1002.636719,6.512679,8.392231,4.098712,10.016642
1002.640625,1.382413,-2.081305,4.950345,1.788094
1002.644531,-3.790452,2.149885,2.893079,0.753421
1002.648438,0.959225,0.694227,3.038382,-0.110692
1002.652344,-3.404373,-1.190223,-3.241424,-2.859374
1002.656250,0.809921,-1.010077,-4.000398,-4.395282
1002.660156,-6.091566,-8.583101,-6.054593,-10.638557
1002.664062,-3.816511,-6.774358,-7.382189,-9.742055
1002.667969,-8.875758,-9.819596,-9.658007,-9.202608
1002.671875,-10.869797,-7.315117,-13.575322,-16.310065
1002.675781,-10.128160,-13.584610,-15.000070,-2.318593
1002.679688,-17.154874,-8.963917,-17.698654,-12.459239
1002.683594,-5.144251,-11.114575,-10.663244,-6.743463
1002.687500,-6.048785,-8.567245,-17.452114,-5.605522
1002.691406,-8.565464,-8.999322,1.165408,-3.388915
1002.695312,-5.595087,7.652191,-3.334774,-5.076582
1002.699219,2.869137,-7.446362,-1.601797,1.109704
1002.703125,0.854464,3.520239,4.764876,5.355394
1002.707031,-3.979361,2.445679,7.050384,7.015396
1002.710938,8.341865,11.246202,7.743859,3.258724
1002.714844,5.940633,13.377019,7.340584,4.324593
1002.718750,4.761180,7.129243,12.506095,4.915814
1002.722656,10.412100,10.014268,14.584914,12.388141
1002.726562,4.805659,14.749917,14.717737,14.200961
1002.730469,2.866090,12.728918,13.460283,7.643666
1002.734375,8.205328,9.015712,16.080138,5.204996
1002.738281,10.565017,7.679844,13.224761,7.490915
1002.742188,3.530717,4.881625,15.259421,0.158967
1002.746094,1.688383,6.158027,0.503733,-6.993912
1002.750000,-4.993918,-8.712267,0.800158,-3.373510
1002.753906,-3.917735,-5.612376,2.152666,-8.728497
1002.757812,-4.780937,-3.487566,-15.582951,-10.349486
1002.761719,-2.735019,-12.880989,-9.949345,-3.476227
1002.765625,-3.808706,-0.383519,-6.322281,-11.261419
1002.769531,-7.068306,-7.565186,-19.783057,-12.389376
1002.773438,-7.222506,-14.971902,-11.020040,-0.627582
1002.777344,-14.109542,-11.562907,-10.667572,-10.375711
1002.781250,-10.396989,-16.558909,-7.424568,-9.779930
1002.785156,-1.543708,-11.668281,-5.506456,-6.370865
1002.789062,-9.960083,-10.977171,-9.106386,-10.526552
1002.792969,-2.074241,3.373932,-5.984306,-6.494684
1002.796875,-0.305184,-2.110376,1.553496,-6.097694
1002.800781,4.041366,0.699602,2.071717,3.070247
1002.804688,3.845176,3.586924,3.510244,5.045628
1002.808594,3.523764,8.043605,7.711870,4.172115
1002.812500,7.559404,7.294447,7.258877,2.846267
1002.816406,7.960596,7.879830,7.161991,3.660938
1002.820312,11.029096,16.119805,8.804691,9.921491
1002.824219,9.127056,7.026238,9.535036,8.677368
1002.828125,7.823649,9.330116,13.260066,7.160935
1002.832031,11.401876,-0.033480,6.844004,9.864400
1002.835938,4.442958,11.682432,13.146491,4.583411
1002.839844,4.481105,7.473124,4.502512,6.184809
1002.843750,6.349048,0.247643,11.042465,0.439390
1002.847656,-2.890807,0.933685,7.806884,7.488615
1002.851562,1.198163,-5.995558,2.087350,0.856064
1002.855469,-7.722227,2.194076,-1.549193,-2.289385
1002.859375,-5.852609,-5.736302,-7.491065,-4.859317
1002.863281,-9.260047,-3.367452,-7.135577,-4.930066
1002.867188,-8.043509,-7.810579,-8.085109,-8.976209
1002.871094,-14.987738,-15.073886,-3.465208,-7.466484
1002.875000,-14.293461,-7.893493,-5.746503,-17.593389
1002.878906,-12.032623,-15.654899,-2.695042,-13.524880
1002.882812,-8.249496,-7.110278,-2.199720,-10.756451
1002.886719,-8.045012,-12.271129,-3.335864,-8.152846
1002.890625,-1.000592,-4.790003,-0.837444,1.746205
1002.894531,-2.242473,-1.961642,-6.191889,-10.431502
1002.898438,-2.652256,-0.692579,-3.972316,1.586949
1002.902344,1.848133,5.028358,-4.816224,-0.587043
1002.906250,5.019005,2.324296,3.668530,1.434969
1002.910156,1.919154,9.720037,2.489141,9.817499
1002.914062,10.408408,5.148311,10.490027,13.875823
1002.917969,12.487280,14.833608,1.722774,11.967510
1002.921875,5.589288,9.045762,13.947198,9.574982
1002.925781,7.042960,18.627797,14.093708,11.815750
1002.929688,17.754380,9.756081,10.069176,5.636143
1002.933594,2.778740,9.358523,12.341977,6.315171
1002.937500,8.741988,8.306427,9.288455,2.327141
1002.941406,1.802410,7.148705,6.139391,7.690623
1002.945312,3.438938,1.525803,0.904896,-1.473128
1002.949219,4.914977,-2.221544,-1.808170,-9.822885
1002.953125,0.272249,4.287395,0.030848,-6.246368
1002.957031,-9.238655,-3.811315,-3.372891,-4.688768
1002.960938,-4.763708,-10.911266,-13.586936,-8.437506
1002.964844,-7.638510,-10.000977,0.695898,-5.220086
1002.968750,-10.656764,-1.401972,-9.167756,-6.908858
1002.972656,-13.730639,-11.078064,-13.260159,-14.388572
1002.976562,-9.607035,-14.763970,-7.696843,-10.745280
1002.980469,-13.732597,-0.887093,-7.176849,-12.200957
1002.984375,-5.775318,-13.989368,-7.267207,-3.929339
1002.988281,-16.835853,-4.498361,-7.865035,-6.853945
1002.992188,-8.447284,-1.412207,-1.581716,-1.476779
1002.996094,-4.952516,-5.425745,-7.846062,-1.581590
1003.000000,-4.154268,-5.159299,-1.328529,2.249726
1003.003906,4.472904,3.384947,10.013866,0.762102
1003.007812,3.372469,3.773086,8.382892,5.159334
1003.011719,9.612824,6.639294,6.868877,6.852997
1003.015625,8.164577,6.842505,18.110504,11.319115
1003.019531,7.889064,16.283737,6.987131,21.638635
1003.023438,14.548305,14.225600,13.576743,11.163541
1003.027344,12.100892,12.397267,14.065700,9.802950
1003.031250,16.090034,4.423036,11.726098,8.964164
1003.035156,8.764912,8.532336,5.412609,7.288461
1003.039062,13.379909,7.847548,4.419974,7.472948
1003.042969,6.050905,1.489173,-0.042127,1.985536
1003.046875,0.527488,-0.210975,0.209522,3.443929
1003.050781,-3.833252,3.950029,-2.631644,1.703655
1003.054688,-4.082065,-7.881381,-0.220979,-3.757872
1003.058594,-2.598296,-6.919110,3.659951,-11.752410
1003.062500,-8.868817,-4.422302,-12.880951,-15.689286
1003.066406,-11.138305,-9.045867,-8.659939,-6.613890
1003.070312,-13.769165,-9.881074,-12.621134,-2.996050
1003.074219,-4.750226,-5.161687,-10.296070,-3.804214
1003.078125,-3.992444,-13.834331,-17.791902,-11.468611
1003.082031,-6.812595,-6.462729,-7.977666,-12.900130
1003.085938,-12.101094,-12.525683,-1.631697,-2.123576
1003.089844,-6.314105,-12.140581,-11.318341,-14.583953
1003.093750,-0.529218,1.268434,-5.455685,-0.861065
1003.097656,-3.036231,-2.262607,-6.586302,-2.756231
1003.101562,0.415250,6.225389,-1.750806,-3.010277
1003.105469,2.740290,3.654308,8.324837,12.423469
1003.109375,-0.555823,-0.849371,6.547295,15.741260
1003.113281,-3.394370,12.596803,7.511653,4.999143
1003.117188,1.463416,7.173304,11.244741,14.686482
1003.121094,9.791394,11.617235,11.561498,8.207867
1003.125000,7.510628,7.083457,12.595583,10.730759
1003.128906,9.039682,13.098750,16.295138,2.416925
1003.132812,7.864894,7.599219,12.905947,8.625993
1003.136719,1.653813,8.023202,-1.798663,4.854098
1003.140625,5.084990,9.827322,7.108538,12.138608
1003.144531,7.075324,6.366168,2.032471,1.975247
1003.148438,-5.344563,3.970498,1.877134,-3.174102
1003.152344,-0.804336,-5.844527,-0.259128,-4.327255
1003.156250,-5.375111,-11.050223,0.315795,-6.837693
1003.160156,-7.935754,-6.407877,-13.898272,-2.995961
1003.164062,-8.986638,-16.943032,-12.281582,-8.553526
1003.167969,-4.557779,-12.996317,-11.037638,-9.763532
1003.171875,-14.843143,-10.315816,-9.455698,-9.154929
1003.175781,-10.281802,-6.613182,-9.723255,-4.722114
1003.179688,-16.022277,-14.740213,-10.033960,-8.904179
1003.183594,-7.028872,-5.124082,-16.647722,-16.826125
1003.187500,-8.305445,-3.667505,-8.692094,-8.259020
1003.191406,-8.081805,-9.273369,-0.229094,-5.688538
1003.195312,-9.479087,-3.999856,2.664051,-0.582642
1003.199219,3.602503,5.560068,3.850475,2.444044
1003.203125,-3.565732,2.416317,-1.761959,0.108203
1003.207031,8.135404,1.814774,1.798754,2.361612
1003.210938,2.426451,2.409134,6.555773,2.114892
1003.214844,6.548980,9.156092,10.867221,13.236943
1003.218750,3.431243,3.541267,6.780654,12.402044
1003.222656,16.308656,5.308016,15.411201,8.900633
1003.226562,7.145360,8.057588,8.343014,13.713407
1003.230469,5.403232,4.065421,15.365871,3.291376
1003.234375,11.858530,6.644431,6.460013,9.191691
1003.238281,10.937029,10.515821,10.431697,1.491531
1003.242188,3.187448,2.228966,1.867458,-0.232290
1003.246094,8.596931,0.027981,3.535791,0.920627
1003.250000,4.253245,-0.310537,1.671953,-1.691472
1003.253906,3.629186,-1.941843,-11.929351,-8.116663
1003.257812,-8.342739,-8.666624,-3.414058,3.147373
1003.261719,-9.788625,-7.664644,-5.813110,-2.233997
1003.265625,-10.786853,-4.956052,-12.267403,-2.290139
1003.269531,-11.890235,-10.341319,-4.665016,-2.024881
1003.273438,-11.459277,-4.005356,-3.607549,-7.488970
1003.277344,-17.510603,-14.516736,-7.592468,-20.861852
1003.281250,-14.386752,-10.043171,-3.721514,-13.482039
1003.285156,-5.253407,-11.663434,-7.178721,-9.421819
1003.289062,2.583321,-5.193126,-7.006674,-13.532462
1003.292969,-1.798031,-4.492009,-0.838475,-7.500862
1003.296875,-1.480314,-2.226348,-5.178496,1.682912
1003.300781,4.302605,-5.832178,-10.320666,-2.447696
1003.304688,6.000667,3.589775,-1.179534,7.282219
1003.308594,0.667572,3.528729,9.939352,4.215101
1003.312500,7.519940,14.666236,5.719873,13.887951
1003.316406,9.089631,8.787269,6.988816,7.902169
1003.320312,3.153322,8.166088,3.269085,10.357006
1003.324219,11.438715,7.025543,19.810981,11.811780
1003.328125,7.851452,14.470509,7.609363,7.414294
1003.332031,2.852849,10.556884,12.199796,12.600564
1003.335938,9.516172,6.228563,6.476726,13.371616
1003.339844,4.192959,8.516955,6.805701,0.999654
1003.343750,8.763218,3.735220,3.484706,-1.873873
1003.347656,2.757569,5.042890,-5.595387,9.793114
1003.351562,9.419087,-2.047924,4.350663,2.534889
1003.355469,-0.468695,-1.057505,-3.613355,-1.498274
1003.359375,-5.887654,-4.017138,-1.887742,-5.596657
1003.363281,-6.074683,-8.021811,-7.126022,-2.922694
1003.367188,-11.709972,-18.936781,-5.675660,-11.971846
1003.371094,-4.275465,-9.523599,-7.903017,-8.679042
1003.375000,-15.763020,-15.504737,-13.210324,-7.569169
1003.378906,-6.391045,-10.743523,-9.143297,-4.507984
1003.382812,-8.637520,-8.912226,-12.696231,-13.202791
1003.386719,-2.796337,-4.897799,-13.396501,-9.837693
1003.390625,-12.551740,-4.464072,-14.443142,-9.192386
1003.394531,-4.221420,-5.382811,-2.187411,-0.061959
1003.398438,-1.278857,-5.386413,0.944254,-0.042089
1003.402344,-2.933665,2.682728,0.061478,-2.802198
1003.406250,9.959425,5.956966,5.643586,5.852053
1003.410156,3.568283,11.948182,13.840792,12.207181
1003.414062,6.499021,2.184662,11.117165,0.232669
1003.417969,10.999074,11.402180,11.852349,4.944566
1003.421875,13.454603,4.911576,11.850335,15.168417
1003.425781,9.184702,2.465322,2.103596,16.442110
1003.429688,11.732896,12.402544,7.710771,9.753524
1003.433594,3.521841,9.093125,13.241654,9.212461
1003.437500,10.104196,-1.307862,6.704704,4.074578
1003.441406,9.032085,6.705599,-0.709643,7.628025
1003.445312,5.565482,12.935228,9.714453,4.417896
1003.449219,4.737713,-0.774801,3.505335,-9.289423
1003.453125,-4.427936,-3.005617,-3.916436,-6.137541
1003.457031,-9.648513,-5.222438,-5.452615,-2.867597
1003.460938,-3.147758,-5.435719,-8.201340,-6.978330
1003.464844,-11.605917,-10.775299,-4.430623,-2.609112
1003.468750,-12.021142,-6.751132,-14.996504,-11.680010
1003.472656,-6.025014,-10.923907,-20.992508,-11.632318
1003.476562,-8.596364,-14.150204,-11.733134,-9.167384
1003.480469,-8.615555,-8.960698,-10.060882,-10.460490
1003.484375,-5.011318,-6.889750,-8.617162,-14.435664
1003.488281,2.218042,-8.582254,-5.479446,-5.665662
1003.492188,-2.489255,-7.426143,-4.020319,-0.856255
1003.496094,-2.406191,-5.813851,1.910523,-5.904103
1003.500000,-1.802704,-4.589175,-2.311032,0.780567
1003.503906,0.304972,1.532627,-5.508506,6.077842
1003.507812,1.359062,7.992670,5.597273,13.171718
1003.511719,11.610394,15.372199,10.433979,3.473840
1003.515625,4.156544,13.722712,13.196732,9.864531
1003.519531,1.011043,13.796216,15.849623,10.152017
1003.523438,10.774997,10.292484,3.741250,2.350766
1003.527344,10.056734,5.966771,12.007120,7.090568
1003.531250,-0.349676,5.251863,8.590860,7.642031
1003.535156,2.529261,0.878003,8.615436,14.002931
1003.539062,10.032257,7.180461,1.946423,-0.611964
1003.542969,5.933800,-1.193793,1.631009,13.617889
1003.546875,1.391542,-0.003160,3.639305,-9.479373
1003.550781,-2.013502,-6.549141,3.192158,-3.786914
1003.554688,0.525851,-5.418335,2.897214,0.929034
1003.558594,-2.599006,-4.229571,-7.978289,-5.266557
1003.562500,-6.380675,-9.515105,-13.358130,-5.504335
1003.566406,-8.445864,-4.462949,-12.931332,-13.206663
1003.570312,-10.081998,-7.741250,-9.513743,-11.989478
1003.574219,-12.121298,-6.613237,-14.539214,-17.014366
1003.578125,-13.240427,-12.577112,-11.180311,-4.968178
1003.582031,-12.771727,-6.057386,-5.601705,-12.223390
1003.585938,-13.902898,-4.984203,-10.859074,-14.588472
1003.589844,-1.569955,-2.916910,-1.263729,-7.398808
1003.593750,-3.488369,-8.356078,-1.789398,-6.006391
1003.597656,-4.588666,-2.189582,-3.632986,-1.366424
1003.601562,-3.581577,-0.494769,3.421588,-1.273034
1003.605469,0.931691,7.918445,0.894664,4.250130
1003.609375,3.083199,3.788819,1.206333,4.430669
1003.613281,10.576954,9.599146,9.444474,8.761212
1003.617188,11.884212,9.921796,9.791855,8.884811
1003.621094,15.981961,4.958146,8.600730,7.870510
1003.625000,19.509309,7.548871,9.694161,13.937713
1003.628906,19.457271,15.261830,10.250638,16.001533
1003.632812,4.875100,7.419189,5.967364,13.597924
1003.636719,5.550612,1.286855,8.698728,5.035225
1003.640625,14.752229,9.685215,6.392305,1.506892
1003.644531,1.326264,4.488647,3.334850,6.647591
1003.648438,3.833919,-0.429034,-0.289893,-1.202267
1003.652344,-3.291823,-11.051036,-4.367705,-7.349787
1003.656250,-9.112479,-6.826156,-7.966665,-8.610706
1003.660156,-8.279856,-1.387233,-8.459350,-7.588865
1003.664062,-2.634523,-6.393663,-13.954382,-14.650712
1003.667969,-2.581885,-11.215995,-10.578840,-10.664522
1003.671875,-9.927105,-10.341668,-10.097704,-11.915911
1003.675781,-6.802833,-16.085186,-1.253586,-4.984688
1003.679688,-13.992145,-14.608120,-5.733771,-7.591255
1003.683594,-9.286523,-15.922799,-16.136021,-8.973515
1003.687500,-0.629480,-3.175795,-4.521988,-11.857533
1003.691406,-13.099648,-1.188378,-5.027562,-0.154255
1003.695312,-5.310804,-6.562062,-2.608833,0.770351
1003.699219,-2.233056,-1.800106,2.687433,-2.542153
1003.703125,8.495655,-0.513932,1.018541,2.400716
1003.707031,4.279673,0.507649,-0.437048,2.745266
1003.710938,8.621779,6.580001,8.906087,1.939997
1003.714844,6.277660,2.686274,8.886857,5.722982
1003.718750,11.119571,4.013910,5.817650,15.026196
1003.722656,12.103272,9.999061,15.265474,7.083791
1003.726562,11.316015,10.030203,6.556655,10.455492
1003.730469,12.629870,12.917355,11.040114,11.604329
1003.734375,6.191971,10.230564,9.242958,5.644161
1003.738281,13.611270,8.012133,10.625449,-5.826630
1003.742188,2.853228,-0.865174,5.081908,-2.099410
1003.746094,2.195491,1.614113,10.922224,0.043390
1003.750000,2.311694,5.634764,3.107203,-0.602395
1003.753906,-1.100003,-4.218640,1.508444,-14.129080
1003.757812,-2.541510,-6.499826,-8.309515,0.943594
1003.761719,-11.172400,-7.240161,-0.758062,-1.900792
1003.765625,-7.969149,-5.947869,-3.600265,-8.448956
1003.769531,-10.500520,-8.240907,-6.617477,-7.449422
1003.773438,-18.500366,-13.798684,-10.689272,-2.235678
1003.777344,-5.668470,-10.670237,-9.416011,-9.969951
1003.781250,-13.631587,-4.291548,-6.005777,-14.689293
1003.785156,-9.076284,-5.563720,-10.963081,-4.418064
1003.789062,-6.892557,-11.433769,-5.833884,-6.547528
1003.792969,-1.492273,-8.474527,-3.453044,0.254821
1003.796875,1.271463,-6.117619,-7.285061,-10.807387
1003.800781,-7.015410,-3.844416,-1.629649,0.047042
1003.804688,2.564076,1.316297,3.018242,-0.674647
1003.808594,2.457244,2.490633,2.673945,7.359916
1003.812500,5.725182,8.890166,7.193475,4.467834
1003.816406,8.330991,5.390358,7.638271,7.888880
1003.820312,1.864949,5.641574,10.670480,13.341605
1003.824219,13.683664,5.749333,13.095826,7.440866
1003.828125,8.433984,4.888866,15.989882,11.082456
1003.832031,5.626345,2.218294,8.194201,9.138125
1003.835938,6.762234,1.536749,8.240885,10.038290
1003.839844,12.746009,4.108697,6.634215,3.615154
1003.843750,5.031778,7.401717,5.847604,11.488204
1003.847656,0.527346,-2.972493,1.601851,-2.317346
1003.851562,5.483868,2.084719,2.725112,0.269732
1003.855469,-6.499947,-7.386130,-9.235115,2.459824
1003.859375,-6.618819,-7.949840,-1.117677,-10.367102
1003.863281,-1.931565,-11.061206,-15.203159,-7.473673
1003.867188,-9.142584,-10.903086,-10.044055,-4.468982
1003.871094,-17.492205,-6.137809,-10.317489,-8.422614
1003.875000,-14.465414,-10.839857,-3.991100,-11.151687
1003.878906,-6.053254,-8.721003,-19.383754,-6.341560
1003.882812,-10.513666,-8.203759,-11.380246,-6.617905
1003.886719,-10.495619,-11.156696,-8.018594,-3.151454
1003.890625,-4.074694,1.336605,-1.590768,-4.020155
1003.894531,-5.603316,-7.294234,-4.452163,-3.987423
1003.898438,4.039530,-0.115434,-7.920673,8.551758
1003.902344,11.200195,2.659729,-1.155727,-0.347738
1003.906250,4.183306,10.747982,2.178676,0.317891
1003.910156,5.686211,4.858863,-0.001665,5.027731
1003.914062,10.006848,8.114477,5.134666,5.981753
1003.917969,8.561438,15.118128,10.538270,4.418761
1003.921875,13.169762,7.635772,8.934812,5.085448
1003.925781,16.604220,9.497468,11.404669,7.533423
1003.929688,11.680497,7.927899,10.868869,15.289340
1003.933594,8.342710,10.980327,5.319316,4.031584
1003.937500,8.104154,13.864334,9.620150,7.202422
1003.941406,6.098194,8.995113,-0.118206,3.898019
1003.945312,4.445708,-0.131469,2.603415,-2.015881
1003.949219,2.867209,1.883434,1.903817,-2.426829
1003.953125,-2.422949,7.402283,-3.208460,-2.884374
1003.957031,-2.938355,-0.630008,-4.726884,-5.181809
1003.960938,-7.449476,-4.542368,1.540422,-2.166849
1003.964844,-0.058286,-8.216952,-4.365937,-11.235709
1003.968750,-11.332439,-8.256683,-1.281864,-9.078170
1003.972656,-8.863285,-19.028004,-3.199027,-6.160930
1003.976562,-8.303504,-8.559667,-8.702171,-12.786159
1003.980469,-7.472017,-11.902966,-10.419438,-10.184981
1003.984375,-11.276707,-5.070120,-3.971696,-8.100029
1003.988281,-6.839317,-9.305180,-5.351928,-12.385611
1003.992188,-7.226091,-4.809865,-0.154250,-8.076046
1003.996094,-0.911814,3.750236,-5.769599,-0.373633
1004.000000,0.281404,-7.593960,0.812853,-10.475821
1004.003906,3.011201,-0.451823,7.180147,1.272585
1004.007812,7.460359,8.694165,-0.153010,0.181737
1004.011719,3.868056,3.130727,2.225359,4.611651
1004.015625,9.487152,6.264149,2.736673,5.007401
1004.019531,10.113958,12.021261,8.585526,3.543352
1004.023438,17.769825,13.617131,20.396581,12.650121
1004.027344,11.239974,8.453303,9.220647,8.939929
1004.031250,14.527195,11.312527,6.184668,11.048492
1004.035156,11.987380,-3.189510,11.266587,2.969291
1004.039062,0.864087,3.843549,1.875985,5.861389
1004.042969,2.700290,4.832212,8.606962,8.495183
1004.046875,4.757474,3.624733,3.173189,1.414748
1004.050781,1.075077,-0.909859,2.609765,1.842878
1004.054688,-2.602661,-8.003273,-4.602705,0.481629
1004.058594,-8.213057,-6.298536,-7.569752,3.639544
1004.062500,-5.809805,-2.653445,-1.350164,-16.264891
1004.066406,-7.912078,-2.887004,-13.195067,-9.532347
1004.070312,-7.613870,-13.453695,-7.575977,-14.947045
1004.074219,-15.038914,-7.937768,-7.307195,-7.998092
1004.078125,-9.056682,-10.349357,-11.560569,-17.156552
1004.082031,-4.817841,-9.507833,-12.746000,-9.371629
1004.085938,-8.671576,-6.062003,-2.962135,-0.239243
1004.089844,-9.424667,-3.209464,-6.460244,-9.161606
1004.093750,-2.456787,0.464142,-5.510682,-1.712354
1004.097656,-0.893077,-4.203072,-3.478836,-1.716479
1004.101562,0.071447,1.475587,-1.989264,3.500430
1004.105469,5.530632,0.147854,4.939898,-1.030207
1004.109375,4.104299,8.991779,7.125559,3.495388
1004.113281,7.781945,6.019444,7.185765,8.864540
1004.117188,5.586424,10.300726,10.538484,12.540892
1004.121094,9.066732,17.067188,15.477334,9.211008
1004.125000,8.761909,14.925196,14.987425,13.826418
1004.128906,10.178432,8.581297,2.659570,2.977472
1004.132812,11.400268,7.811991,2.593649,3.482112
1004.136719,5.848065,10.667475,6.694298,6.196496
1004.140625,3.359597,1.789691,4.127742,6.264595
1004.144531,13.679577,-3.879458,4.269439,6.749948
1004.148438,3.648197,11.629807,-2.633350,-2.677408
1004.152344,2.522807,3.093106,-4.437938,3.024622
1004.156250,4.625913,-11.648332,-4.227688,-1.022692
1004.160156,-7.537021,-7.557781,1.113982,1.785704
1004.164062,-7.953789,-11.172281,-3.354048,-14.592487
1004.167969,-8.898171,-14.770579,-13.673949,-16.874627
1004.171875,-14.888700,-14.200156,-12.206849,-11.645529
1004.175781,-7.075981,-11.286747,-12.407949,-16.416185
1004.179688,-6.047517,-2.871125,-8.779375,-5.855814
1004.183594,-10.183182,-11.759349,-5.631153,-3.658096
1004.187500,-6.763832,-3.888784,-7.713672,2.059714
1004.191406,-13.575308,-7.685711,-8.021519,-3.923352
1004.195312,-3.618810,-4.028457,8.834348,2.147543
1004.199219,1.153748,-0.326756,1.175553,-2.609510
1004.203125,2.922520,4.299886,3.112313,5.845308
1004.207031,3.284704,4.939706,4.986837,6.457922
1004.210938,4.611062,4.730436,4.630987,3.840007
1004.214844,12.392019,8.178103,3.568803,9.056443
1004.218750,10.807852,12.350751,14.851886,11.857492
1004.222656,10.002527,16.628184,19.961494,14.335946
1004.226562,7.865383,11.826047,8.846550,15.515622
1004.230469,11.739499,15.067193,9.736059,13.324422
1004.234375,9.770881,3.647089,11.099452,14.633597
1004.238281,7.279875,8.174558,8.380003,12.185192
1004.242188,3.397707,2.217449,2.202971,8.197833
1004.246094,-1.187235,2.150317,-3.708639,-1.891137
1004.250000,-0.003518,-0.810533,1.167254,2.531538
1004.253906,5.206591,-3.372331,0.523616,-12.165237
1004.257812,-6.552017,-4.859530,-0.297925,-0.954821
1004.261719,-6.783341,-6.133410,-9.314647,-14.795160
1004.265625,-16.331534,-5.767857,-12.059904,-9.557662
1004.269531,-5.313200,-21.284413,-12.622281,-12.824419
1004.273438,-11.675842,-4.314335,-7.539391,-6.321890
1004.277344,-12.570257,-5.376914,-7.546491,-7.038020
1004.281250,-9.672177,-9.904094,-16.753662,-4.865498
1004.285156,-16.254862,-9.879282,-4.244824,-7.105849
1004.289062,-5.423440,-5.685325,-3.446883,-3.643003
1004.292969,-8.576742,1.364365,-1.822302,1.751535
1004.296875,-1.215290,-5.325015,-6.626355,-11.332298
1004.300781,2.788499,-2.835831,4.399180,-2.100242
1004.304688,-0.040961,-0.530001,2.214521,-2.740377
1004.308594,6.125857,6.638808,10.061520,-0.129803
1004.312500,3.507287,3.984582,10.466515,0.929341
1004.316406,3.616443,-2.297658,12.552053,9.345228
1004.320312,9.251321,11.803342,9.652469,13.323660
1004.324219,12.056419,10.054006,7.210422,9.056721
1004.328125,8.330712,16.209766,10.956633,9.038933
1004.332031,1.799559,11.823884,13.265438,11.036394
1004.335938,12.801235,13.168432,4.197240,8.310909
1004.339844,4.931462,14.721609,11.355288,7.765617
1004.343750,-2.524107,4.017698,0.135946,-4.091643
1004.347656,4.688751,8.397128,1.942829,0.620840
1004.351562,4.385666,9.875931,3.866865,-0.606536
1004.355469,-0.748301,-6.745212,-6.020476,-2.758297
1004.359375,-1.565671,-3.431146,-7.661405,-5.323231
1004.363281,-10.778331,-6.868930,-2.995196,-12.042571
1004.367188,-3.743539,-13.809361,-11.319666,-10.919921
1004.371094,-11.801548,-15.027011,-5.324111,-8.752856
1004.375000,-6.716575,-8.550322,-10.210761,-3.849586
1004.378906,-11.824892,-7.183498,-5.298323,-6.958705
1004.382812,-5.312803,-14.326324,-8.881962,-11.593242
1004.386719,-6.805176,-1.382747,-7.568556,-9.062175
1004.390625,-5.106384,-9.924934,-7.764346,-0.461986
1004.394531,-2.054723,6.035819,3.644734,-1.866045
1004.398438,-3.890870,-6.381576,-3.189621,-3.596985
1004.402344,0.445479,2.405616,1.860209,2.675721
1004.406250,3.048909,5.013597,3.333579,-2.756993
1004.410156,9.248816,4.792632,6.583694,7.868311
1004.414062,6.697754,-3.707398,9.167361,16.475591
1004.417969,7.591257,18.184402,6.423323,10.745656
1004.421875,11.648127,11.336506,9.541608,4.205977
1004.425781,4.789946,-0.531220,11.109658,16.260697
1004.429688,15.551615,10.091953,6.348521,11.846241
1004.433594,3.547314,9.714934,1.578209,3.903414
1004.437500,7.573081,6.103991,-5.341981,3.742510
1004.441406,6.720674,-1.132372,5.782905,5.490347
1004.445312,2.037423,2.040728,-3.761287,0.533991
1004.449219,4.005420,2.454135,5.162644,-0.657649
1004.453125,-4.034129,0.118882,-0.810901,-3.030489
1004.457031,-13.732417,-10.792842,-6.423576,-6.451783
1004.460938,-4.042840,-7.599664,-4.297548,-9.193733
1004.464844,-10.149868,-11.859948,-11.426241,-6.508367
1004.468750,-6.683657,-9.358053,-8.381014,-14.639050
1004.472656,-3.541382,-10.167027,-10.692051,-10.517957
1004.476562,-9.479965,-9.381526,-13.914325,-18.696349
1004.480469,-14.963597,-5.876765,-4.742141,1.199818
1004.484375,-8.337249,-7.723361,-11.231325,-10.331896
1004.488281,-8.481408,-6.730798,-11.002992,-5.779965
1004.492188,-2.999215,-4.782170,-1.926748,0.591448
1004.496094,6.634152,0.280933,-0.488614,3.571772
1004.500000,0.743184,9.131827,3.480297,-0.612617
1004.503906,2.161575,6.766000,8.949639,3.345126
1004.507812,3.661208,2.887352,5.545044,7.852518
1004.511719,1.206321,4.864264,12.208244,4.037588
1004.515625,2.273869,3.842349,12.159295,6.504794
1004.519531,9.705725,13.398332,10.924105,14.002958
1004.523438,11.277829,9.846412,13.209965,9.464420
1004.527344,4.450295,5.867271,13.465589,12.219243
1004.531250,3.963441,10.858179,4.849553,8.926833
1004.535156,9.428748,5.731330,13.812106,8.902488
1004.539062,7.618448,4.194524,1.521982,7.218284
1004.542969,4.491475,-2.167119,0.141929,0.553781
1004.546875,7.187980,0.652554,0.106217,1.183005
1004.550781,-6.499758,1.918862,0.048850,-1.087670
1004.554688,-0.793933,-7.143878,-2.817597,-2.031468
1004.558594,-3.986050,-8.737615,-5.855328,-5.191380
1004.562500,-11.163314,-7.695145,-9.441624,-4.954288
1004.566406,-9.297508,-5.696138,-5.176179,-10.108211
1004.570312,-5.169291,-7.296891,-12.931612,-9.971584
1004.574219,-12.521636,-12.276848,-10.782225,-11.222872
1004.578125,-11.643979,-11.432652,-11.146231,-8.068706
1004.582031,-5.385366,-14.257021,-8.392353,-6.383701
1004.585938,-5.939938,-6.923539,-6.932757,-3.976995
1004.589844,-10.784898,-8.063487,-11.403785,-9.645440
1004.593750,-5.322471,-7.711638,-5.829123,-6.536054
1004.597656,3.945509,-4.586311,-0.492922,3.476462
1004.601562,-0.025296,3.045142,6.451745,-0.481860
1004.605469,0.412435,1.726702,-2.001506,3.636085
1004.609375,10.496569,1.073617,-1.632093,6.976060
1004.613281,6.706483,5.975385,5.564099,8.622587
1004.617188,9.298781,6.690405,4.823953,9.358305
1004.621094,14.868813,11.201128,12.849327,10.625400
1004.625000,18.031672,12.802943,16.483251,11.675059
1004.628906,16.025101,8.948081,8.303300,6.121784
1004.632812,6.733109,6.750905,5.092417,9.213212
1004.636719,11.770236,8.340922,3.488560,6.449071
1004.640625,3.637413,7.686742,8.495391,5.609877
1004.644531,2.971854,-1.992115,0.055065,-0.092311
1004.648438,3.601491,-1.155875,-0.693552,3.786709
1004.652344,-3.472879,1.577003,1.846573,2.841604
1004.656250,-7.783279,-4.487528,0.846482,-6.401217
1004.660156,-11.403768,-8.890191,-6.136774,-5.653349
1004.664062,-9.559693,-8.919405,-10.728199,0.463995
1004.667969,-13.465717,-9.240853,-5.358901,-9.645675
1004.671875,-5.520131,-6.155164,-16.508867,-12.053916
1004.675781,-8.866652,-10.768934,-11.723630,-14.208230
1004.679688,-15.243342,-7.139043,-13.572872,-14.810002
1004.683594,-10.851523,-11.323396,-9.330720,-8.210519
1004.687500,-12.547546,-6.068960,-4.550413,-8.755844
1004.691406,-1.793411,-0.427595,-3.141254,-9.116422
1004.695312,-2.232811,-5.082538,3.095153,-3.535392
1004.699219,-2.470942,2.836222,1.285361,-3.683808
1004.703125,-3.158583,3.908906,6.762980,8.666500
1004.707031,5.975659,-2.973686,0.568116,6.212084
1004.710938,12.222403,6.017604,4.109747,6.119069
1004.714844,8.852026,12.003620,8.919576,10.407783
1004.718750,3.358027,8.691016,0.925463,7.585239
1004.722656,8.400880,12.797286,10.237133,10.177200
1004.726562,18.263892,12.044354,10.395962,14.892711
1004.730469,15.063885,10.962613,11.045487,12.531366
1004.734375,5.979553,-1.699016,6.119209,11.176083
1004.738281,6.691645,3.674179,3.731487,1.941921
1004.742188,0.004100,10.053904,0.760911,1.636143
1004.746094,-1.793388,-3.263649,0.389303,2.375604
1004.750000,3.413003,11.267519,-0.087271,6.698278
1004.753906,-1.579473,-0.806348,-3.633744,-4.136608
1004.757812,3.137020,-3.290542,-1.571229,-6.770486
1004.761719,-10.186148,-7.320885,-6.453306,-13.698977
1004.765625,-4.952330,-5.728898,-17.025320,0.079529
1004.769531,-1.407027,-9.095029,-5.600295,-9.340156
1004.773438,-7.865750,-8.362980,-6.313316,-7.005518
1004.777344,-17.596203,-8.027423,-22.803694,-13.178254
1004.781250,-10.557515,-10.159087,0.507196,-13.865459
1004.785156,-5.533737,-8.352157,-11.946892,-7.290503
1004.789062,-6.423784,-13.702848,-5.646660,-11.163490
1004.792969,-7.644299,-2.189974,-6.476586,1.975592
1004.796875,0.943145,-4.437890,-6.616666,-0.500226
1004.800781,6.189820,-7.172242,3.550914,-0.424112
1004.804688,4.421645,9.198149,-0.432970,1.768611
1004.808594,9.060903,0.185953,7.913575,5.434425
1004.812500,7.108026,7.488291,10.944284,10.536729
1004.816406,10.315008,7.983240,8.300352,8.294029
1004.820312,4.582364,12.017701,2.093255,9.818628
1004.824219,10.893769,15.218823,7.836482,9.466617
1004.828125,10.073008,7.313771,5.635919,10.498125
1004.832031,7.788964,13.532797,16.460789,9.531737
1004.835938,13.159840,16.659489,9.877433,-1.853186
1004.839844,11.969765,3.384129,-0.343240,13.310338
1004.843750,2.087586,0.212476,8.320998,3.089604
1004.847656,2.627197,4.089063,-0.455774,-2.074019
1004.851562,1.400471,0.015803,-9.222627,-1.629307
1004.855469,-4.507499,-3.002532,-1.168327,-0.474901
1004.859375,-9.724520,-0.634020,-3.167007,0.624004
1004.863281,-11.945608,-10.979632,-11.408299,1.795728
1004.867188,-9.836331,-11.565855,-10.477566,-9.849617
1004.871094,-5.087752,-4.747698,-10.196375,-9.809833
1004.875000,-10.065156,-14.701399,-14.408664,-13.146146
1004.878906,-11.302284,0.145207,-11.164423,-10.615316
1004.882812,-11.103563,-10.207610,-9.805662,-15.295189
1004.886719,-13.919512,-4.103791,-10.469579,-11.525216
1004.890625,-11.315371,-4.505698,-7.172238,-0.753221
1004.894531,-4.179049,-3.754001,-1.134172,-7.660922
1004.898438,-1.246766,-3.259804,-7.152370,-1.261946
1004.902344,1.337945,0.207423,4.113846,1.388044
1004.906250,-0.239392,2.433606,8.390493,2.365287
1004.910156,4.684224,6.041230,6.598671,6.146550
1004.914062,-3.581664,6.339474,12.200574,7.708221
1004.917969,13.029189,4.412432,9.865231,0.965171
1004.921875,2.991078,12.657799,2.806457,16.239032
1004.925781,11.733181,16.586476,9.093570,8.621782
1004.929688,14.212716,6.820637,8.186049,9.449325
1004.933594,8.850375,8.635290,7.702059,4.986769
1004.937500,6.366002,10.219899,8.919904,-0.154565
1004.941406,4.188731,9.410108,-0.349889,5.675920
1004.945312,7.970120,2.317150,6.149575,-0.042230
1004.949219,9.556065,-1.002609,-3.676300,-1.526721
1004.953125,-0.547183,-8.198038,0.964519,-9.474871
1004.957031,-3.737040,-0.460531,-3.109733,-7.699021
1004.960938,-7.484294,0.952569,-6.730081,-10.937805
1004.964844,-4.986718,-13.157159,-2.816548,-2.344843
1004.968750,-6.328716,-14.525764,-6.873540,-9.356218
1004.972656,-12.187496,-9.522684,-9.627480,-10.379545
1004.976562,-5.892159,-7.877658,-10.515922,-9.489614
1004.980469,-19.486471,-12.213617,-8.646396,-18.974768
1004.984375,-3.338244,-6.761271,-6.383362,-8.118922
1004.988281,-7.404587,-5.050910,0.959509,-2.671569
1004.992188,-3.815164,-5.987330,-2.944272,-11.500474
1004.996094,-1.508614,-3.733535,-6.628168,-6.638742
1005.000000,2.263882,-3.190978,2.525552,-0.438019
1005.003906,5.192465,0.265972,4.219265,4.981954
1005.007812,2.910741,10.175529,11.603169,6.972194
1005.011719,9.377809,7.163659,5.785112,2.959164
1005.015625,8.646056,13.412101,11.057437,5.490573
1005.019531,9.493732,12.599672,2.161980,4.708884
1005.023438,11.189331,12.105128,9.609934,5.911695
1005.027344,11.497096,14.463759,9.587981,2.765685
1005.031250,10.788158,10.246858,17.264258,14.837922
1005.035156,1.783541,-0.055968,4.408812,7.695450
1005.039062,1.758908,-0.028741,9.610176,6.390870
1005.042969,4.493340,0.064083,7.678891,11.987046
1005.046875,-0.633554,4.245610,4.782881,8.422446
1005.050781,-9.154519,0.647098,-5.043298,2.883698
1005.054688,2.663969,-1.680933,-1.208453,2.699384
1005.058594,6.326426,2.443224,-8.226353,-6.893695
1005.062500,-11.205232,-1.943943,-10.613908,-10.185348
1005.066406,-8.805672,-2.351407,-11.913387,-8.589221
1005.070312,-4.100649,-4.810688,-7.539147,-8.996828
1005.074219,-8.579665,-7.435139,-2.676992,-7.623978
1005.078125,-18.289450,-13.565255,-11.770850,-8.974977
1005.082031,-11.053862,-5.126969,-7.779377,-12.802792
1005.085938,-7.884162,-10.772027,-3.984377,0.193524
1005.089844,-5.654321,-7.454016,-8.938971,-3.075334
1005.093750,-4.646059,-8.262938,-4.191384,-4.300013
1005.097656,-3.341055,-3.794459,1.188032,0.559579
1005.101562,-2.013223,-2.727431,5.148429,1.878454
1005.105469,-3.385386,4.994784,1.667916,0.048393
1005.109375,6.068487,8.081684,7.953415,9.805219
1005.113281,9.516363,7.554395,-1.782882,6.823157
1005.117188,10.680980,11.538176,10.553679,6.710584
1005.121094,10.476916,8.781681,13.898490,7.364749
1005.125000,10.569393,0.989987,15.147576,11.266834
1005.128906,19.529522,8.859831,10.173786,11.901421
1005.132812,10.766371,6.956493,9.539763,18.070946
1005.136719,3.063331,7.086260,4.202860,8.807339
1005.140625,4.431342,13.771312,8.317309,8.110172
1005.144531,6.961161,5.432016,-0.473385,0.873911
1005.148438,-6.922612,-1.478616,-9.457277,-4.110563
1005.152344,2.080867,-6.121312,-10.334209,1.299339
1005.156250,0.560405,1.550411,3.648416,-9.206981
1005.160156,1.048526,-6.741427,-4.823219,-8.763002
1005.164062,-6.578561,-10.936260,-5.673836,-13.328835
1005.167969,-16.041982,-10.604309,-9.877344,-6.686125
1005.171875,-8.834084,-11.154297,-10.225076,-13.163991
1005.175781,-12.168312,-18.271530,-12.840477,-9.769041
1005.179688,-8.365518,-7.036805,1.049732,-10.952531
1005.183594,-3.735635,-15.374357,-5.106353,-2.044841
1005.187500,-6.788770,-19.372499,-3.443988,-0.531676
1005.191406,-0.831156,-7.477932,-4.200748,-10.734266
1005.195312,-3.516411,-1.022817,-1.558072,-5.518192
1005.199219,-2.092331,-1.395708,3.073332,-3.945503
1005.203125,0.033239,0.115008,-3.442339,4.326359
1005.207031,1.467854,-1.239024,9.373743,-0.894574
1005.210938,8.587147,9.307952,6.325955,7.355411
1005.214844,7.704117,12.560643,6.535843,6.479156
1005.218750,14.434228,21.961657,11.430433,11.777487
1005.222656,6.349545,10.106187,3.774316,12.265083
1005.226562,7.451391,5.128622,17.816589,3.495337
1005.230469,9.803893,5.574692,5.188519,10.679414
1005.234375,10.279344,11.151441,5.425908,14.425496
1005.238281,12.822654,5.318671,2.535277,4.674057
1005.242188,-3.292456,0.468205,0.256589,0.547953
1005.246094,1.701834,1.068469,5.287674,4.907402
1005.250000,3.297809,-4.602121,6.615362,-3.443469
1005.253906,-5.508408,1.506007,-4.126762,-1.894915
1005.257812,-2.533832,-10.310245,-7.529443,-7.175439
1005.261719,-1.518817,-9.457582,-2.994614,-3.408141
1005.265625,-9.558713,-2.486366,-6.396985,-15.043815
1005.269531,-5.944283,-0.398965,-10.290301,-4.995134
1005.273438,-9.594463,-4.849259,-4.768592,-6.649680
1005.277344,-0.507066,-11.676832,-6.962537,-9.854918
1005.281250,-3.817399,-9.119890,-14.187097,-12.415462
1005.285156,-2.981352,-9.771535,-8.765006,-12.348779
1005.289062,-11.437894,-16.389522,-11.052360,-2.665961
1005.292969,-1.813455,-5.162347,-5.138586,6.140695
1005.296875,0.183403,-1.522785,-10.470446,-2.863033
1005.300781,1.922182,1.108643,-4.832852,-1.962740
1005.304688,5.942574,7.066208,-0.871995,2.442620
1005.308594,1.072570,6.766487,5.262882,12.083934
1005.312500,12.801496,7.914815,8.721289,13.937926
1005.316406,6.315213,8.533433,6.991765,6.393806
1005.320312,10.590620,13.296937,12.863904,10.639170
1005.324219,8.635046,7.999392,13.726787,8.349266
1005.328125,13.647016,7.485187,8.850257,5.394112
1005.332031,7.734135,5.408773,9.347188,11.216445
1005.335938,10.711165,7.253278,9.434096,2.608941
1005.339844,3.937105,9.061122,5.542279,5.687958
1005.343750,4.228900,10.116945,3.466093,0.424225
1005.347656,4.049729,-5.245107,9.180235,8.118465
1005.351562,3.345099,7.416031,-2.644125,-5.188890
1005.355469,-5.905375,-5.769347,3.327173,-1.358956
1005.359375,-7.563241,-4.684783,-11.386682,-7.814124
1005.363281,-9.159511,-1.141234,-4.760361,-4.718087
1005.367188,-4.900488,-9.008888,-8.184349,-12.553595
1005.371094,-11.447388,-8.354668,-18.079523,-6.566105
1005.375000,-6.747002,-6.499866,-8.901036,-8.224726
1005.378906,-12.819652,-19.181066,-12.573114,-9.900980
1005.382812,-9.195170,-5.691870,-7.386371,2.624466
1005.386719,-11.745023,-10.767302,-5.827825,-8.851774
1005.390625,-7.001137,-9.094939,-10.590197,0.923631
1005.394531,-5.443725,-5.332736,-2.288978,-6.852753
1005.398438,-8.260669,-6.270167,-1.628150,-2.430526
1005.402344,0.425597,-6.632860,0.292783,6.110239
1005.406250,-6.124736,8.232313,-0.957518,-3.055223
1005.410156,4.399284,4.188345,3.445270,4.642333
1005.414062,7.653023,12.398294,7.423730,9.325176
1005.417969,11.262720,18.375599,6.342646,8.258225
1005.421875,7.800134,19.181623,8.315425,9.760756
1005.425781,11.756475,12.324608,7.214889,15.465335
1005.429688,8.612277,4.536227,-0.394631,13.024088
1005.433594,5.539029,13.357872,8.738153,4.652364
1005.437500,2.962841,5.749662,8.711327,9.975515
1005.441406,7.753517,0.071346,-1.603034,4.745285
1005.445312,1.269007,3.144089,5.649783,2.177784
1005.449219,3.112417,-0.834552,-11.627101,-3.685185
1005.453125,1.793903,-4.013650,1.148558,-1.885329
1005.457031,1.895059,-2.770968,-2.951865,-4.942748
1005.460938,-3.644128,-9.227223,-9.341743,-10.891992
1005.464844,-7.727100,-11.545762,-5.189238,-16.249371
1005.468750,-5.954138,5.006132,-7.946843,-12.688771
1005.472656,-3.294356,-5.370130,-9.778711,-15.652887
1005.476562,-6.593387,-6.798283,-11.891005,-10.340945
1005.480469,-9.763506,-9.696814,-9.594257,-9.070424
1005.484375,-11.689998,-6.856955,-3.379744,-11.460058
1005.488281,1.113626,-6.797019,-3.521652,-11.992516
1005.492188,-7.827543,1.928850,-1.916504,-1.602915
1005.496094,-3.452468,0.381961,-6.324745,-2.062227
1005.500000,0.281602,3.611904,-0.415471,-1.687272
1005.503906,9.644711,2.762083,3.547267,6.034915
1005.507812,5.720021,1.823784,3.839553,4.167900
1005.511719,14.028822,9.439225,4.371813,7.348841
1005.515625,3.698017,11.206661,10.258525,8.311005
1005.519531,16.123931,6.350656,8.222037,10.686448
1005.523438,9.396001,14.214388,6.960460,15.656367
1005.527344,6.805720,11.130256,10.285028,6.149770
1005.531250,10.935827,12.541650,11.446672,14.544350
1005.535156,4.316092,4.101070,4.748174,7.282111
1005.539062,4.811616,5.496261,2.620032,0.684761
1005.542969,6.129279,0.783266,2.656901,7.799779
1005.546875,5.387470,2.640349,-2.853894,-2.029476
1005.550781,-3.744432,-0.826381,-2.121581,-0.690030
1005.554688,0.332448,-10.125632,-1.657762,3.470763
1005.558594,2.139999,-8.174888,-5.716189,-3.442740
1005.562500,-5.824390,-1.631417,-11.941391,-1.608680
1005.566406,-10.474985,-9.540707,-10.326037,-6.607027
1005.570312,-13.366211,-2.755164,-4.817066,-12.866483
1005.574219,-12.222162,-6.184899,-4.976957,-14.086325
1005.578125,-12.126331,-10.112746,-13.367131,-8.574951
1005.582031,-12.198683,-11.561391,-10.995846,-3.745536
1005.585938,-9.939146,-8.709153,-1.979284,-7.971960
1005.589844,-5.161777,-12.655734,-0.300559,-5.603487
1005.593750,-11.285811,-2.656412,-6.523932,-0.930319
1005.597656,4.043909,-5.174563,-7.157518,-8.670260
1005.601562,4.423943,-4.214260,0.735262,0.651730
1005.605469,8.051819,-3.998643,6.033216,3.680563
1005.609375,8.053796,2.660579,6.678685,-0.826294
1005.613281,0.741474,5.596022,13.879882,9.298831
1005.617188,12.101020,6.525185,8.458498,0.856572
1005.621094,6.296548,5.570202,17.935546,13.298751
1005.625000,13.159888,11.594428,12.834505,10.782907
1005.628906,15.560983,9.435392,12.124935,14.013185
1005.632812,6.289973,14.619497,3.736606,11.279686
1005.636719,1.619118,2.628799,2.207144,4.722518
1005.640625,7.703651,14.814518,6.270268,4.989536
1005.644531,-2.650769,6.092786,4.495168,1.871538
1005.648438,10.526068,7.573581,-2.708212,2.698877
1005.652344,-0.683899,-2.941914,1.950439,-0.332661
1005.656250,-1.803184,-7.071484,-7.496703,2.355092
1005.660156,-4.793977,-2.964168,2.172913,-10.057619
1005.664062,-9.638798,-8.405163,-7.297261,-1.019133
1005.667969,-16.078733,-15.666207,-9.325770,-1.316914
1005.671875,-8.639905,-5.939294,-10.065485,-7.733415
1005.675781,-9.573395,-10.162971,-10.964948,-11.164072
1005.679688,-9.836945,-3.779174,-6.766290,-9.906933
1005.683594,-6.281907,-13.773787,-6.799428,-7.489209
1005.687500,1.385503,-7.124359,-3.043330,-13.449910
1005.691406,-2.860458,-0.879315,-3.732920,-13.903107
1005.695312,-3.943482,-9.630577,2.065150,-2.914682
1005.699219,3.408325,0.899495,-1.282609,2.582238
1005.703125,-2.686778,2.727778,0.562586,1.003191
1005.707031,-1.595852,1.592509,-3.314595,12.608179
1005.710938,3.867690,8.499730,8.496729,10.502592
1005.714844,6.881494,11.785373,9.330504,6.531554
1005.718750,4.665145,10.112479,3.594963,10.146015
1005.722656,14.118203,18.903035,3.250389,9.526793
1005.726562,4.945691,10.933481,9.607900,11.522237
1005.730469,7.225879,13.780697,9.382098,10.768918
1005.734375,13.644661,20.148349,12.506888,4.641234
1005.738281,2.401635,0.794276,3.189487,13.201922
1005.742188,-3.124944,4.916684,2.204819,2.555824
1005.746094,7.979953,1.350009,-0.636894,2.764081
1005.750000,1.096729,3.466691,-7.094081,-1.363565
1005.753906,-3.162949,-0.718987,6.984304,-10.711135
1005.757812,-5.364793,-3.338457,-8.612340,1.608290
1005.761719,-5.697296,-5.825482,-10.392793,-11.440922
1005.765625,-8.668882,-9.718654,-9.061408,-10.978833
1005.769531,-9.921577,-9.305863,-12.669928,-7.611747
1005.773438,-2.878200,-8.407384,-11.250378,-9.498420
1005.777344,-5.247100,-10.543195,-7.937185,-11.336667
1005.781250,-11.186233,-5.403779,-8.184811,-4.394773
1005.785156,-4.351833,-7.619493,-11.162203,-12.754139
1005.789062,-4.277323,-12.590071,-3.359936,-6.105941
1005.792969,0.560598,-2.230417,-8.367446,-6.517399
1005.796875,-0.634458,0.599386,-0.483763,-0.403861
1005.800781,-2.000313,0.258720,3.425110,-1.116839
1005.804688,6.638362,3.513916,1.510458,2.322078
1005.808594,4.210620,2.322826,10.326250,7.166960
1005.812500,1.414708,9.147524,2.888910,0.641823
1005.816406,0.680598,8.021572,5.654642,7.457320
1005.820312,7.005340,2.001468,-1.816758,13.517477
1005.824219,12.186678,10.751022,4.214562,10.834981
1005.828125,13.138835,14.585453,4.237179,10.949069
1005.832031,8.596332,12.180347,8.460382,9.360579
1005.835938,11.733356,4.549811,-3.313098,10.099394
1005.839844,1.904563,11.430447,5.865275,3.362678
1005.843750,1.093385,5.059922,13.393923,3.696513
1005.847656,5.553807,0.441781,3.542850,-5.669681
1005.851562,-3.464279,2.787188,-2.695110,-4.344253
1005.855469,4.007406,-3.591516,-0.380441,-6.782769
1005.859375,-7.561981,-4.610245,-2.677646,-10.943905
1005.863281,-10.244473,-11.997696,-10.169497,-4.195809
1005.867188,-13.448662,-17.639267,1.804198,-10.806795
1005.871094,-6.833436,-9.905326,-12.933927,-9.640064
1005.875000,-8.220236,-13.305145,-11.959093,-11.717024
1005.878906,-9.816867,-11.885421,-11.675225,-12.978259
1005.882812,-3.697325,-7.405861,-13.568949,-3.983461
1005.886719,-1.867481,-7.552347,-7.092303,-7.266230
1005.890625,-6.153618,-6.599634,-5.494014,-8.727573
1005.894531,-3.847328,-1.967369,-3.742370,0.472046
1005.898438,-6.790357,-5.090783,1.021748,-1.767497
1005.902344,-2.558952,6.151496,-0.000406,4.992328
1005.906250,5.135471,-0.501332,-3.038933,-1.202153
1005.910156,8.179356,4.025424,3.499472,-3.016824
1005.914062,4.458158,7.086828,11.676430,10.044377
1005.917969,4.710752,12.499260,6.266415,14.408882
1005.921875,11.181948,10.186537,12.585053,8.087706
1005.925781,4.857023,13.019451,15.791847,11.406856
1005.929688,8.203635,9.817533,9.430222,9.824297
1005.933594,7.152142,2.762668,6.219608,10.920762
1005.937500,10.493760,2.813493,4.020152,5.566217
1005.941406,7.747729,3.874523,5.636888,3.676397
1005.945312,1.787905,1.605921,6.261160,10.380946
1005.949219,-2.228394,9.168467,1.195533,-2.351862
1005.953125,0.774325,-2.635753,0.388519,-6.060487
1005.957031,-4.145593,1.269621,-6.094739,-7.552568
1005.960938,-5.176598,-7.377199,-1.802568,-7.400260
1005.964844,-5.886064,-4.316417,-6.577503,-6.233612
1005.968750,-12.565681,-8.274856,-11.929029,-5.853906
1005.972656,-1.343546,-13.071788,-7.753740,-5.908736
1005.976562,-8.102486,-4.447705,-11.560200,-8.918420
1005.980469,-8.576048,-10.265468,-9.009205,-11.063882
1005.984375,-8.113021,-3.282084,-1.503660,-14.371593
1005.988281,-2.869372,-5.667887,-12.827823,-4.174113
1005.992188,-7.573456,-10.136723,-9.390876,0.786103
1005.996094,2.764115,-2.773263,-3.380944,-6.776505
1006.000000,0.400663,0.718209,-4.343482,-2.885002
1006.003906,1.982885,6.402088,12.146156,1.284330
1006.007812,6.239849,-0.463184,6.873080,7.422125
1006.011719,1.597711,0.982789,2.814736,11.397005
1006.015625,5.685994,3.478346,-2.770361,9.610991
1006.019531,8.170686,14.292131,11.585759,9.402753
1006.023438,14.631515,10.523254,7.107534,7.951850
1006.027344,1.775388,4.409807,4.634509,7.156293
1006.031250,15.632763,10.366472,8.572625,13.868583
1006.035156,11.596959,2.724271,7.727376,4.045598
1006.039062,5.724300,0.850854,3.893986,1.680679
1006.042969,4.639163,-1.443428,9.967754,2.592974
1006.046875,0.193787,0.730329,0.796889,1.111606
1006.050781,0.456148,3.222306,6.559763,1.858519
1006.054688,-2.002136,-0.357426,-0.066189,-8.609320
1006.058594,1.565049,-5.684773,-8.831654,-7.471473
1006.062500,-10.136277,-8.504961,-0.255841,-6.062696
1006.066406,-5.642094,-15.782550,-18.643938,-6.608531
1006.070312,-9.456256,-12.263665,-2.165041,-7.039984
1006.074219,-9.848459,-1.948372,-7.195314,-12.107034
1006.078125,-5.639054,-13.092382,-13.164582,-11.619912
1006.082031,-15.771010,-11.637493,-9.080602,-9.912512
1006.085938,-8.213666,-2.633495,-6.553422,-4.875590
1006.089844,-3.553216,-2.616748,-5.867379,-11.368874
1006.093750,7.321815,-9.982712,-6.313800,-6.799924
1006.097656,-9.829711,1.942551,0.136737,-6.421228
1006.101562,0.530658,1.119930,5.476793,1.901122
1006.105469,3.836548,2.931633,2.587828,3.710244
1006.109375,1.508103,4.957559,1.007615,1.275283
1006.113281,-0.007177,4.190086,5.389289,6.800798
1006.117188,10.134054,10.341846,7.096458,9.504509
1006.121094,14.565298,11.344543,8.060745,4.773738
1006.125000,9.278537,18.026331,14.778425,10.187478
1006.128906,7.983190,7.563219,13.583140,9.168432
1006.132812,12.407603,9.175818,9.576862,10.163817
1006.136719,14.483068,11.214897,9.411128,5.090483
1006.140625,13.409141,1.782136,5.552447,5.169175
1006.144531,6.248760,2.604965,6.492539,6.997625
1006.148438,-1.320700,8.353087,0.504959,2.519681
1006.152344,4.673483,-3.441921,0.963701,0.781254
1006.156250,-1.011260,3.634578,2.610021,-3.504034
1006.160156,-12.109042,-1.650524,0.184148,3.352595
1006.164062,-5.861920,-9.596596,-10.654644,-9.819486
1006.167969,-6.450278,-12.549853,-8.732906,1.771970
1006.171875,-13.653564,-18.888646,-4.485364,-8.093155
1006.175781,-5.819616,-4.287159,-6.311777,-6.209944
1006.179688,-7.343565,-8.241206,-7.410713,-13.738071
1006.183594,-8.239142,-13.533279,-11.625797,-9.044409
1006.187500,-7.430794,-9.195814,-12.539750,-11.668896
1006.191406,-3.288057,-4.437154,-1.300549,0.902491
1006.195312,-7.864147,-1.949570,-0.725466,-4.232279
1006.199219,1.707271,1.408034,3.103325,1.667266
1006.203125,-3.075953,2.174855,3.629299,3.720140
1006.207031,8.429552,0.897181,2.721621,0.246454
1006.210938,6.827336,11.343803,2.939416,9.195676
1006.214844,14.031837,10.287863,13.365835,11.826359
1006.218750,13.375574,15.654398,4.995060,10.965562
1006.222656,13.039443,7.102663,1.539851,10.490935
1006.226562,15.252629,9.532033,7.567464,14.118284
1006.230469,8.891144,11.109779,7.327579,7.911973
1006.234375,10.112605,2.049669,3.931998,4.790009
1006.238281,1.283798,14.686230,6.121606,6.646293
1006.242188,10.113280,7.883896,3.254799,3.514314
1006.246094,0.692189,0.857758,-1.225623,1.704241
1006.250000,0.903027,0.039496,-4.034411,8.052858
1006.253906,-5.441512,-8.685580,-15.822648,-0.021914
1006.257812,-7.525989,-7.182205,-2.251970,-2.664863
1006.261719,-6.556312,-6.850211,-8.569581,-7.121558
1006.265625,-4.803777,-1.958552,-18.939549,-8.884654
1006.269531,-10.214215,-13.719847,-2.943879,-4.012718
1006.273438,-9.167882,-14.897099,-9.319623,-15.297295
1006.277344,-17.456775,-10.748875,-16.005527,-8.311557
1006.281250,-4.858263,-8.197110,-8.538547,-11.710495
1006.285156,-9.475595,-21.066802,-7.979821,-13.027767
1006.289062,-3.641448,-1.708252,2.048191,-0.217377
1006.292969,-5.704218,-3.220393,-8.235451,-6.610471
1006.296875,4.984516,-1.581184,-2.527755,-3.645606
1006.300781,-5.507266,0.421174,-2.614458,-2.555166
1006.304688,4.609139,4.693661,10.274763,1.372409
1006.308594,1.143920,5.003514,6.336386,8.564757
1006.312500,4.156058,5.921953,10.580729,8.874790
1006.316406,16.234973,13.086954,10.873142,14.708996
1006.320312,5.889176,10.451221,1.137802,5.746417
1006.324219,16.570969,3.870834,9.301045,16.175869
1006.328125,12.040231,10.769853,11.441263,4.270748
1006.332031,9.841404,16.866748,3.001520,-1.314464
1006.335938,11.036651,10.364420,7.488256,1.909355
1006.339844,5.708923,8.888167,-1.997656,4.624517
1006.343750,2.872975,5.337836,3.677422,4.009429
1006.347656,7.384752,3.197419,4.703197,-3.279374
1006.351562,0.128084,3.267255,-1.134103,-0.223819
1006.355469,-4.988978,-5.641847,-4.451831,-2.422659
1006.359375,-4.639988,-4.968691,-1.218169,-0.369657
1006.363281,-8.590974,-6.834269,-8.566398,-14.075405
1006.367188,-6.149142,1.936468,-7.639927,-4.768346
1006.371094,-12.604184,-17.440259,-18.792765,-4.055321
1006.375000,-9.853347,-9.603524,-10.946825,-10.179865
1006.378906,-10.523374,-7.142129,-8.449906,-7.243663
1006.382812,-1.606195,-6.163792,-13.906121,-14.372229
1006.386719,-6.834252,-5.339208,-4.746127,-0.340739
1006.390625,-10.664424,-0.729393,-0.650445,-8.736409
1006.394531,-7.301834,0.471791,-6.392330,-0.863594
1006.398438,-1.601169,-6.724284,-0.968806,2.652289
1006.402344,4.733513,-3.128274,0.500966,1.298706
1006.406250,2.758215,7.550148,4.404668,4.230780
1006.410156,2.984785,3.685664,-1.915986,7.975973
1006.414062,6.287251,4.592078,7.157266,10.033171
1006.417969,11.880464,9.458550,10.143386,14.266218
1006.421875,3.593519,11.208729,10.202678,8.860444
1006.425781,9.306295,8.561339,2.276058,9.733365
1006.429688,17.222759,7.107125,8.831514,15.195748
1006.433594,6.138325,16.752051,5.836540,4.117457
1006.437500,12.777673,5.431250,4.024101,9.172830
1006.441406,4.628143,4.501374,2.523362,9.365731
1006.445312,5.236606,1.062378,3.594728,12.808397
1006.449219,5.016994,2.125908,0.470450,-2.008334
1006.453125,-2.527361,-7.962468,-0.205567,-1.812372
1006.457031,3.275564,-2.887402,-2.327536,-0.949603
1006.460938,-2.613514,-5.107408,-3.148982,-10.543031
1006.464844,-6.685483,-10.511993,-7.782983,-6.631995
1006.468750,-10.011491,0.928829,-1.079432,-7.020885
1006.472656,-8.965169,-2.700760,-2.971039,-7.664321
1006.476562,-5.142976,-11.000736,-10.089342,-13.718288
1006.480469,-11.741228,-13.475281,-15.302715,-11.049322
1006.484375,-9.235505,-5.320521,-5.038984,-3.386592
1006.488281,-5.812212,-8.516763,-2.960100,-8.091389
1006.492188,-4.333003,-8.712619,-5.289169,-0.151134
1006.496094,2.524264,-8.024744,-9.244563,-0.642806
1006.500000,2.502896,-2.630638,2.903048,-6.008942
1006.503906,0.702597,3.156131,-2.901502,6.692548
1006.507812,1.882841,3.327167,3.642489,14.052307
1006.511719,3.510061,1.204839,6.324167,8.551179
1006.515625,10.877729,12.414371,9.187504,8.556955
1006.519531,3.513152,11.172940,9.329077,8.825178
1006.523438,8.666135,9.592411,9.454207,12.068374
1006.527344,15.694235,12.395274,10.702702,22.221121
1006.531250,13.320682,0.926108,11.402600,4.852806
1006.535156,9.148800,7.383257,4.855022,6.835445
1006.539062,13.283446,7.934854,1.807625,4.192144
1006.542969,2.419750,7.132226,10.724495,2.574799
1006.546875,-4.736146,-0.553218,4.139186,5.238812
1006.550781,0.789405,-2.604941,1.484413,6.170833
1006.554688,-8.915664,0.044340,-5.984922,-2.041359
1006.558594,-3.290625,-9.597776,-3.880763,-11.286290
1006.562500,-1.110704,-4.505959,-11.210101,-9.644019
1006.566406,-15.793229,-11.821782,-8.987777,-11.362789
1006.570312,-19.054235,-6.496707,-9.277287,-4.631920
1006.574219,-11.867263,-8.262368,-14.055195,-11.735654
1006.578125,-12.962987,-12.547398,-8.136620,-7.910633
1006.582031,-1.018630,-9.387222,-5.155859,1.396774
1006.585938,-2.302629,-8.789280,-2.358976,-7.026055
1006.589844,-12.729514,-6.818691,-5.787211,-9.369692
1006.593750,-3.716112,-2.945907,-1.221943,-1.281616
1006.597656,2.976478,-6.298156,-0.073980,-0.796654
1006.601562,-3.275615,2.227189,6.679220,6.378637
1006.605469,7.533563,9.009871,3.181991,-1.505283
1006.609375,4.531184,10.752143,7.170882,6.993305
1006.613281,-3.356355,8.603989,4.024431,4.292176
1006.617188,7.272324,3.999842,5.292404,9.094951
1006.621094,17.289612,10.932405,8.295160,6.263258
1006.625000,10.097554,12.963739,9.438365,12.373474
1006.628906,19.505207,16.963703,15.617379,6.644385
1006.632812,8.669562,6.780200,16.529926,4.559034
1006.636719,7.727127,12.562587,8.865691,6.562822
1006.640625,5.699445,6.659597,-1.903911,5.797605
1006.644531,5.082141,0.536075,7.717460,7.550661
1006.648438,0.515170,3.307405,2.030326,1.157640
1006.652344,-8.064882,0.957992,-4.187414,-3.689279
1006.656250,5.510708,-0.606265,-6.964238,-1.812080
1006.660156,-9.460960,-14.148490,-9.905272,-11.040820
1006.664062,-8.073977,-7.727666,-11.387214,-6.444617
1006.667969,-3.577006,-6.481322,-16.220673,-3.558762
1006.671875,-9.590221,-14.997611,-5.608025,-8.055977
1006.675781,-4.013076,-12.643065,-7.985681,-13.007437
1006.679688,-15.028624,-8.300852,-10.436626,-10.275767
1006.683594,-10.747120,-7.404970,-5.249365,-4.452056
1006.687500,-10.087255,-8.989155,-13.719118,-11.421593
1006.691406,-3.660000,1.084165,-9.226505,-0.589216
1006.695312,-3.585371,-4.569974,-1.589918,1.425005
1006.699219,4.910788,0.000695,-1.419024,-3.298877
1006.703125,-3.045860,5.951084,-1.360428,5.333345
1006.707031,12.828507,12.008431,-1.163308,-6.310492
1006.710938,-4.048976,5.676945,3.856576,5.042732
1006.714844,9.176494,8.116987,10.237717,9.175626
1006.718750,11.863890,8.323642,11.854150,11.481438
1006.722656,8.064623,11.392141,9.350696,8.996488
1006.726562,10.125769,10.850319,5.693229,8.809244
1006.730469,11.871550,9.763546,13.189767,11.177787
1006.734375,10.182997,5.641319,5.040660,6.270812
1006.738281,9.979326,5.241482,5.675635,1.626212
1006.742188,1.087823,9.813631,0.777358,4.474319
1006.746094,-1.388506,5.951745,0.765724,-1.543170
1006.750000,5.373152,-0.013274,1.962343,-0.789373
1006.753906,-4.800237,-7.524491,1.018221,-0.370649
1006.757812,-1.094422,0.037132,0.946933,-1.205199
1006.761719,-9.918549,-3.720791,-7.186759,-1.151951
1006.765625,-6.300598,-14.129555,-11.418772,-10.430188
1006.769531,-7.871392,-8.969211,-14.241384,-18.719719
1006.773438,-2.773827,-15.671239,-8.579340,-6.685156
1006.777344,-9.646513,-9.852993,-11.936898,-16.034668
1006.781250,-11.205109,-1.754854,-8.422112,-11.383531
1006.785156,-6.047047,-4.968096,-4.936867,-9.942891
1006.789062,-7.242012,-4.182640,-14.226932,-12.570668
1006.792969,-7.168777,-4.358471,-3.865140,-3.454467
1006.796875,-8.329350,2.134243,0.012558,-2.871578
1006.800781,-5.055720,-1.217542,-0.472630,-3.361410
1006.804688,5.704759,6.479489,9.484487,2.238917
1006.808594,5.591313,10.684056,0.039146,2.287736
1006.812500,10.339988,4.159136,5.094604,5.827266
1006.816406,11.054859,12.496542,19.973833,8.731591
1006.820312,13.922724,13.287575,7.284162,2.147686
1006.824219,9.608532,10.435823,6.058390,13.032982
1006.828125,7.601892,13.525270,12.158840,10.306028
1006.832031,2.504937,15.741554,6.788932,6.578295
1006.835938,7.432106,9.183844,9.911576,4.257176
1006.839844,7.851523,0.974718,8.156478,8.923952
1006.843750,5.005176,6.326708,10.387652,4.363775
1006.847656,1.341779,-0.923508,0.426887,1.674742
1006.851562,4.839941,-3.740562,-5.034313,-8.909630
1006.855469,-1.741360,-2.354872,-12.681104,1.959379
1006.859375,-7.103822,-7.326845,-6.115514,-11.390230
1006.863281,-11.391263,0.669952,-5.133066,-2.576871
1006.867188,-3.781546,-16.182351,-4.703147,-7.969650
1006.871094,-5.524934,-7.934942,-6.346614,-11.863626
1006.875000,-0.952695,-6.460919,-11.698379,-11.167565
1006.878906,-5.916255,-15.476181,-14.711930,-12.741818
1006.882812,-13.740681,-5.804247,-6.053544,-11.528388
1006.886719,-4.506456,-5.547061,-6.312932,-6.869312
1006.890625,-2.282564,-0.208371,-6.299405,-8.655572
1006.894531,-3.025777,-3.627975,-7.821916,-7.420075
1006.898438,6.627739,-2.072075,0.230317,-0.205722
1006.902344,1.523722,-0.648172,3.315973,-2.784560
1006.906250,-0.114501,4.024881,3.107153,0.386257
1006.910156,6.807065,4.317089,-0.126099,1.812389
1006.914062,6.596959,11.655954,13.481827,6.111191
1006.917969,7.800885,12.156356,7.885471,2.578148
1006.921875,4.852533,14.175533,10.483680,4.144517
1006.925781,6.477606,6.376018,3.297311,11.369571
1006.929688,10.490796,3.375658,6.064780,6.450042
1006.933594,6.309622,10.951302,8.207691,7.794891
1006.937500,6.590429,6.295619,10.223062,13.224829
1006.941406,13.095890,5.369871,5.124519,5.608428
1006.945312,3.044602,3.375611,8.791996,5.881252
1006.949219,2.789568,2.745521,0.655723,-2.030254
1006.953125,-0.337607,2.032981,-0.365172,-0.711296
1006.957031,-3.131054,0.553431,-5.417718,-3.627926
1006.960938,-2.624541,-16.425397,-7.494752,-12.438495
1006.964844,-8.043774,-16.031748,-3.337324,-6.174372
1006.968750,-10.603049,-8.660288,-7.500168,-13.887842
1006.972656,-7.637985,-13.960062,-5.802288,-8.271791
1006.976562,-6.288807,-12.413593,-7.261989,-3.689328
1006.980469,-14.984726,-10.020654,-1.937338,-0.803866
1006.984375,-4.935111,-4.713692,-11.842044,-6.776162
1006.988281,-6.659951,-5.428845,-5.729542,-5.946327
1006.992188,-4.680300,-5.576419,-0.437176,-4.431050
1006.996094,-3.857599,3.100568,-2.360168,-1.434659
1007.000000,-0.537348,-1.979069,-8.363900,4.880566
1007.003906,-5.050834,3.756836,0.750229,-0.872924
1007.007812,0.654077,7.493903,-1.454984,3.728161
1007.011719,5.088346,8.870428,9.408363,5.605533
1007.015625,9.488307,3.488058,10.490902,11.447217
1007.019531,12.351983,22.752285,12.164470,12.423910
1007.023438,17.453244,5.445311,13.513135,12.605660
1007.027344,13.700705,14.413097,9.169365,10.639339
1007.031250,10.288682,14.114272,6.872677,3.171340
1007.035156,-0.212364,-2.389282,6.492494,4.543676
1007.039062,7.689212,5.220866,2.510998,4.875309
1007.042969,7.068603,6.994432,6.875873,7.333255
1007.046875,5.243548,3.460541,1.661278,2.130922
1007.050781,-1.521503,1.860425,-0.335518,-2.188421
1007.054688,-5.083202,1.610004,1.994655,-3.932395
1007.058594,-2.997974,-5.480533,-3.002716,-10.757522
1007.062500,-12.184569,-14.796967,-19.255235,-3.005703
1007.066406,-9.946155,-12.672258,-5.162130,-9.323556
1007.070312,-11.667123,-9.091104,-9.068740,-12.448021
1007.074219,-8.528144,-16.463688,-5.051804,-7.679039
1007.078125,-8.945642,-15.339287,-13.557091,-12.985416
1007.082031,-7.071868,-9.501338,-12.064185,-3.108814
1007.085938,-6.298462,-13.684296,-8.671862,-7.733392
1007.089844,-7.347047,-6.556248,-10.357179,-17.673762
1007.093750,-2.130057,-7.767423,0.367600,-5.038514
1007.097656,1.138354,-2.953074,-1.246939,-1.722310
1007.101562,-2.988775,6.290321,3.392211,2.673473
1007.105469,5.039145,2.735742,5.620316,1.829112
1007.109375,11.598015,5.674416,5.333981,3.876865
1007.113281,8.277685,9.546655,2.481050,2.921688
1007.117188,9.948026,8.328073,1.984777,8.522071
1007.121094,11.474184,6.688538,13.011594,3.693815
1007.125000,6.732413,10.262287,4.911678,16.102859
1007.128906,1.162685,13.318783,3.551574,12.955871
1007.132812,13.416488,8.302163,6.556803,11.311500
1007.136719,9.959720,1.452337,8.237187,1.430260
1007.140625,7.811176,5.075823,10.079826,7.775798
1007.144531,5.893754,2.338298,4.220887,1.830996
1007.148438,0.831940,-5.389881,-1.718394,7.528804
1007.152344,-1.433590,-2.592768,-2.381029,1.845268
1007.156250,-2.298798,-5.694056,-9.454259,-2.117466
1007.160156,-7.364649,-6.676791,-2.377188,-5.191408
1007.164062,-10.775683,-10.750798,-7.931290,-9.612217
1007.167969,-9.160891,-3.815730,-3.108037,-4.661818
1007.171875,-12.311693,-12.033115,-7.578183,-7.291569
1007.175781,-4.021729,-14.816786,-9.001182,-13.867166
1007.179688,-13.979840,-6.529514,-7.111713,-8.796124
1007.183594,-9.673815,-12.350712,-13.471022,-7.747007
1007.187500,-5.298502,-7.328084,-7.400629,-4.618649
1007.191406,-5.769144,-7.932046,-6.651821,-1.865378
1007.195312,-4.896207,1.869358,7.778079,0.285030
1007.199219,1.100067,1.612991,1.556777,-4.099553
1007.203125,5.933155,2.410601,2.709009,0.168474
1007.207031,5.210029,1.502037,13.866199,0.408079
1007.210938,5.641412,2.008285,16.307114,9.162976
1007.214844,7.421942,12.840660,12.780245,11.432763
1007.218750,8.864083,15.920961,11.396737,10.561242
1007.222656,10.542050,11.163544,8.584153,13.191750
1007.226562,3.790414,0.474999,10.496496,4.826360
1007.230469,8.020192,11.563883,5.504785,15.456467
1007.234375,1.985904,-2.558264,3.811953,9.576421
1007.238281,10.558504,11.214638,2.380582,4.695277
1007.242188,-2.035553,1.794594,8.672629,2.922511
1007.246094,-5.315343,0.067154,3.266017,6.272835
1007.250000,8.911135,-5.236600,4.264171,3.478509
1007.253906,-4.532709,-3.193949,-1.973380,-3.373188
1007.257812,-0.572869,-6.371600,-2.647192,1.609534
1007.261719,0.898773,-9.041719,-5.012356,-3.788167
1007.265625,-9.620697,-4.448531,-4.236783,-6.942925
1007.269531,-12.846121,-9.991899,-1.520957,-7.845320
1007.273438,-8.268713,-1.644756,-8.389341,-7.990011
1007.277344,-10.400864,-17.219132,-12.505988,-12.671517
1007.281250,-14.869980,-6.485267,-4.608967,-10.080163
1007.285156,-16.879535,-10.516152,-13.757511,-5.739286
1007.289062,-3.428626,-3.414121,-0.281491,-10.468788
1007.292969,-1.419624,-1.979812,-9.523879,-11.416238
1007.296875,-0.935059,1.801213,0.536386,-1.285777
1007.300781,2.965007,1.463311,-3.556499,-0.810782
1007.304688,1.552052,9.752916,1.825906,5.508904
1007.308594,13.115011,5.627138,-7.123961,3.614533
1007.312500,-0.787088,4.455327,10.850648,5.549873
1007.316406,14.072006,18.504304,6.069407,7.343754
1007.320312,17.056184,15.616354,7.012599,11.337903
1007.324219,10.648447,6.693637,9.690396,12.785789
1007.328125,8.890232,12.776604,10.921452,10.214831
1007.332031,1.033634,15.506366,15.272074,1.783273
1007.335938,0.701110,4.384783,-0.901732,-3.522086
1007.339844,6.525711,4.834987,8.232591,3.723566
1007.343750,9.684457,-0.409295,-0.187925,-3.097194
1007.347656,3.472562,-4.981498,5.101104,-1.834108
1007.351562,-2.217294,-5.193178,2.386408,1.509349
1007.355469,-6.646149,-11.587954,-5.474349,-2.045253
1007.359375,-9.702294,-6.566319,-3.842293,-9.030559
1007.363281,-10.040933,-12.502875,-1.285821,-11.557971
1007.367188,-5.608470,-10.019788,-5.433442,-15.645871
1007.371094,-4.451965,-3.002967,-10.517376,-11.923334
1007.375000,-10.384811,-13.479056,-4.871374,-8.519848
1007.378906,-10.423941,-10.202665,-11.255933,-5.615343
1007.382812,-18.138416,-15.499167,-6.247972,-7.105127
1007.386719,-3.706982,-12.322271,-6.764235,-11.364002
1007.390625,-3.747562,-2.992998,-8.215724,-0.146166
1007.394531,-1.612023,-4.865641,0.318554,-3.387806
1007.398438,-2.655049,-2.566911,-3.828626,4.000848
1007.402344,-3.552504,-3.271044,4.061420,3.825867
1007.406250,5.434245,6.633761,4.741505,8.194184
1007.410156,3.105406,11.248052,7.032539,9.244095
1007.414062,6.478192,0.706183,4.461170,14.936217
1007.417969,14.582284,12.784704,9.494806,17.436957
1007.421875,13.212943,8.071712,0.246611,4.727807
1007.425781,12.203641,8.693529,5.562073,7.963500
1007.429688,9.263523,12.439066,14.511807,14.943380
1007.433594,5.264191,14.093088,-3.322668,7.319501
1007.437500,7.723885,7.562563,15.000581,9.158978
1007.441406,5.547753,2.815910,-0.448800,8.358171
1007.445312,8.982197,4.226351,3.455213,-2.052972
1007.449219,2.249621,0.099941,4.747204,-1.041249
1007.453125,0.508410,-2.083682,-2.060261,-5.398091
1007.457031,-8.894616,-7.123093,-3.276637,-3.056123
1007.460938,-7.922170,-8.358491,-15.818411,-4.014006
1007.464844,-10.096702,-11.474830,-10.126305,-4.758166
1007.468750,-8.286760,-4.403541,-13.512892,-11.796084
1007.472656,-12.565144,-9.827056,-12.872238,-7.299309
1007.476562,-12.794129,-14.258637,-9.293243,-11.042634
1007.480469,-4.993585,-12.113981,-13.176574,-17.483922
1007.484375,-6.568180,-4.507318,-1.486652,-8.101304
1007.488281,-8.173355,-4.687940,-5.805750,-11.023590
1007.492188,-3.788083,-0.946607,-6.593059,-5.071963
1007.496094,-0.975065,2.733486,-6.183441,3.135559
1007.500000,-5.242050,9.234603,0.345929,-3.030105
1007.503906,1.867548,1.331241,7.724232,4.512183
1007.507812,4.509827,-2.622380,8.944273,6.342186
1007.511719,5.184652,5.660296,13.999032,8.421734
1007.515625,1.660728,12.706462,10.887085,7.061251
1007.519531,8.967733,10.356976,14.605825,7.096853
1007.523438,2.091986,10.680030,14.064803,2.187605
1007.527344,11.212870,7.233159,9.475175,11.178910
1007.531250,0.548732,12.336263,5.990949,3.879489
1007.535156,10.781441,13.223658,11.692834,7.445463
1007.539062,10.000861,7.899572,5.330175,7.133885
1007.542969,1.006577,-4.107252,4.397346,2.984553
1007.546875,7.316220,3.149088,5.453775,-3.463564
1007.550781,-1.002570,-4.824617,0.098348,-2.425047
1007.554688,-5.600486,1.157831,4.769571,5.013996
1007.558594,-2.143016,-0.183142,-4.035630,-4.070496
1007.562500,-8.291819,-7.404907,-13.450501,-3.077185
1007.566406,-9.216819,-17.207433,-4.530361,-3.121696
1007.570312,-7.984887,-17.315643,-5.920973,-11.326013
1007.574219,-12.389746,-9.943993,-14.120258,-7.759878
1007.578125,-3.683708,-2.343111,-5.171893,-3.886855
1007.582031,-3.161537,-0.966617,-11.563468,-13.951863
1007.585938,-5.565184,-8.829683,3.422125,-4.202806
1007.589844,-14.130504,2.767179,-7.592348,-9.446463
1007.593750,0.664494,-5.438272,0.689535,1.203861
1007.597656,-6.611104,-7.911662,4.179726,-7.297005
1007.601562,-0.500431,-0.350875,3.933428,-5.101186
1007.605469,-1.398683,1.353894,6.492363,8.154873
1007.609375,10.487320,4.470739,0.614920,8.196773
1007.613281,4.269403,5.133338,5.003339,12.706988
1007.617188,14.546685,4.871605,6.248644,17.765267
1007.621094,15.084301,5.986184,7.638637,10.157429
1007.625000,7.395049,9.457389,14.813109,7.829316
1007.628906,11.825953,13.378155,6.090641,11.075049
1007.632812,9.239418,-1.049631,7.055876,14.555386
1007.636719,9.816644,13.259477,8.903124,11.434815
1007.640625,2.516488,2.804451,11.871569,-2.418504
1007.644531,-1.826847,3.211590,4.818946,7.155087
1007.648438,6.503881,2.092092,1.624117,2.632763
1007.652344,-1.857846,-2.126964,0.067121,-1.289423
1007.656250,-7.634925,-2.379072,0.051829,-9.601110
1007.660156,-6.703348,-8.100147,-6.487649,-9.056242
1007.664062,-7.598607,-10.321992,-5.698330,-6.913488
1007.667969,-7.085380,-13.045170,-7.489448,-5.659659
1007.671875,-9.550977,-9.894601,-8.306294,-11.284201
1007.675781,-11.500921,-4.347381,-12.757150,-14.159443
1007.679688,-12.178348,-9.087380,-20.120320,-10.267260
1007.683594,-2.813486,-4.942695,-10.824072,-4.965055
1007.687500,-1.761042,-4.717093,-10.086476,-17.328013
1007.691406,-12.455731,3.160762,-0.516434,-10.664316
1007.695312,-9.649959,-0.170192,-1.827572,-4.867779
1007.699219,-1.713016,-2.846995,2.250333,3.051861
1007.703125,10.211514,-3.226209,1.477874,-2.905890
1007.707031,9.159057,5.338737,4.368583,-0.208767
1007.710938,6.086745,5.230691,13.343246,5.389589
1007.714844,0.969102,9.423448,6.530123,6.787197
1007.718750,12.313383,11.283782,10.325570,15.953029
1007.722656,8.687585,11.102045,8.277441,7.748288
1007.726562,9.375244,15.679754,8.006870,7.355133
1007.730469,8.174674,17.622072,10.003344,6.303752
1007.734375,4.581235,12.151919,11.858635,7.805470
1007.738281,0.934858,3.573547,2.767913,6.085323
1007.742188,13.249341,11.501978,5.130453,1.495795
1007.746094,1.272984,7.296514,11.394041,9.312237
1007.750000,1.493066,-1.490824,5.733189,-0.981277
1007.753906,-2.496420,-8.398256,0.975103,-4.329002
1007.757812,-7.915167,-5.993268,-11.321981,-4.206668
1007.761719,4.539157,-9.438809,-5.506229,-9.967203
1007.765625,-8.084993,-8.833015,-15.084215,-7.335802
1007.769531,-10.722736,-3.109256,-2.976100,-13.254189
1007.773438,-9.259498,-8.678959,-10.724889,-16.872679
1007.777344,-15.342069,-3.703799,-15.283961,-13.765780
1007.781250,-4.854878,-12.249182,-4.507621,-13.660004
1007.785156,-8.222876,-4.203919,-8.576256,-9.625309
1007.789062,-6.129646,-13.336385,-0.894275,-7.347411
1007.792969,-12.402382,-4.324489,1.081872,-0.923532
1007.796875,0.039962,-0.505516,-4.309091,-5.689107
1007.800781,-0.598244,-0.597458,-2.611195,-5.612178
1007.804688,-4.615209,1.005643,-1.425628,5.321865
1007.808594,4.742932,10.650265,0.995660,9.656135
1007.812500,8.773788,5.537631,13.030882,6.748266
1007.816406,9.270437,14.992983,10.993746,10.549952
1007.820312,9.456901,9.830444,8.994673,5.917159
1007.824219,10.154231,5.247274,12.583707,14.453803
1007.828125,8.728053,16.216749,9.293187,2.956516
1007.832031,11.305904,10.818713,14.784693,6.851061
1007.835938,10.704312,10.317711,6.358251,8.999950
1007.839844,11.205287,16.289768,6.142931,1.245248
1007.843750,4.128778,8.287446,-0.551612,-6.685704
1007.847656,1.670458,-6.558194,-3.601954,8.674382
1007.851562,-1.388428,-4.655967,5.258687,-0.683827
1007.855469,-5.931538,-10.045443,-9.263104,-9.916486
1007.859375,1.393549,1.977947,0.377083,-12.175180
1007.863281,-6.506648,-3.662930,-3.708412,-5.384923
1007.867188,-3.661985,-13.370480,-8.351280,-5.234605
1007.871094,-7.609493,-11.321889,-8.000140,-10.914885
1007.875000,-2.664354,-11.268564,-8.504224,-10.764129
1007.878906,-12.869406,-8.214858,-13.196415,-8.323070
1007.882812,-3.992400,0.357945,-15.934456,-13.253178
1007.886719,-7.818649,-11.493045,-6.720419,-5.809259
1007.890625,-7.999426,-3.980546,-9.971118,0.317076
1007.894531,-10.241817,-0.239280,-2.442474,-1.017640
1007.898438,-9.252447,9.116030,4.048556,6.445007
1007.902344,0.474965,6.979590,0.840460,0.501351
1007.906250,-0.003917,1.885220,4.112263,10.058524
1007.910156,3.077314,-0.675240,-2.047119,7.377904
1007.914062,9.554432,11.716061,14.042457,10.720909
1007.917969,9.439451,12.145525,9.534946,7.544981
1007.921875,8.456159,10.080056,9.809979,6.267177
1007.925781,8.771056,10.918184,10.354685,13.099873
1007.929688,4.251000,12.020795,8.594038,14.368225
1007.933594,6.095805,5.072219,9.207232,12.878158
1007.937500,8.088125,6.476181,10.305726,8.329799
1007.941406,10.618398,1.727030,3.174746,5.179869
1007.945312,5.747377,0.887791,5.793242,2.678561
1007.949219,-1.643825,5.681513,0.140543,1.672398
1007.953125,2.019224,-4.026609,-3.063230,1.835632
1007.957031,-4.760108,-1.408500,-9.610185,-3.075707
1007.960938,-6.500886,-9.361131,-4.717879,-5.014979
1007.964844,-11.155537,-6.207297,-4.002959,-13.417069
1007.968750,-8.496797,-8.841189,-8.623523,-12.851181
1007.972656,-16.681849,-16.733172,-15.706486,-15.883437
1007.976562,-12.087484,-6.412661,-12.923873,-17.114017
1007.980469,-5.524411,-10.400372,-4.013337,-3.679179
1007.984375,-13.595038,-3.900013,-7.543259,-3.385731
1007.988281,-10.712027,-6.390895,-7.020215,-8.507499
1007.992188,-7.138358,-8.396089,-4.997273,0.041227
1007.996094,-1.984538,-0.101245,-10.528206,-0.527664
1008.000000,2.861252,1.789857,2.127228,1.737420
1008.003906,3.661313,-0.534740,0.270328,5.641475
1008.007812,8.589781,6.576197,4.850827,1.540419
1008.011719,4.142171,9.537041,8.214554,12.620854
1008.015625,10.403391,2.008622,11.281581,3.842984
1008.019531,5.255890,4.694575,14.051160,8.816952
1008.023438,7.163657,7.636669,1.402321,17.947010
1008.027344,12.083833,11.148315,7.141014,6.200919
1008.031250,9.398243,17.649375,9.151658,3.775479
1008.035156,12.938175,7.144192,3.517232,2.814181
1008.039062,10.609158,10.170825,10.117651,4.196372
1008.042969,6.936836,-0.986636,3.044143,4.663340
1008.046875,1.643533,-8.781395,9.930899,8.752961
1008.050781,-3.081631,2.977014,-8.848013,-1.031019
1008.054688,-4.294260,1.734082,-2.832324,-5.105485
1008.058594,-1.047915,-7.713389,-1.448862,5.547087
1008.062500,-2.401037,-2.818626,-8.645208,-10.784996
1008.066406,-7.957698,-7.900043,-0.099140,-7.955686
1008.070312,-13.546164,-9.033987,-6.646694,-9.876335
1008.074219,-5.186263,-10.150875,-12.206471,-8.790397
1008.078125,-3.869302,-0.329744,-11.024525,-6.873134
1008.082031,-9.811869,-5.013677,-17.115842,-6.150238
1008.085938,2.378251,-9.547751,-2.063014,-11.205172
1008.089844,-11.198919,-11.706473,-3.948504,-6.743967
1008.093750,-9.501427,-0.481550,4.047425,-0.121946
1008.097656,2.218971,-1.798923,0.614096,-0.543004
1008.101562,-1.901709,7.447542,0.780511,4.321302
1008.105469,2.764972,9.359926,1.104548,7.690423
1008.109375,-0.544460,-2.129248,6.256725,5.520980
1008.113281,10.437447,4.136504,18.137805,12.817816
1008.117188,8.958655,11.954564,12.540933,5.401214
1008.121094,3.934254,7.871226,12.551490,11.175402
1008.125000,7.808743,7.309031,7.189584,8.380488
1008.128906,2.688280,7.645285,15.163009,6.791128
1008.132812,3.448643,10.065906,9.296354,6.072356
1008.136719,14.783397,10.147974,11.567805,7.843701
1008.140625,7.511036,10.382339,10.570274,12.606093
1008.144531,3.020213,-0.018105,1.545900,4.560073
1008.148438,0.784684,-8.825503,-5.640938,1.048860
1008.152344,1.888257,0.204922,-0.554860,-7.652860
1008.156250,-8.012064,-3.581569,-1.406905,-6.163271
1008.160156,-6.014619,-3.125795,-5.817146,-11.297338
1008.164062,-2.996058,-3.518357,-10.456646,-12.829782
1008.167969,-8.793254,-3.671229,-7.702130,-12.730851
1008.171875,-9.318979,-4.121560,-15.373678,-9.032598
1008.175781,-11.486955,-17.046178,-6.920045,-5.822194
1008.179688,-13.015790,-8.061419,-5.928021,-3.234731
1008.183594,-9.466601,-1.552713,-8.131258,-10.624414
1008.187500,-1.782436,-11.236580,-2.443504,-11.920130
1008.191406,-3.626349,-12.009660,-3.517315,-3.396695
1008.195312,1.188620,1.792233,-5.539185,-4.763656
1008.199219,-0.695559,-2.767606,-2.421020,-0.439133
1008.203125,5.035985,8.500921,8.308174,-3.936789
1008.207031,8.056823,6.199335,10.278497,-3.316363
1008.210938,-1.639438,8.217431,6.558988,-0.652353
1008.214844,6.688536,11.052143,2.157523,12.091287
1008.218750,13.604737,5.728468,7.090753,12.701731
1008.222656,14.196043,14.619771,12.833001,7.158391
1008.226562,9.535914,10.173670,18.667140,12.144857
1008.230469,6.023959,0.616202,12.157991,17.091861
1008.234375,2.708228,10.795014,3.131153,14.035063
1008.238281,5.463557,6.961474,7.145954,7.024480
1008.242188,-1.022139,12.040360,0.422934,1.020823
1008.246094,4.407674,-4.369471,-2.455597,9.683607
1008.250000,-0.814926,0.583788,5.416200,-0.361986
1008.253906,-0.028890,-6.615435,-2.967302,-1.816456
1008.257812,-1.874437,0.542806,-4.506699,-7.899122
1008.261719,-17.354247,-11.322831,-6.084092,-3.610875
1008.265625,-10.787056,-6.682406,-4.627002,-3.955111
1008.269531,-5.885846,-12.359320,-7.482029,-8.732563
1008.273438,-4.411868,-7.737133,-11.406353,-12.283990
1008.277344,-9.292741,-11.094038,-13.921325,-6.906291
1008.281250,-10.551465,-13.230615,-14.660537,-12.032108
1008.285156,-10.946446,-11.578638,-4.266667,-13.804403
1008.289062,-5.628144,-9.183660,1.882467,-4.176614
1008.292969,-2.204353,-1.182636,4.519890,-5.333552
1008.296875,-2.311025,-1.344628,7.934559,-0.550561
1008.300781,-0.779655,-3.341495,5.433110,0.357801
1008.304688,7.526482,0.879837,2.206447,10.785289
1008.308594,7.670428,4.244540,7.111884,7.961971
1008.312500,5.596011,14.953030,6.738622,5.563518
1008.316406,15.709014,12.440300,11.558699,9.684045
1008.320312,8.936863,9.093947,12.668978,13.700475
1008.324219,11.862944,8.348683,15.030390,14.934301
1008.328125,15.610814,7.747830,6.023762,2.162184
1008.332031,6.830022,12.949536,7.373308,12.229105
1008.335938,15.021396,8.868329,-1.820172,11.634427
1008.339844,7.366128,2.620963,5.663090,3.701068
1008.343750,7.302089,6.167376,7.967411,6.182527
1008.347656,1.538585,-0.890781,5.000120,-1.082772
1008.351562,-1.782252,7.725478,-4.482948,4.470464
1008.355469,-3.612242,5.979794,-2.119552,-5.098921
1008.359375,-11.528413,-4.190048,-7.698023,-4.617300
1008.363281,-8.166635,-3.596831,-3.267708,-10.440968
1008.367188,-15.331027,-8.705244,-10.499979,-7.888075
1008.371094,-8.331346,-11.382714,-8.574579,-19.258009
1008.375000,-4.293905,-11.733076,-8.749537,-1.230127
1008.378906,-11.279559,-21.159930,-10.385217,-9.994975
1008.382812,-8.526975,-9.373877,-11.431151,-7.033912
1008.386719,-9.147982,-3.467255,-15.530216,-14.580140
1008.390625,-0.489070,2.110609,-5.458087,-0.434004
1008.394531,-6.442742,-6.993243,1.460671,-3.014156
1008.398438,-4.794412,-6.864449,0.121050,-4.946196
1008.402344,2.189900,1.083706,5.216551,2.874377
1008.406250,4.277644,-0.613036,6.046525,-2.692038
1008.410156,7.906396,1.530820,5.594017,5.204744
1008.414062,0.405656,5.216465,10.598702,10.931912
1008.417969,13.313495,6.484235,5.008588,4.502801
1008.421875,6.684600,9.739325,10.325040,13.218845
1008.425781,5.914374,10.981852,7.766221,19.083580
1008.429688,10.394514,10.077174,7.761991,14.312014
1008.433594,9.704484,13.742583,11.879195,8.951809
1008.437500,4.078288,10.659370,7.891377,2.826293
1008.441406,0.627155,8.710179,4.983887,4.813185
1008.445312,1.484301,7.401229,2.510079,6.389394
1008.449219,3.626997,4.122314,4.843585,3.364449
1008.453125,-0.297408,0.566336,-3.619912,-3.309720
1008.457031,-1.406075,-10.335522,-5.742881,-3.902838
1008.460938,-6.049207,-14.069718,-5.164934,-10.250677
1008.464844,-3.371381,-4.892434,-7.705799,-4.124933
1008.468750,-8.594604,-11.453258,-5.882860,-14.416952
1008.472656,-6.329205,-7.101069,-14.990498,-7.426297
1008.476562,-12.091322,-6.147671,-8.823826,-11.828103
1008.480469,-6.430480,-8.769803,-12.434427,-9.183939
1008.484375,-5.382131,-6.816222,-7.824707,-11.654105
1008.488281,-7.006018,-8.126998,-4.417488,-5.303046
1008.492188,-5.475980,-3.063638,1.216143,-1.271405
1008.496094,-2.996862,-11.260579,-1.668601,-3.887925
1008.500000,-3.497812,2.027109,10.553823,3.657609
1008.503906,6.770927,2.429931,7.308475,3.090926
1008.507812,8.426644,3.141589,2.623907,10.793908
1008.511719,11.039455,5.485626,12.866491,13.361620
1008.515625,8.809705,12.266777,3.577908,7.808354
1008.519531,7.212168,9.421928,5.913453,5.869440
1008.523438,11.673037,9.852324,16.376446,9.691906
1008.527344,13.460269,13.723660,9.420513,12.510477
1008.531250,13.311132,11.204169,7.916053,15.124271
1008.535156,8.045009,8.419153,6.806460,10.376824
1008.539062,6.103058,9.914434,1.085410,15.699014
1008.542969,0.506764,5.302128,0.714054,1.766236
1008.546875,3.266794,0.431766,4.896037,1.422192
1008.550781,2.851959,3.638410,-7.660710,4.331564
1008.554688,-9.505709,-10.446524,0.545243,1.050565
1008.558594,-9.213836,-0.228987,3.100263,-2.927083
1008.562500,-3.571144,-2.882933,-2.455843,-7.485137
1008.566406,-4.853247,-15.882608,-9.517237,-2.519399
1008.570312,-16.543805,-8.494743,-9.996427,-12.338153
1008.574219,-16.207241,0.699811,-7.309014,-4.440795
1008.578125,-13.137688,-8.241205,-6.201235,-11.935411
1008.582031,-4.577506,-7.872070,-6.415956,-9.524957
1008.585938,-6.431262,-11.749869,-2.084920,-9.027481
1008.589844,-4.074001,-5.339272,-7.071073,-11.373645
1008.593750,1.806250,-6.816352,-14.345486,-5.351811
1008.597656,-3.762111,-0.139563,-2.415637,-1.573355
1008.601562,8.125920,-0.833125,-0.283217,10.673592
1008.605469,0.562487,2.990278,9.062494,5.193366
1008.609375,7.783662,8.618979,6.556168,11.361792
1008.613281,15.997052,9.362228,6.393113,8.230676
1008.617188,12.398063,6.788703,8.218026,8.420832
1008.621094,13.810264,11.046077,14.228434,4.080055
1008.625000,11.630487,10.236481,13.876790,15.409706
1008.628906,6.414184,15.712142,3.010282,10.465085
1008.632812,3.213504,9.254671,6.626025,9.096051
1008.636719,9.046378,5.117797,5.466667,5.844554
1008.640625,-5.013605,8.612993,4.701335,3.465326
1008.644531,4.793319,9.936977,2.846785,-3.188072
1008.648438,0.741038,-2.972051,-0.126647,3.131791
1008.652344,-1.995697,-1.938710,-9.494767,0.580975
1008.656250,0.484959,-2.058000,-3.014208,-11.366344
1008.660156,-6.657069,-4.244195,-6.223741,-8.601006
1008.664062,-1.897809,-7.263801,-14.221978,-9.029876
1008.667969,-3.877321,-7.803188,-8.331370,-10.856324
1008.671875,-8.507564,-9.205332,-10.905125,-5.102349
1008.675781,-4.025034,-2.253896,-12.695108,-7.667197
1008.679688,-6.569730,-10.263986,-15.349556,-8.110204
1008.683594,-5.487306,-7.797559,-4.192707,-6.917161
1008.687500,-2.247515,-7.107120,-6.402455,-9.162979
1008.691406,-5.181884,-1.897559,-5.034107,1.472329
1008.695312,-1.590050,2.021972,-1.596177,-9.458720
1008.699219,-5.253943,-3.695512,-6.798180,-2.331566
1008.703125,2.273879,1.996254,-2.425899,8.334291
1008.707031,0.389522,3.455580,-1.574542,2.064741
1008.710938,3.468634,4.502553,6.623868,1.975337
1008.714844,-0.600805,10.491644,10.177091,10.066936
1008.718750,8.485540,6.870323,10.591082,5.368780
1008.722656,6.811652,12.939698,6.189674,12.208551
1008.726562,11.537380,5.816595,12.040236,7.266605
1008.730469,11.997164,6.139276,3.397162,16.551497
1008.734375,4.052107,11.481869,6.844784,0.749648
1008.738281,11.452657,8.174838,7.406823,2.914099
1008.742188,0.538162,-4.244469,7.586797,5.462886
1008.746094,1.372458,-4.160479,-0.169837,4.270462
1008.750000,0.016451,-0.599853,-4.363562,2.956455
1008.753906,-2.217666,-6.405406,-8.781503,0.842289
1008.757812,-2.846918,-10.554294,-5.104627,-7.729050
1008.761719,-3.939775,-3.931519,-2.693041,-6.207552
1008.765625,-1.694724,-9.591729,-7.771176,-13.178775
1008.769531,-3.971000,-9.830160,-7.467856,-5.309557
1008.773438,-9.830026,-10.999881,-14.120340,-8.104225
1008.777344,-10.470759,-1.484387,-17.267954,-12.791855
1008.781250,-9.131288,-9.207338,-9.494407,-14.067349
1008.785156,-12.580520,-9.178865,-10.763702,-9.354782
1008.789062,-1.897304,-5.972165,-4.163525,-10.388011
1008.792969,-0.531958,-7.851460,1.114650,-6.355059
1008.796875,2.068497,-0.012495,1.530334,-5.661381
1008.800781,1.943296,1.497603,1.971054,0.088634
1008.804688,-5.336827,-6.470478,11.734899,2.637941
1008.808594,3.009376,4.962903,-2.999544,5.647617
1008.812500,11.588382,11.307703,4.926452,10.877781
1008.816406,13.275257,7.684160,9.016541,7.013828
1008.820312,10.500751,9.898265,7.815691,7.027931
1008.824219,10.616063,15.475063,5.400161,8.077024
1008.828125,8.760248,6.600266,4.146598,16.923037
1008.832031,8.732100,9.857502,8.941417,14.601932
1008.835938,7.732921,6.981472,7.586349,16.274016
1008.839844,7.897980,10.115882,14.259673,7.675915
1008.843750,9.474717,10.017453,6.085550,0.875232
1008.847656,0.874270,-2.658069,-6.418774,-1.592898
1008.851562,-8.047677,5.862009,-0.003178,-6.558426
1008.855469,-6.174365,-1.802057,-2.818394,-3.399288
1008.859375,-9.455790,-7.085831,-7.005522,-1.604678
1008.863281,0.559062,-6.285297,-6.462441,-8.856401
1008.867188,-5.340110,-11.010090,-13.817852,-5.720081
1008.871094,-9.180467,-5.452033,-2.875142,-7.674819
1008.875000,-4.448511,-10.138070,-11.520501,-5.795013
1008.878906,-9.988693,-4.567731,-17.237312,-7.135917
1008.882812,-11.614223,-10.442539,-8.314290,-4.266724
1008.886719,-6.161130,-4.674558,-5.172155,-14.037345
1008.890625,-13.871057,-4.823694,-1.650982,-11.930799
1008.894531,-13.349949,-1.405002,-1.035206,3.336205
1008.898438,3.139426,2.300259,-2.524100,-0.936310
1008.902344,7.756579,1.857599,1.818833,4.520542
1008.906250,2.737045,-0.357917,4.620539,3.606810
1008.910156,5.160213,9.945999,14.070931,1.302246
1008.914062,5.440702,5.108887,9.822037,9.127066
1008.917969,7.627628,17.336187,5.436072,9.407102
1008.921875,8.495650,2.845283,14.234464,9.134919
1008.925781,10.968075,16.495633,8.712602,3.162629
1008.929688,16.492975,8.534851,7.825157,4.981255
1008.933594,6.896398,10.612824,9.633128,9.553947
1008.937500,5.459501,-5.099908,4.758832,6.429049
1008.941406,10.893346,5.403123,1.752604,1.861446
1008.945312,-0.752219,-1.642249,1.925872,3.361514
1008.949219,2.562448,4.013176,-2.435001,3.629068
1008.953125,-1.310933,-3.287199,-3.758318,1.013405
1008.957031,-7.939693,-9.740622,-7.138299,-7.064506
1008.960938,-6.061929,-10.246156,-6.337065,-2.462456
1008.964844,-10.453545,-6.379388,-11.975251,-9.317758
1008.968750,0.398749,-6.312741,-15.705937,-15.596226
1008.972656,-10.027888,-6.305872,-9.445583,-14.023524
1008.976562,-10.665304,-6.550304,-19.989488,-11.041793
1008.980469,-4.013494,-10.126531,-4.884200,-13.440071
1008.984375,-10.594307,-3.959851,-5.011795,-5.624090
1008.988281,1.242941,-7.813933,-13.459602,-6.458153
1008.992188,-1.231655,-6.214510,-8.305193,-6.173350
1008.996094,-6.424692,0.626813,0.566646,-1.281492
1009.000000,7.109588,-5.763806,1.917649,-3.249084
1009.003906,-3.767915,-4.278868,4.843317,-1.515712
1009.007812,5.189859,10.727444,9.804380,7.927751
1009.011719,5.473853,10.323799,5.719737,0.888675
1009.015625,9.818104,11.752791,15.246553,12.448157
1009.019531,4.616779,10.500583,16.791182,14.565246
1009.023438,13.807600,7.888007,9.493786,1.590666
1009.027344,10.563948,12.883645,4.851905,5.574314
1009.031250,7.749307,12.950517,9.986788,5.183572
1009.035156,4.315183,11.445247,8.419249,9.026135
1009.039062,9.927541,6.083359,5.796931,4.497011
1009.042969,8.101984,0.769780,7.859210,-1.556912
1009.046875,0.768800,6.691529,-5.389882,4.229716
1009.050781,0.211828,-0.477131,-5.546638,0.759498
1009.054688,-0.730548,-4.748492,-14.466739,-0.982612
1009.058594,-7.378831,0.851188,-8.073157,-0.877872
1009.062500,-8.433833,-7.467761,-5.432156,-7.681094
1009.066406,-9.764064,-12.560109,-5.273590,-7.284971
1009.070312,-5.060965,-15.857842,-7.239261,-14.103022
1009.074219,-9.762234,-11.393947,-14.979719,-15.253516
1009.078125,-16.718905,-8.794311,-10.198704,-7.855803
1009.082031,-2.444844,-8.050673,-10.963766,-9.324992
1009.085938,-5.040295,-6.464989,-4.141054,-0.865608
1009.089844,-8.443355,-6.893941,-9.639000,-11.608594
1009.093750,-6.692696,-8.255243,1.583254,-4.932758
1009.097656,-4.539060,4.922733,0.878022,9.193059
1009.101562,5.484262,-0.434871,5.525207,-4.065383
1009.105469,5.176198,1.531289,-0.381477,8.500419
1009.109375,5.943683,11.675819,5.910595,6.180784
1009.113281,5.636525,9.113621,8.245268,8.225480
1009.117188,11.159838,11.021510,11.145756,4.624489
1009.121094,6.462634,9.140895,4.457419,15.955313
1009.125000,2.626794,9.520927,15.878543,13.883795
1009.128906,13.105842,9.367190,4.647682,5.172153
1009.132812,10.301479,6.646692,6.198197,12.360874
1009.136719,8.130651,9.621481,3.105310,8.524667
1009.140625,8.970536,0.583993,0.845764,5.590704
1009.144531,1.356994,1.882967,2.355867,6.018774
1009.148438,2.327100,-0.813750,-2.681785,-5.102532
1009.152344,-5.497183,-9.845209,-6.224910,-4.887736
1009.156250,1.103891,1.346860,-8.430079,-4.375038
1009.160156,-4.718754,-0.660592,-5.779707,-10.261983
1009.164062,-8.478252,-8.155450,-10.769367,-7.250712
1009.167969,-11.010699,-11.154564,-3.192263,-11.046551
1009.171875,-11.048604,-10.657798,-9.197481,-10.028657
1009.175781,-2.183162,-14.703404,-8.794428,-11.046971
1009.179688,-9.396594,-5.260408,-6.229666,-7.144648
1009.183594,-10.214680,-11.069268,-10.401772,-9.439201
