timestamp,TP9,AF7,AF8,TP10
1000.000000,2.517851,6.381930,4.758244,-0.048901
1000.003906,9.995002,-0.990994,-2.776939,-3.048608
1000.007812,8.010391,7.553702,9.371610,10.246123
1000.011719,6.381302,11.902650,3.586868,1.663870
1000.015625,6.657501,6.442364,4.697268,9.254699
1000.019531,8.492434,13.089200,10.863415,13.985366
1000.023438,15.595416,10.072952,8.907926,6.578834
1000.027344,7.889553,11.682037,10.000507,10.277649
1000.031250,2.496089,4.024138,1.189795,14.290235
1000.035156,9.118315,8.383532,10.659817,7.258500
1000.039062,3.625397,3.532366,9.543461,6.261938
1000.042969,7.087690,1.540899,10.868504,9.598837
1000.046875,6.692270,1.810073,2.123536,-3.547650
1000.050781,0.137008,9.426526,-8.034013,-1.278337
1000.054688,-3.382919,-0.821901,-9.142170,-1.831947
1000.058594,-2.723377,-14.172764,-5.258517,-2.295338
1000.062500,-6.366335,-5.273639,-2.784756,-8.319447
1000.066406,-3.240549,-7.272367,-2.750117,-6.086575
1000.070312,-10.534775,-13.239331,-11.832013,-11.108628
1000.074219,-10.174496,-10.050343,-14.499177,-10.890647
1000.078125,-16.121611,0.650060,-12.390779,-10.788175
1000.082031,-9.528717,-6.728888,-7.679310,-5.431807
1000.085938,-1.192805,-10.269624,-17.447137,-8.358749
1000.089844,-5.974534,-7.566127,-11.422629,-2.709330
1000.093750,-2.676577,-3.499901,-13.269494,-4.611323
1000.097656,-5.517628,-6.420961,-4.555335,-0.365564
1000.101562,1.156807,2.353329,5.293266,6.975432
1000.105469,-6.915201,10.081126,-2.561093,3.309851
1000.109375,0.854033,10.197821,0.977059,11.733772
1000.113281,13.631804,0.432920,13.688180,10.104844
1000.117188,5.556390,4.529081,0.126788,1.872235
1000.121094,1.555494,9.575735,7.659160,4.413412
1000.125000,13.674579,3.727562,11.918629,4.469570
1000.128906,12.780435,11.603607,12.114113,9.854399
1000.132812,6.771747,4.223264,10.942417,7.619626
1000.136719,0.755411,13.406684,11.589789,10.416869
1000.140625,6.008672,3.851438,13.559162,7.492230
1000.144531,2.997032,2.944931,1.036842,2.740524
1000.148438,2.121986,-3.131194,2.722614,1.033398
1000.152344,-4.389316,-2.546578,-0.293715,-2.715560
1000.156250,-1.502899,-5.229577,-5.401255,-7.055076
1000.160156,-5.919460,-8.164215,-8.897651,3.801036
1000.164062,-9.618197,-7.721383,-8.554300,-8.447483
1000.167969,-14.779502,-6.235277,-9.111078,-1.636107
1000.171875,-15.608526,-11.180381,-10.977404,-8.789308
1000.175781,-11.931868,-9.124479,-11.003078,-9.684589
1000.179688,-13.067864,-12.714196,-8.706918,-12.166086
1000.183594,-17.824489,-10.325973,-2.956845,-16.125518
1000.187500,-7.592269,-11.315123,-9.956005,-6.451871
1000.191406,-9.415998,-8.598849,-8.669796,-11.871194
1000.195312,-9.180950,1.310053,-2.902188,-4.715492
1000.199219,-0.877075,-7.276188,-0.999761,1.266350
1000.203125,4.636095,-0.486217,-9.289707,-0.169127
1000.207031,-0.806171,7.359050,5.237545,1.488899
1000.210938,8.174935,8.100201,7.237035,1.050484
1000.214844,13.627514,9.826765,12.188713,8.244120
1000.218750,9.522629,8.407114,2.417667,13.156199
1000.222656,15.401411,9.417930,12.689947,14.361861
1000.226562,13.154133,9.224153,13.043148,9.787011
1000.230469,9.741182,7.106748,6.361569,8.413323
1000.234375,8.482858,3.677622,4.408317,8.393504
1000.238281,8.245881,6.808653,11.254916,8.627030
1000.242188,10.012744,13.334325,1.882793,6.526270
1000.246094,2.939143,-0.193530,0.634270,4.072914
1000.250000,-2.231173,-0.028404,-0.351459,-0.218296
1000.253906,5.612236,-3.164465,-4.031257,2.797362
1000.257812,-6.495221,-9.606779,1.148189,-0.898026
1000.261719,-12.775890,1.667602,-5.619516,-6.185703
1000.265625,-13.241656,-8.425345,-16.434488,-8.422322
1000.269531,-10.073277,-11.410016,-14.857417,-8.135856
1000.273438,-13.549886,-1.386690,-12.363588,-18.640617
1000.277344,-14.242832,-10.397744,-13.683235,-3.935235
1000.281250,-1.963425,-12.673693,-0.581169,-9.679825
1000.285156,-9.099993,-11.394564,-18.021243,-8.464186
1000.289062,-11.742425,-2.953160,-9.713558,-0.715644
1000.292969,-4.851903,-3.235296,-9.221156,-5.957498
1000.296875,1.151888,4.263926,-1.102866,-1.489659
1000.300781,-1.238320,-2.382149,-4.858159,-1.214807
1000.304688,3.296407,12.132181,-0.414516,5.076651
1000.308594,-3.523119,10.126653,1.993304,4.491188
1000.312500,3.743614,6.650023,7.924857,2.035230
1000.316406,11.949022,6.310792,9.579483,12.206868
1000.320312,3.620281,12.434864,5.105296,11.075454
1000.324219,11.834897,10.217357,10.707735,14.260775
1000.328125,11.142599,10.926679,7.895332,12.376147
1000.332031,5.100244,9.053949,6.829580,12.663308
1000.335938,4.452577,13.018906,5.210904,14.216289
1000.339844,12.178537,2.288806,6.050259,3.471677
1000.343750,0.727459,-1.620671,-0.501091,-2.495854
1000.347656,6.069628,-2.790791,3.417190,1.570005
1000.351562,4.394190,4.937540,2.688143,-0.968865
1000.355469,-4.488316,-9.146462,-4.370084,-12.708422
1000.359375,-6.645924,-6.884109,-6.553805,-9.298730
1000.363281,1.384302,-8.197278,-4.015364,-17.923193
1000.367188,-5.380678,-4.010693,-3.372419,0.644720
1000.371094,-15.533422,-18.524549,-2.801218,-8.154963
1000.375000,-10.357882,-6.719212,-6.131660,-10.057407
1000.378906,-7.568749,-6.235884,-15.552176,-3.836871
1000.382812,0.942598,-8.094836,-6.243491,-2.982309
1000.386719,-9.224977,-6.654190,-4.179342,-7.237416
1000.390625,-0.228954,-3.306372,-4.145594,-8.332288
1000.394531,-5.540718,-5.749079,-4.609840,-16.041551
1000.398438,-5.546798,-3.895413,-5.093315,-1.229329
1000.402344,5.332115,-4.302624,-0.581644,-3.322983
1000.406250,2.824546,5.661173,7.576578,0.718264
1000.410156,6.816898,3.637430,2.056500,7.123733
1000.414062,7.343932,12.949398,7.975062,5.792053
1000.417969,6.540493,9.613878,13.478395,4.033206
1000.421875,8.598216,1.304211,10.669991,7.788800
1000.425781,6.343728,8.493133,8.183560,14.272850
1000.429688,17.979371,5.806576,12.941850,6.259350
1000.433594,-0.365308,3.556547,6.359370,11.614223
1000.437500,5.555252,7.826621,5.062723,8.767286
1000.441406,1.755867,9.608834,9.777560,0.107267
1000.445312,4.722320,-0.666171,4.373264,4.856437
1000.449219,0.799920,4.849575,-3.187527,4.932712
1000.453125,0.027657,-2.645803,-5.009792,-4.461593
1000.457031,0.951808,-3.502729,-3.276531,0.934791
1000.460938,-10.900953,-0.443134,-8.101534,-13.161295
1000.464844,0.544730,-8.436259,-1.851567,-6.802212
1000.468750,-2.604981,-7.900204,-15.045968,-3.428514
1000.472656,-5.447098,-12.942371,-11.034347,-12.975904
1000.476562,-10.620255,-5.723684,-10.474977,-6.640631
1000.480469,-10.137206,-13.052426,-6.590185,-8.994352
1000.484375,-8.208722,-6.429785,-3.356135,-18.187022
1000.488281,-8.855318,-0.937760,-7.440334,-0.500984
1000.492188,2.940383,-9.760547,-5.637708,-5.377159
1000.496094,-2.420134,-6.370592,-0.964509,-3.787624
1000.500000,-2.571878,-6.646854,-0.917520,3.594683
1000.503906,2.730536,1.964548,-1.808477,5.602512
1000.507812,7.609526,0.475391,4.394325,-0.455970
1000.511719,6.082043,10.845249,9.250960,11.199057
1000.515625,11.633549,14.203659,14.438607,7.060489
1000.519531,2.513558,6.823220,4.787571,10.993067
1000.523438,9.012001,10.326997,13.050448,10.930028
1000.527344,16.575569,17.979742,8.580269,13.558813
1000.531250,11.923377,15.890857,4.658565,-0.008536
1000.535156,6.186955,10.654616,8.846017,7.367915
1000.539062,10.006417,2.636010,6.644225,8.873763
1000.542969,3.155101,6.856397,10.679887,1.881448
1000.546875,0.657706,0.883597,10.662617,-1.846873
1000.550781,-5.347989,-4.768149,-4.870768,2.020268
1000.554688,-4.821166,2.590906,3.022639,-7.112306
1000.558594,-4.728694,-7.604982,-7.517686,-6.809817
1000.562500,-8.634124,-2.948852,-12.217109,-13.892532
1000.566406,-11.710361,-6.922725,-6.687247,-7.673402
1000.570312,-8.547963,-3.929731,-8.788441,-11.904504
1000.574219,-10.295209,-11.809443,-9.745972,1.403761
1000.578125,-17.207655,-9.526109,-13.721547,-7.880141
1000.582031,-8.491159,-10.746326,-6.705314,-12.115579
1000.585938,-8.042640,-8.236996,-13.988764,-3.961537
1000.589844,-5.841746,-2.203294,-3.203084,-13.621880
1000.593750,-4.469899,-10.541484,-2.363131,-5.189043
1000.597656,-3.341569,-0.883385,-2.092409,-4.252049
1000.601562,9.666566,-0.536146,-2.416960,-3.191665
1000.605469,1.736096,-2.788680,6.442839,-2.079876
1000.609375,-1.226587,3.127173,5.022075,7.559478
1000.613281,15.230466,8.596819,4.717383,8.958207
1000.617188,3.432813,13.327037,3.484798,10.390088
1000.621094,9.677804,16.756834,10.787394,13.060459
1000.625000,3.582314,10.148494,4.211177,6.670914
1000.628906,13.599984,15.645958,8.057387,13.090613
1000.632812,13.418694,9.574910,11.249691,11.264034
1000.636719,14.572800,11.382271,3.739979,9.044415
1000.640625,0.237291,6.017888,4.637488,2.499344
1000.644531,-5.066349,4.372559,3.207972,1.421272
1000.648438,4.660014,0.465950,2.079729,-2.578378
1000.652344,-1.710628,-3.041244,4.470767,-1.150338
1000.656250,-1.522395,-2.193781,-1.595801,0.127941
1000.660156,-13.118443,-3.738561,-7.584022,-6.434339
1000.664062,1.287527,-4.567436,-10.132140,-9.349556
1000.667969,-12.621227,-4.080776,-3.175911,-3.529414
1000.671875,-7.999259,-5.160256,-9.566663,-2.063313
1000.675781,-11.831069,-12.690795,-9.623446,-4.183922
1000.679688,-14.123656,-9.254764,-10.563094,-7.398338
1000.683594,-14.657824,-2.838330,-1.946611,-6.446537
1000.687500,-4.000297,-7.457377,-2.642247,-7.963432
1000.691406,-4.551883,-4.538733,-9.456293,-3.975876
1000.695312,-1.921922,-3.826012,-1.617065,-0.408554
1000.699219,3.747025,2.513031,6.110071,-4.387885
1000.703125,4.332777,-1.649403,5.642495,-3.345658
1000.707031,0.103369,5.434084,4.813213,2.396934
1000.710938,4.103192,-0.425189,6.303713,5.781728
1000.714844,9.171807,5.714799,7.255733,10.390559
1000.718750,8.622993,12.453693,7.767408,12.877451
1000.722656,9.911227,12.902588,8.661937,10.899658
1000.726562,8.454177,8.839675,9.546410,9.865477
1000.730469,7.252936,9.566740,10.609273,8.445281
1000.734375,9.855307,10.297803,7.246496,4.233451
1000.738281,4.583676,0.590450,13.692122,11.826199
1000.742188,2.828673,11.231668,4.344371,8.128213
1000.746094,-0.131878,-0.026813,-3.359990,0.568683
1000.750000,1.936443,0.696825,-0.667466,-4.360925
1000.753906,4.497559,-1.611350,-3.426456,-1.571928
1000.757812,-9.401689,-6.370282,-8.316941,-1.679374
1000.761719,-7.010092,-6.778014,-10.032133,-7.489661
1000.765625,-6.568673,-10.725096,-6.794346,-4.482739
1000.769531,-9.458883,-11.262780,-13.783357,-8.922990
1000.773438,-6.927240,-4.424893,-18.677677,-9.893975
1000.777344,-10.989970,-13.582294,-8.450733,-12.650941
1000.781250,-8.495255,-6.081120,-5.163187,-10.226428
1000.785156,-11.907610,-6.023462,-8.485217,-10.745535
1000.789062,-14.231393,-6.635441,-10.914905,-4.611719
1000.792969,-6.425886,-2.197356,0.974171,-3.406570
1000.796875,-5.820931,-2.790162,-1.881293,3.782955
1000.800781,5.955931,-2.897528,-0.974422,-11.565563
1000.804688,3.220528,-1.767847,-0.538346,3.306529
1000.808594,6.207537,7.514833,4.691197,11.474312
1000.812500,7.942459,5.141429,8.623485,10.680590
1000.816406,9.484059,9.985963,6.797135,7.519856
1000.820312,9.602063,19.100402,4.895962,3.622408
1000.824219,11.910453,4.123331,17.493154,11.907052
1000.828125,3.392353,9.900502,3.917771,13.901869
1000.832031,12.946845,4.973108,16.804158,12.946372
1000.835938,5.135620,0.277489,6.580518,11.202458
1000.839844,5.887272,2.526647,7.621502,0.341979
1000.843750,-1.051650,5.731797,1.540474,6.363033
1000.847656,-2.290370,-0.297567,3.177813,6.050962
1000.851562,-3.819540,6.660968,0.849488,-6.883899
1000.855469,0.782770,-2.468102,6.295292,1.275598
1000.859375,-6.932467,-6.373547,-8.688919,-5.428266
1000.863281,-10.847007,-3.817861,-5.228939,-4.751141
1000.867188,-5.491941,-15.163621,-6.189940,-12.059847
1000.871094,-10.914954,-8.849409,-4.757697,-6.722316
1000.875000,-14.119641,-15.160668,-17.154055,-10.248944
1000.878906,-10.042642,-12.824324,-4.123218,-5.326586
1000.882812,0.762754,-12.915911,-4.753858,-0.694044
1000.886719,-9.218854,-5.900661,-3.704220,-9.211338
1000.890625,-6.131510,-1.277835,-8.235198,-1.502595
1000.894531,-4.845319,-10.263575,-2.122736,-6.197033
1000.898438,-3.800677,-6.754498,2.713617,-5.534433
1000.902344,0.823681,5.489216,1.745679,0.713107
1000.906250,3.209314,1.697900,0.768965,1.430273
1000.910156,15.226887,10.465811,6.362955,11.286877
1000.914062,5.484253,12.432717,10.657504,5.571624
1000.917969,2.938993,5.710048,5.334398,13.756677
1000.921875,11.928314,12.893194,15.471026,10.499747
1000.925781,13.060459,6.627392,9.000075,6.779579
1000.929688,8.451034,15.301903,7.863713,11.734497
1000.933594,7.605955,7.291329,13.219310,5.931873
1000.937500,8.108428,4.018111,-4.287789,6.820365
1000.941406,7.148969,5.659791,-0.278252,3.631522
1000.945312,0.260379,1.905199,-0.643510,4.077157
1000.949219,-0.073622,1.925635,4.006460,-0.396907
1000.953125,-5.606834,-3.194062,3.415440,5.599370
1000.957031,-7.114405,-9.943097,-7.962149,-6.516232
1000.960938,-5.871522,-1.457330,-15.330153,-10.110248
1000.964844,-9.246417,-9.557424,-8.149998,-6.214413
1000.968750,-11.188118,-15.627379,-16.716676,-17.829864
1000.972656,-16.982230,-8.828283,-4.161368,-13.719170
1000.976562,-10.764570,-3.686531,-1.568922,-7.844092
1000.980469,-11.107309,-14.075994,-13.458763,-6.121716
1000.984375,-5.114591,-15.325354,-9.615929,-11.884691
1000.988281,-0.758026,-4.134614,-3.681906,-3.378376
1000.992188,-7.888595,2.103720,-1.463016,-7.287378
1000.996094,-0.262100,0.050414,0.792802,-2.215112
1001.000000,-3.496748,5.298917,-7.754308,1.554844
1001.003906,-2.222378,5.449064,1.604021,0.210070
1001.007812,1.319703,5.817376,-4.241451,5.278654
1001.011719,3.201891,9.280915,10.516836,10.372915
1001.015625,11.776801,11.331638,5.793316,11.127252
1001.019531,-0.141922,9.435014,9.807196,4.087495
1001.023438,9.647254,10.942036,7.082271,6.911002
1001.027344,10.917306,11.110379,8.021713,10.360548
1001.031250,12.752166,11.077813,5.670540,9.237093
1001.035156,6.731781,5.453066,11.153848,4.871288
1001.039062,2.100400,2.904889,-7.311706,0.865789
1001.042969,5.949567,1.945758,3.619566,3.290185
1001.046875,11.215237,3.094748,4.593335,3.321971
1001.050781,5.466153,-1.264468,-4.007448,-1.611261
1001.054688,-3.590323,-10.074992,-7.096592,-0.539966
1001.058594,-6.903317,-4.054393,-6.320164,-6.389349
1001.062500,-9.841768,-2.432079,-13.440415,1.385688
1001.066406,-11.532125,-4.567705,-8.570245,-5.732238
1001.070312,-11.270246,-3.107993,-12.168540,-8.111337
1001.074219,-15.139300,-15.279723,-12.680928,-7.972556
1001.078125,-11.739698,-6.826559,-6.991145,-11.900208
1001.082031,-13.831332,-12.758951,-3.409889,-6.745891
1001.085938,-6.108410,-8.093198,-1.917644,-2.655353
1001.089844,-1.587774,1.769639,-6.987331,0.894516
1001.093750,-0.454350,-3.083102,0.779452,-2.842985
1001.097656,1.082999,-1.232576,-4.667299,-3.759439
1001.101562,-1.318958,4.513495,-1.139749,2.081083
1001.105469,4.092482,3.027051,7.093030,-2.345934
1001.109375,-2.890799,6.225194,2.688181,1.022575
1001.113281,7.726334,3.050163,7.300504,5.962293
1001.117188,13.552527,5.469448,16.397299,5.171419
1001.121094,14.836616,8.654792,15.035964,14.438616
1001.125000,6.865977,14.447343,8.574897,16.843041
1001.128906,12.925670,12.130354,7.713715,2.575379
1001.132812,11.205900,4.897597,17.253571,5.070117
1001.136719,0.120761,9.468274,5.564578,13.051204
1001.140625,8.662401,6.432965,10.767208,10.081817
1001.144531,1.324706,8.460736,2.981179,3.431363
1001.148438,-3.426854,-3.240545,1.754063,2.522281
1001.152344,-5.687178,5.523683,0.873838,-5.322548
1001.156250,0.232424,-4.196058,-5.453099,-3.958229
1001.160156,0.166926,-2.827319,-6.766507,-5.044641
1001.164062,-11.333159,-11.881872,-4.567530,-1.410448
1001.167969,-6.786364,-10.511971,-8.092184,-11.758039
1001.171875,-11.374722,-15.216493,-8.271841,-9.411520
1001.175781,-6.781425,-14.515029,-12.541034,-13.321011
1001.179688,-11.276216,-4.220806,-16.876468,-5.194518
1001.183594,-2.719633,-10.242583,-6.488409,-17.917328
1001.187500,-13.280580,-3.608282,-2.002080,-6.445930
1001.191406,-2.829401,-12.968010,-2.988835,-4.996295
1001.195312,0.847208,0.257462,5.015006,-0.702069
1001.199219,-0.469598,-0.189497,-2.642167,-4.221462
1001.203125,6.264094,0.072269,4.436851,0.572988
1001.207031,8.045647,-1.458304,5.967275,6.802069
1001.210938,6.164736,1.158305,13.540870,13.125759
1001.214844,9.528635,8.907762,3.392707,9.014075
1001.218750,14.196716,3.260156,8.807502,8.874440
1001.222656,13.537047,19.942235,8.524148,12.034879
1001.226562,15.739332,16.841803,14.994798,6.295041
1001.230469,12.631473,12.091641,13.066820,13.145474
1001.234375,10.146176,7.172795,0.391156,14.019744
1001.238281,-1.936795,9.730200,6.381023,5.358877
1001.242188,8.143185,8.938104,1.164476,8.897427
1001.246094,3.381007,4.865465,5.007770,-4.935600
1001.250000,3.236114,-1.998380,1.591463,-0.346476
1001.253906,-8.270314,-4.988291,-4.424553,-6.637967
1001.257812,4.531997,-1.566157,-4.917769,-6.611675
1001.261719,-7.133408,-12.594262,-2.786375,-1.005898
1001.265625,-1.610931,-13.699694,-13.049685,-5.503541
1001.269531,-6.301059,-10.198644,-10.679487,-8.546419
1001.273438,-13.434575,-12.091484,-4.521482,-9.093996
1001.277344,-7.627272,-17.592417,-11.939256,-9.104873
1001.281250,-7.701078,-8.957522,-6.607711,-8.316694
1001.285156,-9.797959,-7.697438,-8.220886,-10.927640
1001.289062,-11.955529,2.667555,-8.773957,-9.813606
1001.292969,1.411401,-6.647054,-10.435622,0.411698
1001.296875,2.149913,1.970884,-2.145667,-7.342581
1001.300781,1.036846,0.072768,3.204210,-1.294478
1001.304688,5.139933,2.676125,-1.039826,1.513360
1001.308594,7.135864,11.944506,-0.755137,3.308957
1001.312500,9.504585,5.870753,2.455210,8.619284
1001.316406,7.681091,10.286118,12.386673,7.451758
1001.320312,7.120353,12.728466,1.363652,1.202706
1001.324219,13.355152,13.178290,15.910698,12.435174
1001.328125,8.888642,13.729482,13.840319,10.634862
1001.332031,4.507901,6.432584,14.127627,12.892948
1001.335938,9.892252,8.189354,16.229393,10.353080
1001.339844,2.325359,6.795074,7.072102,7.051044
1001.343750,-1.597146,10.391242,-2.561115,-4.658783
1001.347656,-1.138358,-4.332845,-0.639500,1.618668
1001.351562,0.699231,-2.259030,1.419194,-2.216799
1001.355469,-5.021192,-1.491856,-10.567521,-9.413182
1001.359375,-4.692447,-5.915622,3.189134,-8.898759
1001.363281,-8.401587,-9.626218,-13.399412,-5.466705
1001.367188,-12.536160,-7.249431,-6.485468,-16.175871
1001.371094,-14.243037,-3.372785,-10.025705,-9.006570
1001.375000,-15.367815,-10.195739,-6.392517,-3.244260
1001.378906,-12.377107,-5.786465,-9.862477,-14.677711
1001.382812,-5.233136,-17.585792,-8.648803,-12.497025
1001.386719,-6.961978,-11.170185,-9.228929,-5.692105
1001.390625,-4.610879,-6.489608,-8.659928,-3.588983
1001.394531,1.337177,-2.073804,1.258447,-2.456424
1001.398438,-1.417406,-5.058919,-1.025993,-4.102312
1001.402344,6.836531,3.247320,1.356104,3.418278
1001.406250,9.215048,2.706059,2.901085,2.038794
1001.410156,4.803711,0.883491,11.652839,7.027618
1001.414062,7.431897,-0.143629,8.459859,7.142613
1001.417969,11.191218,10.102360,6.657542,5.718334
1001.421875,9.094401,10.030977,17.198810,15.714348
1001.425781,10.246548,20.699523,2.199146,7.619450
1001.429688,7.004656,13.079488,12.737576,4.790072
1001.433594,7.499845,11.997878,11.735010,9.674949
1001.437500,-0.881418,10.461640,13.384105,2.077906
1001.441406,2.369785,2.665164,9.131153,9.479878
1001.445312,2.982987,-2.529949,14.991385,3.946691
1001.449219,-0.308332,-0.710090,2.792439,4.858534
1001.453125,-5.071770,-0.448902,4.797716,-0.604819
1001.457031,-7.766391,-8.796365,-10.442128,-0.187387
1001.460938,-5.464602,-11.080076,-6.584283,-4.882376
1001.464844,-10.432052,-9.012524,-9.781730,-10.791839
1001.468750,-5.065059,-10.494137,-3.520285,-9.969032
1001.472656,-7.726448,-9.394132,-14.580855,-18.682483
1001.476562,-8.031526,-11.482552,-7.420013,-11.951367
1001.480469,-4.394663,-6.562205,-11.254415,-15.548213
1001.484375,-13.472357,-12.464101,-2.099420,-10.482782
1001.488281,-15.938006,-9.312475,-6.660532,-6.048916
1001.492188,-6.507471,3.859893,2.434756,-4.932119
1001.496094,-10.217149,2.044775,-5.612779,4.835184
1001.500000,0.856930,-9.376668,1.635143,-1.494101
1001.503906,-4.294829,4.056858,-1.397170,3.163038
1001.507812,5.255956,8.553870,1.560862,7.922120
1001.511719,3.853763,15.856776,5.515532,0.562099
1001.515625,6.308655,9.289478,5.284075,9.794394
1001.519531,10.443704,1.461584,13.752675,8.211504
1001.523438,9.784784,8.933941,7.662621,7.879725
1001.527344,6.060330,6.775898,12.478487,14.889859
1001.531250,11.072107,9.100665,6.151614,4.494910
1001.535156,8.772455,6.823147,9.665122,4.060522
1001.539062,3.004703,2.816806,10.370812,2.062650
1001.542969,6.809310,5.349002,0.071277,13.448658
1001.546875,4.168778,-0.593746,1.722268,3.335780
1001.550781,-1.790671,1.352712,-1.654884,3.326684
1001.554688,-1.296192,4.876299,-7.268159,-4.499438
1001.558594,-3.214645,-9.601323,-3.864101,-4.350496
1001.562500,-2.732052,-10.527721,-12.982096,-7.724706
1001.566406,-6.631151,1.066454,-8.930630,-2.372799
1001.570312,-16.697888,-3.616389,-12.590439,-7.292245
1001.574219,-18.680187,-11.816263,-11.818959,-4.903259
1001.578125,-3.776596,-5.927892,-7.260500,-11.994323
1001.582031,-9.587772,-14.905480,-9.400289,-6.804017
1001.585938,-5.489508,-15.279398,-8.017430,-11.169042
1001.589844,-1.581415,-3.211928,-5.051485,-1.729554
1001.593750,-2.862410,1.877350,0.843752,-5.573544
1001.597656,2.619954,2.744342,-2.055170,-2.841289
1001.601562,-0.535618,6.302642,-0.174488,4.585230
1001.605469,4.394288,-0.922210,9.440437,-0.856275
1001.609375,5.313305,14.644468,12.724866,11.922141
1001.613281,13.490056,6.441747,9.462096,2.741106
1001.617188,12.874640,6.869231,9.072188,8.140106
1001.621094,12.355738,22.371331,10.623102,6.444836
1001.625000,13.012677,6.810526,13.316823,12.974547
1001.628906,12.715912,11.350403,10.910211,6.886790
1001.632812,5.411378,5.523277,4.472099,5.012076
1001.636719,14.969099,14.779878,8.157856,8.496064
1001.640625,11.281812,3.367539,3.619596,12.072950
1001.644531,6.039173,5.170462,6.238375,-3.988232
1001.648438,0.694392,0.399067,-0.471454,-4.005764
1001.652344,-4.184188,-2.412113,-2.458387,-7.815081
1001.656250,-1.749117,4.266488,-0.867549,1.181229
1001.660156,-9.616440,0.185305,-0.215602,-4.526374
1001.664062,-5.224161,-11.497173,-9.971292,0.296762
1001.667969,-6.252817,-8.990381,-12.696145,-2.390462
1001.671875,-7.587660,-11.125658,-14.864093,-10.976639
1001.675781,-11.009155,-3.386230,-7.846107,-9.311497
1001.679688,-10.456195,-10.392324,-7.916249,-6.872262
1001.683594,-11.661006,-6.766164,-5.323267,-5.208031
1001.687500,-12.859059,1.287050,-13.037848,-15.160254
1001.691406,-7.890284,-2.300905,-2.761066,-4.805230
1001.695312,-4.250184,7.037696,-2.062468,-0.924452
1001.699219,-1.347857,3.971396,-4.142386,2.547618
1001.703125,1.295294,6.386472,-0.653654,1.957510
1001.707031,7.642221,7.281657,6.821705,10.048256
1001.710938,14.322792,-2.741465,-0.987514,12.872512
1001.714844,5.086066,11.740371,7.849410,2.698041
1001.718750,13.256401,7.469911,8.834461,7.332909
1001.722656,9.453191,15.652146,14.694541,10.296810
1001.726562,17.728550,13.480506,12.172404,12.894370
1001.730469,12.060117,8.748173,9.702416,14.173233
1001.734375,8.931492,4.378456,10.268530,6.492878
1001.738281,7.200373,8.406963,11.103850,2.360843
1001.742188,1.145635,15.069007,2.929729,12.204868
1001.746094,3.821573,-1.181776,6.355592,-1.368519
1001.750000,3.474506,2.418604,-4.413869,-9.813128
1001.753906,-2.953960,-6.516180,-2.175725,-7.789461
1001.757812,-4.742564,-10.894393,-7.465174,-1.500254
1001.761719,-2.093355,-1.465920,-2.583780,-8.448465
1001.765625,-5.179055,-6.499105,-5.714700,-1.875037
1001.769531,-1.412428,-1.608029,-5.863062,-6.534461
1001.773438,-7.628372,-13.825428,-6.354388,-6.254437
1001.777344,-8.427148,-16.470556,-8.704131,-10.258657
1001.781250,-12.430396,-9.665398,-10.281616,-13.166460
1001.785156,-6.774415,-3.796829,-12.481906,-8.885433
1001.789062,-11.919254,-5.100876,-8.104969,-8.417961
1001.792969,-5.956055,-7.564676,-6.587794,-2.099083
1001.796875,6.310434,-5.654595,-0.337451,-3.688214
1001.800781,5.251851,1.465268,-2.397977,-2.611281
1001.804688,0.080820,1.383212,2.097812,2.891457
1001.808594,-1.834058,-3.570061,8.574674,2.981057
1001.812500,0.438664,9.065320,4.005211,16.511916
1001.816406,14.924687,10.020045,4.951464,7.438217
1001.820312,7.974623,9.495159,8.970929,11.448689
1001.824219,8.870386,8.698491,10.565288,16.318630
1001.828125,2.405841,10.022411,16.323996,8.000221
1001.832031,4.333410,10.970948,8.942697,13.099464
1001.835938,4.489808,6.826632,6.407297,2.874092
1001.839844,4.896082,6.335342,1.014797,12.145223
1001.843750,-0.155104,-2.799108,7.873469,3.930428
1001.847656,-5.546077,3.584059,6.854943,-1.684950
1001.851562,-1.872369,2.196392,-1.300526,-5.094151
1001.855469,-4.577455,-4.683715,-6.610672,-2.481703
1001.859375,-6.149917,-3.562692,1.979317,-13.866863
1001.863281,-3.286462,-3.261545,-4.697031,-6.962358
1001.867188,-9.848504,-9.650115,-12.727802,-5.547650
1001.871094,-10.691684,-7.888688,-11.202602,-10.654200
1001.875000,-6.623492,-4.951706,-4.637582,-10.560641
1001.878906,-9.656215,-13.376820,-14.291777,-17.006135
1001.882812,-16.094232,-9.478393,-8.552880,-7.701029
1001.886719,-5.129685,2.082030,-10.191992,-4.066999
1001.890625,-5.874995,-11.801953,-0.331678,-8.296764
1001.894531,-2.307291,1.574695,-3.618417,-0.662988
1001.898438,0.521277,0.846991,1.662333,1.797992
1001.902344,-4.092131,5.009366,6.984286,6.155828
1001.906250,7.579873,1.775805,1.027015,4.931482
1001.910156,5.635583,10.767486,1.722207,-4.408513
1001.914062,14.197146,9.308211,9.421344,4.277533
1001.917969,16.067847,6.635695,12.856795,11.322140
1001.921875,13.318494,4.220664,8.023627,9.658440
1001.925781,6.485336,6.894454,1.744985,6.467090
1001.929688,14.132945,14.098302,14.487223,2.565707
1001.933594,6.596918,12.052652,3.824129,9.543783
1001.937500,3.857603,3.078509,11.972324,3.332143
1001.941406,8.584738,4.875238,7.517683,8.500140
1001.945312,0.348423,2.309968,0.910900,5.056152
1001.949219,0.247646,-0.165688,-1.214360,1.172493
1001.953125,0.089586,2.961384,-2.418262,7.857980
1001.957031,-3.765694,-7.703477,-6.692461,-7.213462
1001.960938,-3.368346,-0.071272,-12.426842,-6.533776
1001.964844,-12.718542,-11.254530,-6.626386,-12.951465
1001.968750,-6.248702,-15.343182,-7.244855,-16.874319
1001.972656,-11.323838,-11.408105,-7.772683,-5.388343
1001.976562,-11.042626,-3.822482,-6.377571,-8.106020
1001.980469,-17.849861,-17.328924,-5.872882,-11.606890
1001.984375,-8.456058,-2.900201,-9.507244,-3.668402
1001.988281,-7.623578,-10.962850,-14.040251,-7.375746
1001.992188,-0.475564,-1.806022,-4.248406,-0.756666
1001.996094,-2.016381,-1.014491,-3.188390,2.331346
1002.000000,2.615832,3.436991,2.949754,-5.341621
1002.003906,-1.845197,2.898844,0.502703,-0.427107
1002.007812,-0.190073,10.643703,10.237085,4.789845
1002.011719,3.255436,9.155188,6.977512,1.677120
1002.015625,6.928792,9.624274,1.600612,2.930144
1002.019531,7.551862,11.251860,4.401240,13.917386
1002.023438,4.001789,14.202755,4.810280,11.716338
1002.027344,9.435772,12.859509,16.197630,10.236264
1002.031250,9.564170,4.077389,5.645677,10.931941
1002.035156,3.793618,7.556361,9.703944,12.436502
1002.039062,3.155310,4.759299,7.354145,5.050967
1002.042969,5.173502,4.530062,3.118269,-3.257243
1002.046875,2.875699,-3.051931,1.663439,-1.214063
1002.050781,9.506773,-0.164245,2.774701,-2.793237
1002.054688,-10.858062,0.864940,-1.355523,-5.633544
1002.058594,-10.309969,-1.331990,-12.368312,-16.173806
1002.062500,-8.230296,-3.914081,-1.813780,-8.501586
1002.066406,-9.096177,-12.811899,-6.967015,-7.600607
1002.070312,-12.239776,-2.705952,-5.760143,-11.618859
1002.074219,-7.903338,-13.889449,-5.373362,-7.706492
1002.078125,-7.846229,-4.706754,-9.731904,-13.145857
1002.082031,-12.064754,-11.010899,-6.131409,-11.885900
1002.085938,-6.086577,-10.347678,-1.765747,-10.439329
1002.089844,1.220399,-4.968549,-5.991378,-9.063972
1002.093750,-7.901373,-9.347628,-4.412909,-3.342620
1002.097656,-1.818643,3.224939,-1.954160,0.516323
1002.101562,-0.082526,4.675896,-0.342266,4.182894
1002.105469,5.733027,4.527648,1.673601,3.122140
1002.109375,7.811758,5.597834,8.165817,2.906205
1002.113281,5.477353,4.577297,6.572330,7.224018
1002.117188,10.342875,8.242903,-0.349329,6.149058
1002.121094,8.543282,3.164257,15.920067,0.088494
1002.125000,7.713430,12.626074,19.553002,11.102879
1002.128906,7.066974,13.665009,10.532860,12.110296
1002.132812,12.802449,11.162833,4.057542,8.748860
1002.136719,8.082990,7.745744,6.177370,-3.531559
1002.140625,3.460728,11.750184,0.819073,12.360350
1002.144531,1.224438,1.917762,0.267443,-1.493758
1002.148438,-2.317303,0.275131,4.092027,3.074158
1002.152344,2.443245,-8.403874,-3.830726,-1.447632
1002.156250,-5.295014,-4.152638,-2.569571,-8.034733
1002.160156,-2.459146,-9.311598,-7.330892,-7.759791
1002.164062,-11.469811,-15.715171,-5.125833,-10.517190
1002.167969,-16.433452,-13.608694,-11.633175,-7.799105
1002.171875,-2.122245,-2.554647,-9.019429,-9.721327
1002.175781,-0.451775,-6.764093,-11.979399,-14.272908
1002.179688,-11.529286,-15.919738,-13.922279,-6.724220
1002.183594,-5.776672,-2.849770,-7.638398,-3.431669
1002.187500,-8.327420,-6.445623,-10.037691,-8.174613
1002.191406,-5.233142,-7.137253,-6.340834,-8.992623
1002.195312,-0.819337,-5.737068,-3.610672,-4.347879
1002.199219,-5.012738,3.233372,1.964415,6.194115
1002.203125,3.966823,-2.028757,-0.679334,5.566116
1002.207031,3.795002,3.506408,-2.514624,3.894951
1002.210938,5.378264,10.777108,2.782482,5.823975
1002.214844,5.670509,13.570277,9.187532,8.854490
1002.218750,11.654195,13.682650,6.536238,7.701158
1002.222656,11.274407,3.602570,10.147797,7.935272
1002.226562,9.807505,9.638417,8.808159,8.161491
1002.230469,11.282260,11.069473,6.904271,3.612444
1002.234375,7.486102,8.159569,9.729249,14.247639
1002.238281,10.751566,9.764957,0.078354,1.786746
1002.242188,4.394498,-0.645909,5.879181,0.908217
1002.246094,4.599086,0.837924,13.644183,7.786883
1002.250000,8.254735,-3.624090,5.902763,-4.751718
1002.253906,-5.729589,-10.160435,-6.751670,2.258224
1002.257812,-14.861597,-4.891346,-10.377879,-5.562448
1002.261719,-6.640483,-8.424986,-2.306889,-11.631759
1002.265625,-5.765593,-3.924061,-9.957914,-12.139954
1002.269531,-10.440824,-6.371134,-12.494427,-6.943629
1002.273438,-12.441905,-14.765880,-8.254620,-3.823767
1002.277344,-10.088197,-13.228609,-15.041562,-9.995865
1002.281250,-10.749168,-8.255675,-5.156300,-5.737202
1002.285156,-8.869456,-0.742476,-3.164318,-13.470113
1002.289062,-0.972584,-4.659023,-11.421858,-1.251088
1002.292969,1.465788,-5.012266,-5.505256,-9.688594
1002.296875,-3.029833,-3.001851,6.135041,-2.141999
1002.300781,-6.682479,-5.510250,-0.556747,1.778695
1002.304688,11.020867,4.600302,-1.057012,4.122359
1002.308594,7.447459,1.322690,6.675152,2.591399
1002.312500,7.721887,6.545264,4.005372,2.868004
1002.316406,7.068723,1.401153,9.749270,7.442818
1002.320312,6.679602,15.833429,2.358888,12.822671
1002.324219,12.730935,13.169873,9.608852,5.830701
1002.328125,3.566580,7.364819,13.821601,10.691969
1002.332031,18.279477,21.399567,4.447764,8.516236
1002.335938,11.469654,8.365395,10.296203,13.261597
1002.339844,3.120852,1.481640,7.244168,-1.374221
1002.343750,7.942936,-4.411792,6.481403,3.673930
1002.347656,7.097898,0.129424,-5.501924,0.127013
1002.351562,-2.139211,-4.036421,3.384562,-1.117335
1002.355469,-1.354828,-5.389566,-4.245093,-4.140379
1002.359375,-4.867716,-0.841623,-5.046687,-13.481492
1002.363281,-5.087453,-10.956602,-5.541164,-13.342108
1002.367188,-14.997273,-3.748100,-20.380974,-14.685786
1002.371094,-12.710197,-6.470027,-14.839995,-10.087853
1002.375000,-9.310390,-6.637375,-5.437544,-9.268130
1002.378906,-13.558853,-16.958862,-11.605979,-12.473874
1002.382812,-20.916225,-9.162503,-6.326497,-12.009695
1002.386719,-4.841268,-10.009473,-5.554003,-7.676392
1002.390625,-5.052978,-0.435153,-7.914805,-5.700691
1002.394531,-2.814550,-4.803088,-9.931324,1.030918
1002.398438,-3.115384,-4.013132,-4.517137,1.189526
1002.402344,9.563842,-4.381610,6.557348,1.831625
1002.406250,3.030301,7.418977,6.101620,3.446421
1002.410156,8.811560,9.513654,7.161737,1.321010
1002.414062,12.762837,3.109670,10.040203,8.822760
1002.417969,-3.871033,18.838324,3.506426,1.352861
1002.421875,7.886276,2.538310,13.333435,8.067932
1002.425781,7.442805,7.618008,11.575460,8.736535
1002.429688,13.608767,8.688232,11.706385,19.240631
1002.433594,2.804690,10.385158,6.794195,13.039461
1002.437500,-5.402142,7.209076,1.868488,4.079764
1002.441406,10.671517,13.646068,0.181387,3.701285
1002.445312,9.768952,6.551817,3.525317,1.270027
1002.449219,-0.543205,4.843892,-0.582569,-1.882104
1002.453125,-5.391516,-3.891677,-3.826560,-0.157782
1002.457031,-2.286500,-7.044297,5.035506,-2.232149
1002.460938,-1.678378,-10.102468,-5.779947,-6.275060
1002.464844,-11.670661,-7.878011,-11.116000,-13.453016
1002.468750,-10.153463,-13.268934,-5.454498,-12.214520
1002.472656,-14.504726,-3.850765,-9.961275,-9.445456
1002.476562,-12.939201,-12.698262,-10.766096,-11.026625
1002.480469,-4.089288,-11.719199,-6.064405,-11.509798
1002.484375,-13.400653,-12.823010,-8.158817,-9.984334
1002.488281,-1.383966,-10.386305,-8.166327,-10.947338
1002.492188,-8.989339,-6.573897,-2.041585,-9.826453
1002.496094,-6.027512,1.600734,1.552154,-1.618869
1002.500000,-5.163342,0.698984,0.322834,-3.306549
1002.503906,-0.703516,9.653990,6.991952,5.140134
1002.507812,-0.043888,7.705831,-2.450633,3.007273
1002.511719,3.360364,-1.257837,-0.902418,6.395636
1002.515625,10.994042,8.819162,9.591766,2.168017
1002.519531,11.504692,14.358367,9.228627,2.460177
1002.523438,13.820224,7.274200,17.328547,18.632659
1002.527344,3.348111,8.126072,15.856708,7.367961
1002.531250,9.164625,14.450089,6.166495,7.089006
1002.535156,3.231408,3.481246,4.443924,6.493158
1002.539062,6.446151,7.578056,6.647125,3.681657
1002.542969,3.204529,9.748148,8.972199,11.411589
1002.546875,2.355375,4.128641,9.258283,-0.520429
1002.550781,-8.544283,-2.415602,-1.946810,1.828263
1002.554688,-6.018317,1.158211,0.103530,1.864526
1002.558594,-2.087340,-2.853468,-5.470380,-6.358241
1002.562500,-12.747496,-7.067282,-3.458309,-3.929656
1002.566406,-4.410485,-11.636300,-10.179848,-6.350619
1002.570312,-8.082022,-8.073457,-17.611829,-8.628344
1002.574219,-12.098714,-5.314193,-10.049032,-6.265254
1002.578125,-9.547744,-2.216112,-14.126259,-12.739135
1002.582031,-10.248692,-8.041237,-8.188936,-7.953612
1002.585938,-10.034252,-9.825541,-6.664745,-12.487608
1002.589844,-9.039363,-5.682352,-6.882479,-2.108764
1002.593750,-1.700970,-3.191979,-6.723918,-3.510395
1002.597656,9.228826,-4.748377,-2.022422,2.554602
1002.601562,9.345551,0.583485,9.474849,-1.791526
1002.605469,-2.726371,8.355570,3.279306,14.876771
1002.609375,0.840934,2.085584,9.432781,10.983576
1002.613281,7.997898,5.528212,5.859578,5.070472
1002.617188,11.338180,11.493798,12.771788,9.946369
1002.621094,13.940116,12.751776,7.463064,9.223480
1002.625000,10.463690,5.983541,11.467644,20.731547
1002.628906,8.026079,9.435359,15.861688,8.593070
1002.632812,3.684069,7.926555,2.657871,16.781938
1002.636719,10.853548,14.074150,3.230358,7.656805
1002.640625,2.479912,14.931347,4.289443,-3.301237
1002.644531,5.523124,4.869449,8.274580,7.523658
1002.648438,-0.230224,-1.706182,-1.926834,6.537355
1002.652344,-0.105820,-6.059086,3.265166,1.267317
1002.656250,-0.069181,-2.735153,-6.160962,-0.255443
1002.660156,-6.771432,-7.849394,-5.283171,-5.261417
1002.664062,-17.651843,-6.124336,-7.605388,-9.104697
1002.667969,-11.358438,-8.275667,-6.686241,-13.295623
1002.671875,-8.269526,-9.983736,-7.706431,-10.359912
1002.675781,-2.408459,-13.743750,-10.838752,-10.510849
1002.679688,-4.517583,-5.170523,-2.103909,-9.001168
1002.683594,-8.867475,-9.533502,-4.552828,-13.202952
1002.687500,-3.074141,-7.525873,-11.657423,-7.999425
1002.691406,-5.417020,-2.258868,-5.526659,-3.384604
1002.695312,1.301868,-3.187695,0.873215,-8.542609
1002.699219,-1.511503,-4.007761,-4.037137,-1.413849
1002.703125,6.125959,-0.773702,-2.171721,-0.658428
1002.707031,8.145479,9.761198,8.401034,2.034455
1002.710938,-0.858019,1.639047,7.154090,9.109335
1002.714844,0.770549,2.311316,10.229297,2.877101
1002.718750,8.659300,-1.138055,19.375895,4.761353
1002.722656,5.132177,7.774400,6.713825,13.246656
1002.726562,1.971557,10.804944,11.878278,12.349623
1002.730469,16.196381,11.174649,10.543145,9.518034
1002.734375,6.577640,3.707961,3.564263,14.163831
1002.738281,7.796547,-1.504433,13.228533,10.243461
1002.742188,9.165092,-1.511042,3.629892,5.288005
1002.746094,4.397995,3.070039,3.587859,0.256154
1002.750000,8.470278,-2.565304,2.210380,1.946934
1002.753906,4.592809,-1.407272,0.129494,0.280200
1002.757812,-10.491241,-6.018698,-4.258729,-9.589550
1002.761719,-2.391975,0.190343,-1.103618,-9.337744
1002.765625,-6.563120,-11.860078,-3.823426,-6.819876
1002.769531,-5.576908,-4.098083,-15.194175,-19.116839
1002.773438,-11.300540,-9.827282,-10.507504,-12.650821
1002.777344,-12.644667,-15.173105,-7.825832,-8.815644
1002.781250,-5.965887,-5.802770,-9.873732,-7.847410
1002.785156,-9.134190,-1.473382,-2.590598,-8.892037
1002.789062,-3.922048,-12.776941,-9.221204,-5.156141
1002.792969,-6.222028,-1.958820,-7.151038,-9.257933
1002.796875,-3.138899,-1.902746,-0.164796,-6.799493
1002.800781,-0.513311,8.492770,1.983216,0.542904
1002.804688,-2.510158,3.190478,0.312072,1.610108
1002.808594,0.194535,-1.937486,3.687155,9.006172
1002.812500,10.231961,8.426186,5.627594,5.517117
1002.816406,16.109979,8.612669,17.225744,1.298078
1002.820312,7.713272,11.197404,6.982026,15.878714
1002.824219,15.329873,7.321765,14.622630,9.029390
1002.828125,12.501378,8.105098,5.166913,11.671266
1002.832031,5.726748,10.131386,12.465112,12.414969
1002.835938,3.056203,15.531664,6.050073,7.742151
1002.839844,10.464937,7.937075,5.348320,9.778554
1002.843750,4.013089,5.371060,0.303651,5.710252
1002.847656,3.472834,-6.457794,6.611581,5.769497
1002.851562,6.523627,2.367535,-1.068175,0.856341
1002.855469,2.313666,1.052386,-6.691978,-2.343605
1002.859375,1.340510,-4.295649,-10.422777,-8.415608
1002.863281,-8.095446,-6.418559,0.650956,-5.852812
1002.867188,-4.871422,-5.702470,-14.817918,-3.968392
1002.871094,-2.695324,-11.475464,-9.387865,-8.301652
1002.875000,-17.337909,-1.563739,-9.906415,-9.335520
1002.878906,-12.308485,-12.535168,-13.351324,-13.361001
1002.882812,-9.019902,-7.656499,-8.424496,-14.037098
1002.886719,2.292338,-6.006858,-9.193602,-9.001325
1002.890625,-3.610196,-4.368283,-7.956472,-8.480583
1002.894531,-6.063945,4.526500,-2.653517,1.083578
1002.898438,-3.351348,-6.946921,0.651633,-8.904895
1002.902344,4.982503,-1.437916,-1.877748,3.856224
1002.906250,-1.805845,4.137990,4.277464,4.173799
1002.910156,-1.459968,4.518061,4.208089,-2.184806
1002.914062,10.449517,3.673458,12.547834,4.056765
1002.917969,4.924292,5.917149,8.563869,5.706943
1002.921875,9.427438,12.410427,2.377838,8.337476
1002.925781,14.927013,13.071344,8.529556,11.819053
1002.929688,11.583479,8.787241,14.885447,12.269847
1002.933594,3.903702,10.014836,13.139525,13.498395
1002.937500,3.413138,5.164684,4.720517,8.364425
1002.941406,4.705151,3.793482,7.083321,7.462962
1002.945312,4.841614,-0.342982,7.380373,1.728893
1002.949219,1.645334,3.642402,-2.786907,-3.851528
1002.953125,-0.573811,-1.299246,-7.877902,-8.309818
1002.957031,-2.558023,-8.270415,-11.427976,-5.961648
1002.960938,-2.289371,-8.507573,-5.750093,-5.831510
1002.964844,-8.373510,-7.993868,-6.595422,-10.765646
1002.968750,-7.079121,-11.586427,-15.264497,-4.151030
1002.972656,-6.103751,-13.787539,-13.565098,-7.153665
1002.976562,-10.623755,-11.504505,-14.877125,-4.345417
1002.980469,-10.854443,-11.922725,-12.809278,-12.362480
1002.984375,-16.298159,-8.490233,-9.860894,-6.074635
1002.988281,-3.255991,-5.807523,-5.557054,-5.434797
1002.992188,3.934565,-11.481109,-10.910471,-8.769752
1002.996094,4.292576,-1.225066,-4.738346,0.470432
1003.000000,-7.011712,3.707497,3.983823,1.169965
1003.003906,5.424691,6.434283,0.711175,-0.013006
1003.007812,3.697004,3.512843,0.060954,0.959884
1003.011719,1.901852,1.665127,3.033797,11.658932
1003.015625,9.565388,2.570403,4.044577,8.631886
1003.019531,11.771043,16.041755,4.025007,7.607854
1003.023438,10.340733,12.925549,12.857347,7.685381
1003.027344,18.690155,11.973307,18.217057,10.853394
1003.031250,9.266566,10.540190,2.028557,8.652469
1003.035156,1.903639,8.130190,9.508242,8.945959
1003.039062,4.932385,6.206950,-4.649239,6.832984
1003.042969,2.830258,0.421097,6.196724,-0.017011
1003.046875,10.941720,0.395108,-0.557391,-2.668305
1003.050781,5.588045,2.531645,7.437142,-2.269675
1003.054688,-0.856521,2.121327,4.760135,-2.077151
1003.058594,-4.608388,-8.179293,-0.217028,-2.634067
1003.062500,-4.781877,-3.963975,-10.967159,2.090502
1003.066406,-9.660533,-1.470439,-11.638887,-4.799856
1003.070312,-8.726946,-8.026448,-13.177591,-6.748978
1003.074219,-15.747118,-14.628992,-2.657406,-15.247992
1003.078125,-8.686866,-12.304961,-6.748719,-10.507857
1003.082031,-8.319095,-9.020739,-11.045711,-9.694684
1003.085938,-5.534102,-10.339012,-4.958338,-10.857240
1003.089844,-13.271576,-11.276903,-10.468534,-5.619559
1003.093750,-5.252466,-1.937013,-5.412809,-9.029650
1003.097656,0.120054,1.097316,5.200439,-1.301814
1003.101562,8.448075,6.606677,-5.414635,-3.077150
1003.105469,4.724328,8.481588,3.651810,3.063950
1003.109375,15.799221,4.475402,8.310403,10.067690
1003.113281,6.809068,8.109361,10.481178,10.104336
1003.117188,10.660901,7.748112,11.250967,7.580561
1003.121094,17.444665,13.460437,14.099647,7.470844
1003.125000,19.215468,14.997114,6.762313,13.449038
1003.128906,4.128777,9.523856,13.127992,11.987656
1003.132812,10.075834,10.102508,8.886833,11.076855
1003.136719,11.256509,-0.593720,12.433264,8.426967
1003.140625,9.424686,1.050740,6.845956,11.003280
1003.144531,3.606531,-4.395718,16.173552,1.059336
1003.148438,1.361909,-2.266000,2.674970,0.706483
1003.152344,-5.306520,-4.482904,3.177195,-4.077663
1003.156250,-2.991862,-1.811901,-4.373986,1.152269
1003.160156,-9.277845,-10.231708,-7.221293,-4.839404
1003.164062,-4.376223,-3.937232,-6.383027,-4.658296
1003.167969,-13.607870,-9.139519,-5.985779,-14.699547
1003.171875,-11.762159,-12.424485,-14.163933,-9.213526
1003.175781,-6.873095,-7.323305,-8.524272,-5.267021
1003.179688,-16.321022,-16.322138,-10.962835,-6.674490
1003.183594,-4.998294,-4.921490,-4.715807,-5.283334
1003.187500,-3.547183,-3.327835,-9.025252,-10.024626
1003.191406,-7.655673,-0.843897,-4.993464,-4.606389
1003.195312,-3.201876,-0.337114,-3.794327,-3.535578
1003.199219,-4.552221,5.401163,-5.315719,-0.162785
1003.203125,2.613140,9.204900,-1.839454,-4.271320
1003.207031,6.317285,8.025857,0.112319,4.631938
1003.210938,12.989017,2.649836,7.997909,3.504274
1003.214844,11.754782,10.444508,9.443292,7.043069
1003.218750,14.235036,8.158506,10.503999,13.159501
1003.222656,6.843023,7.683480,16.360263,13.438755
1003.226562,11.427489,13.135655,10.147600,1.342740
1003.230469,8.258085,10.745338,5.848593,5.156411
1003.234375,16.674513,9.790596,10.059257,5.043908
1003.238281,6.301546,2.994383,-0.169090,5.779243
1003.242188,1.616067,4.732221,4.224853,1.478461
1003.246094,2.726450,5.742075,1.719650,3.808252
1003.250000,-3.303454,-0.654847,-2.439863,1.495032
1003.253906,0.321655,-4.550631,-4.597346,2.982321
1003.257812,-3.489618,-11.622484,-4.975736,1.508379
1003.261719,-12.996111,-11.925583,-6.959701,-11.485855
1003.265625,-7.157958,-12.869462,-5.543752,-11.098879
1003.269531,-8.241870,-12.113317,-5.092067,-7.411554
1003.273438,-16.228930,-12.814529,-12.870356,-10.487802
1003.277344,3.074336,-9.819753,-7.643589,-15.712176
1003.281250,-15.581948,-7.028983,-12.423155,-13.538381
1003.285156,-10.798256,-6.996209,-0.934738,-9.644377
1003.289062,-0.030273,-8.271601,-5.364930,-5.644209
1003.292969,-2.635640,-0.410653,-2.627323,-11.607760
1003.296875,0.948902,1.781190,-1.307181,1.200816
1003.300781,2.127130,1.452635,13.626342,3.192366
1003.304688,1.311224,6.250618,7.662749,-1.722161
1003.308594,8.248336,4.260053,10.864272,6.544993
1003.312500,2.516252,6.382782,7.494695,7.022122
1003.316406,8.202954,7.338002,4.627477,5.231417
1003.320312,15.702142,11.295189,8.557561,12.055549
1003.324219,17.335809,5.706310,9.313436,7.361560
1003.328125,6.873657,18.639595,10.728178,3.806104
1003.332031,9.255085,5.697882,5.758572,6.013180
1003.335938,8.209772,5.573468,7.837842,7.474593
1003.339844,9.575290,14.400317,1.948610,11.888646
1003.343750,4.890956,-0.149851,-0.299302,-0.088894
1003.347656,9.446656,-2.996625,4.368982,-2.046362
1003.351562,-0.480782,-2.712552,-1.444397,0.862332
1003.355469,-3.379143,5.396954,1.135271,-2.049534
1003.359375,-8.050888,-5.349891,-10.491678,-7.845295
1003.363281,-0.925103,-4.282836,-1.929607,-6.725910
1003.367188,-9.515583,-13.379393,-13.787233,-13.915492
1003.371094,-3.138178,-10.934646,-7.441066,-13.050738
1003.375000,-7.738245,-15.313793,-13.754193,-18.801960
1003.378906,-5.370833,-3.416172,-9.176678,-6.575473
1003.382812,-13.252365,-9.158289,-11.624193,-9.477228
1003.386719,-9.740156,-9.551418,-7.710640,-5.110812
1003.390625,-8.412859,5.110673,-0.967656,-0.165648
1003.394531,-2.765057,-1.163604,-7.551166,0.339802
1003.398438,-7.881088,5.267881,4.753484,-1.079253
1003.402344,0.176496,3.218492,2.324925,0.159971
1003.406250,9.714341,1.114628,6.503404,3.379723
1003.410156,2.569838,-2.505528,2.507235,0.374060
1003.414062,12.234803,6.297068,7.794240,6.248133
1003.417969,7.934173,3.770518,9.494863,9.417604
1003.421875,2.589037,16.174399,17.091444,3.952133
1003.425781,7.151244,9.263107,12.859525,7.407344
1003.429688,5.281769,12.878442,3.315566,13.468650
1003.433594,11.296954,14.177560,2.484998,8.955077
1003.437500,2.336493,7.359671,5.478005,8.836761
1003.441406,-1.891282,1.370703,3.024852,8.375862
1003.445312,2.181748,3.581329,6.217599,7.384992
1003.449219,5.349877,5.163011,-4.614354,-0.028639
1003.453125,0.202255,-0.860853,-1.483556,-3.948344
1003.457031,-9.837497,-1.906563,-2.417517,-0.384960
1003.460938,-1.677047,-3.864699,-15.398527,-6.163323
1003.464844,-3.497669,-9.503155,-10.833526,-8.570451
1003.468750,-8.760833,-11.773586,-7.707934,-14.063445
1003.472656,-9.763646,-7.245700,-8.679768,-16.701402
1003.476562,-5.193044,-12.460074,-12.636653,-5.206875
1003.480469,-7.800255,-12.187662,-7.278832,-11.237435
1003.484375,-8.436603,-6.050390,-14.744387,-8.812601
1003.488281,-7.220077,-3.872901,-4.592630,-3.987900
1003.492188,-7.095122,0.095792,-3.035031,-3.124524
1003.496094,-4.540587,-12.229864,-3.194460,-1.331815
1003.500000,3.783233,-7.856098,-1.896639,2.576927
1003.503906,-1.588949,3.948526,4.531487,5.628778
1003.507812,6.527450,2.378141,7.252267,1.854114
1003.511719,12.025869,2.111244,11.994311,2.240972
1003.515625,3.372262,11.810653,6.614259,11.824596
1003.519531,7.428308,6.281847,17.047463,5.015385
1003.523438,2.375602,12.700568,8.652432,20.784571
1003.527344,5.944085,-1.075432,7.997101,16.285696
1003.531250,9.772023,11.618559,3.713451,12.455301
1003.535156,1.134089,8.015584,7.905537,3.676222
1003.539062,9.745374,0.851279,-1.777291,6.895982
1003.542969,6.814812,8.582206,2.561816,1.288178
1003.546875,-1.170969,6.750406,0.556426,4.126037
1003.550781,-2.020392,4.182663,-3.676204,-1.855229
1003.554688,-1.389165,-10.149716,-8.213167,-1.464851
1003.558594,-8.966437,-3.461502,-6.008978,2.791421
1003.562500,-3.665387,-5.562769,-7.473941,-5.301855
1003.566406,-11.234893,-5.205341,2.941449,-2.386801
1003.570312,-8.622534,-13.756058,-11.798431,-10.483742
1003.574219,-17.653782,-10.912086,-15.092226,-9.271423
1003.578125,-14.541450,-6.484936,-6.298845,-4.110037
1003.582031,-5.830655,-7.534402,-5.981591,-7.006923
1003.585938,-12.521018,-6.695598,-8.394540,-6.936232
1003.589844,-5.460584,-1.809208,-7.419075,-2.820011
1003.593750,0.789041,-1.544467,5.115450,-0.598745
1003.597656,-4.377797,-7.927511,-5.841136,-5.972529
1003.601562,6.400857,2.377468,0.982734,-5.966332
1003.605469,-0.399553,-2.725947,-2.509645,7.866245
1003.609375,2.496964,6.853411,3.615643,8.012873
1003.613281,15.303727,9.825989,13.116800,10.134673
1003.617188,14.254232,1.358783,16.502193,8.613029
1003.621094,4.207126,11.673686,15.261314,9.616725
1003.625000,13.208302,12.062144,6.037239,10.554675
1003.628906,10.245363,9.266662,14.309112,12.061173
1003.632812,5.241486,14.464105,11.601813,3.616042
1003.636719,6.862933,6.067261,2.737080,8.261917
1003.640625,6.065859,10.430788,2.635449,15.683108
1003.644531,12.080562,6.961918,2.211567,0.038154
1003.648438,7.634297,6.871825,4.838953,3.595816
1003.652344,-0.627027,-2.296443,-0.702822,-5.105072
1003.656250,-8.101730,-3.765181,-7.207338,-2.658497
1003.660156,-4.677442,-6.606529,-3.669899,-8.260400
1003.664062,-6.823765,-0.799447,-8.305892,-7.622997
1003.667969,-8.509191,-10.180374,-8.046623,-18.987957
1003.671875,-11.516884,-4.822074,-13.771311,-10.908330
1003.675781,-3.112518,-14.494509,-18.562801,-7.207938
1003.679688,-10.710099,-6.327357,-8.042356,-4.053243
1003.683594,-7.264710,-9.983500,-11.361494,-6.396421
1003.687500,-12.867609,-4.752123,-9.030420,-4.929570
1003.691406,-2.102372,-1.659493,-3.443193,-3.852896
1003.695312,-5.881899,-4.806753,-0.329441,-8.554622
1003.699219,-3.777061,0.632215,2.626355,-2.783328
1003.703125,8.527283,4.763525,4.841063,3.342042
1003.707031,5.056001,1.354246,7.781380,7.393125
1003.710938,6.219700,2.509880,6.588240,7.174422
1003.714844,3.368836,13.125290,12.694007,9.162841
1003.718750,5.997384,9.455089,10.304158,14.241322
1003.722656,18.403762,7.957833,17.475735,15.993376
1003.726562,12.343619,13.858958,13.712494,4.380515
1003.730469,12.240423,2.159464,17.920848,9.052194
1003.734375,9.639972,6.521755,3.548071,7.215993
1003.738281,12.917348,11.654898,6.718280,9.474477
1003.742188,7.430897,3.231484,9.061457,5.396148
1003.746094,4.654379,4.955210,3.489768,3.173779
1003.750000,0.138560,-2.422602,-7.130491,4.360674
1003.753906,0.277746,-2.795623,-2.902022,0.561538
1003.757812,-15.410110,-7.110822,-8.114776,-6.241118
1003.761719,-11.949854,-7.978167,-0.716087,-15.314015
1003.765625,-8.923636,-7.280605,-5.056477,-6.132999
1003.769531,-9.747298,-12.365154,-8.870166,-5.059954
1003.773438,-10.758172,-4.435769,-9.133884,-11.593560
1003.777344,-12.532009,-4.738470,-7.187373,-9.526534
1003.781250,-4.047554,-11.790661,-9.462334,-15.171319
1003.785156,-3.009682,-8.113002,-6.169998,-11.234235
1003.789062,-14.277595,-5.628882,-5.034944,-0.278230
1003.792969,-4.499346,-6.592927,-6.438650,-6.949979
1003.796875,1.650490,4.231347,3.918519,-1.295857
1003.800781,-2.209089,-5.323391,5.565468,6.319435
1003.804688,3.241739,0.733935,-2.435174,6.598677
1003.808594,2.028180,8.708297,1.904064,4.500107
1003.812500,6.859424,12.320977,10.742033,3.362820
1003.816406,14.578328,14.581440,6.520987,7.414440
1003.820312,12.647365,8.153609,11.093074,17.911409
1003.824219,3.280009,22.563587,7.959305,4.150700
1003.828125,13.050736,7.489063,4.643678,6.547578
1003.832031,12.429283,8.239508,3.723695,10.574631
1003.835938,10.659669,13.987922,4.404286,9.052919
1003.839844,2.688364,-2.276223,4.185812,13.288135
1003.843750,-0.365364,-5.391394,-1.277933,-1.331163
1003.847656,1.558529,1.253770,-3.986371,5.553966
1003.851562,1.896297,-1.349008,-2.470247,-1.137645
1003.855469,3.124443,0.072652,-0.492860,-1.498356
1003.859375,-4.744608,-3.238354,-6.816592,-5.952854
1003.863281,-1.197612,-12.698662,-9.144562,-3.656736
1003.867188,-9.585899,-14.292292,-13.008037,-7.418432
1003.871094,-18.595392,-9.204154,-15.315884,-10.899116
1003.875000,-9.985749,-11.083819,-7.181307,-5.432577
1003.878906,-16.785353,-6.851369,-7.856822,-9.639368
1003.882812,-7.473754,-8.957561,-8.641326,-3.654167
1003.886719,-5.999837,-9.163431,-8.511976,-6.400963
1003.890625,-5.308227,-7.332892,2.837420,-10.825524
1003.894531,-2.106846,-11.404605,-0.825274,2.472292
1003.898438,-3.900614,2.124510,3.628659,7.725186
1003.902344,-0.912344,-4.543948,5.124804,-1.525278
1003.906250,6.459157,0.061386,-3.121891,7.537797
1003.910156,1.088048,8.301629,1.249874,6.262912
1003.914062,6.763407,6.349393,9.973351,4.259104
1003.917969,9.090707,14.505337,9.926834,9.445010
1003.921875,9.284776,8.480980,4.536886,7.379935
1003.925781,15.042605,19.874068,10.919679,13.937184
1003.929688,7.019937,16.548461,11.021708,10.513355
1003.933594,3.126165,8.920988,8.745403,5.056300
1003.937500,5.146173,-0.533320,6.421995,8.493708
1003.941406,4.928041,-1.499100,-0.516663,3.386584
1003.945312,0.487016,2.612666,0.316518,5.056177
1003.949219,2.451671,0.611284,0.375434,-0.084180
1003.953125,-5.271642,4.954202,-1.076768,-0.392004
1003.957031,-4.613879,-6.327963,-4.897493,2.296337
1003.960938,-10.835166,-5.677358,-2.325699,-9.713993
1003.964844,-5.569916,-9.160424,-13.353311,-10.232693
1003.968750,-4.736396,-8.971619,-8.683871,-13.820138
1003.972656,-1.673956,-11.394052,-8.018928,-2.768188
1003.976562,-5.066319,-9.965904,-4.962086,-11.173577
1003.980469,-5.336956,-11.788986,-11.595204,-8.926986
1003.984375,-9.153593,-6.514985,-11.752025,-11.083175
1003.988281,-9.869504,-10.338029,-9.760193,-7.605150
1003.992188,-8.589773,-1.723564,-0.171756,-10.713941
1003.996094,-7.862455,-1.036774,-5.072800,-4.188181
1004.000000,2.141517,-2.099229,-4.546385,-4.480712
1004.003906,2.689396,-4.918023,-1.189979,3.856101
1004.007812,5.651748,-0.494352,9.464866,3.837826
1004.011719,11.128849,7.018479,3.209422,7.455751
1004.015625,9.775210,5.922186,8.150410,1.066669
1004.019531,12.041067,10.639021,12.016950,14.411438
1004.023438,7.100995,10.224680,7.309176,10.307549
1004.027344,13.879153,10.571646,14.851065,11.153381
1004.031250,13.175872,6.371058,11.663667,7.633935
1004.035156,4.153023,8.259303,9.098662,5.593272
1004.039062,8.920472,6.853105,10.164321,3.350042
1004.042969,3.054887,10.590022,2.651198,8.412456
1004.046875,-12.470372,0.400966,1.279888,4.024516
1004.050781,0.819724,0.293868,-4.151656,5.180356
1004.054688,0.990360,0.473010,1.917786,-3.020526
1004.058594,-10.519968,-3.330653,1.284903,-9.705950
1004.062500,-4.112766,-6.715479,-9.907272,-6.062377
1004.066406,-4.323994,-15.811882,-6.862459,-15.094255
1004.070312,-13.198715,-14.469387,-3.662895,-9.601794
1004.074219,-13.507140,-6.669920,-6.503056,-15.549942
1004.078125,-12.386578,-11.056040,-5.504079,-2.817557
1004.082031,-14.630454,-7.673624,-9.572764,-5.033552
1004.085938,-4.184710,-11.798733,-11.316977,-7.320570
1004.089844,-2.961694,-1.155499,-8.169661,-4.460464
1004.093750,-2.975843,-0.758083,-1.410839,0.738329
1004.097656,-0.250355,0.160678,-1.718341,-3.528032
1004.101562,3.292044,0.092474,11.875842,2.524980
1004.105469,2.121209,-3.361380,6.918994,-2.385013
1004.109375,9.326066,4.577740,3.350575,-0.287840
1004.113281,4.592555,3.703356,5.261098,-1.242070
1004.117188,13.678137,8.572604,11.961097,14.038250
1004.121094,12.688749,3.314086,4.223176,10.924280
1004.125000,10.963727,6.500990,6.997038,8.612343
1004.128906,12.332190,6.781783,9.728057,11.729229
1004.132812,3.759762,2.678234,8.168614,13.034069
1004.136719,7.980903,1.625843,8.549817,7.786333
1004.140625,-0.067345,6.000912,4.208978,-0.743689
1004.144531,-0.182900,8.570892,0.517629,-2.296050
1004.148438,1.906562,4.245155,3.519232,1.761723
1004.152344,-2.516435,-5.911467,-5.619754,5.650574
1004.156250,-5.814672,-3.680819,-4.170672,1.537497
1004.160156,-8.656553,-8.602344,-1.018084,-12.813146
1004.164062,-4.233039,-7.368232,-4.927154,-5.193693
1004.167969,-5.791992,-7.407990,-13.836712,-11.852498
1004.171875,-13.085048,-4.997731,-12.636393,-4.185587
1004.175781,-9.587351,-6.670865,-8.181168,-4.463615
1004.179688,-12.346867,-11.564969,-9.080278,-5.735625
1004.183594,-8.149196,-10.936922,-9.520627,-6.741777
1004.187500,-14.509090,-5.427795,-5.225068,-8.274797
1004.191406,-1.997450,-6.709733,0.880801,-1.754837
1004.195312,-3.526620,-4.237460,-2.650517,-7.949192
1004.199219,-5.494210,-0.437991,0.737294,-7.117042
1004.203125,-0.131661,-1.599896,-1.797400,1.708983
1004.207031,7.991182,1.184286,10.543505,8.953996
1004.210938,8.104135,3.921110,14.001312,11.469348
1004.214844,3.225751,12.291833,11.572389,8.026757
1004.218750,4.554261,5.086440,5.380747,9.166063
1004.222656,9.602208,9.494262,14.993878,8.062754
1004.226562,8.117155,9.655041,11.932590,12.957362
1004.230469,6.575682,11.137714,8.655132,4.878793
1004.234375,9.941645,12.857833,9.810170,8.254596
1004.238281,8.978223,5.274974,8.009004,6.919724
1004.242188,14.355633,2.479533,2.259302,5.852974
1004.246094,4.724670,3.083063,1.911563,-1.121426
1004.250000,3.526262,3.679519,-7.209791,-3.389694
1004.253906,-5.986586,-7.767928,-0.192452,5.876606
1004.257812,-11.048387,-4.944955,-5.780007,-5.366841
1004.261719,-7.352398,-5.489606,-5.475817,2.199743
1004.265625,-6.899239,-4.250493,-13.881475,-4.946215
1004.269531,-1.556162,-7.903409,-7.840239,-13.065031
1004.273438,-8.948069,-7.468166,-3.438332,-11.272109
1004.277344,-9.774598,-8.960210,-4.126282,-11.048951
1004.281250,-7.243178,-11.176375,-13.444707,-10.372661
1004.285156,-8.725222,-8.529478,-3.650808,-9.518880
1004.289062,-13.124951,-9.230286,-9.184893,-7.327120
1004.292969,-3.858358,-7.782792,-8.624742,-2.211304
1004.296875,-5.845582,-7.506188,-7.253519,2.399098
1004.300781,1.868761,5.096992,1.564115,-3.587512
1004.304688,-0.455989,5.320119,4.159317,6.645714
1004.308594,-0.630224,0.866357,7.641579,8.151432
1004.312500,9.809515,14.443854,6.535418,12.829473
1004.316406,6.909019,-6.466429,1.060843,10.938828
1004.320312,3.034928,10.062041,10.957750,-1.023593
1004.324219,5.481621,5.523487,10.109684,13.679369
1004.328125,10.416029,13.961671,14.763561,4.367710
1004.332031,15.534567,9.456563,3.761071,9.562260
1004.335938,10.468281,6.767190,7.978672,7.250702
1004.339844,6.304631,10.206451,5.867025,8.250466
1004.343750,6.880967,5.937607,6.970629,-2.442671
1004.347656,0.648867,-5.896503,8.488497,2.991008
1004.351562,-4.104708,-1.416203,2.632740,4.000138
1004.355469,-5.204109,-7.296115,-9.576146,-1.132365
1004.359375,-10.996416,-8.832039,-7.977887,-8.382495
1004.363281,-8.820303,-4.599524,-6.194920,-5.053634
1004.367188,-8.756512,-9.860014,-3.644384,-13.085827
1004.371094,-10.134831,-14.593913,-7.099122,-14.829144
1004.375000,-13.134908,-7.497109,-19.273855,-5.538993
1004.378906,-11.141248,-12.018993,-8.630162,-15.558650
1004.382812,-6.404452,-12.669648,-5.993606,-12.814432
1004.386719,-7.400248,-8.264562,-13.040666,-7.067853
1004.390625,-8.178623,-18.884605,-3.755957,-8.426086
1004.394531,-1.827202,-3.665070,-0.944173,-7.792759
1004.398438,-1.549410,1.195270,-2.593618,-1.951246
1004.402344,-4.151667,-0.043037,4.204059,-0.326209
1004.406250,7.491607,6.356584,3.899997,5.383388
1004.410156,0.113079,1.980415,4.634291,9.331564
1004.414062,13.413910,7.610893,10.714135,8.586521
1004.417969,9.758535,8.807664,5.501269,11.161901
1004.421875,4.936558,12.501589,5.590713,10.169090
1004.425781,8.445416,8.688187,12.864459,5.635134
1004.429688,9.254322,9.013427,3.646591,3.415556
1004.433594,5.676198,13.097270,11.005399,7.337813
1004.437500,3.666769,4.425438,13.217562,6.254546
1004.441406,5.036100,3.549301,6.295642,8.797995
1004.445312,0.387038,15.003936,-1.087304,-1.418495
1004.449219,-1.933374,4.124839,-3.392900,2.738073
1004.453125,-5.011327,-2.918509,0.180015,0.102276
1004.457031,0.636522,-11.148076,-3.189516,-2.817739
1004.460938,-2.936771,-6.104806,-9.248843,-8.149847
1004.464844,-5.785754,-7.470389,-11.278436,-4.971887
1004.468750,-11.807339,-6.128986,-4.948622,-9.326142
1004.472656,-10.097452,-10.155809,-2.710294,-8.571771
1004.476562,-15.461725,-8.703711,-16.792183,-10.517896
1004.480469,-1.428391,-6.246780,-6.974726,-3.561151
1004.484375,-5.624526,-12.675870,-10.991227,-6.744767
1004.488281,-6.683528,-8.103542,-13.069410,2.441836
1004.492188,-3.104643,-1.186289,0.285869,-2.377355
1004.496094,-5.628858,-1.768668,0.746754,-1.946544
1004.500000,7.416616,-1.028702,-6.273439,-1.048363
1004.503906,-1.469563,2.071556,0.648994,-1.666158
1004.507812,7.044323,2.079030,7.981240,2.934657
1004.511719,1.707288,5.875898,11.657456,0.654598
1004.515625,12.929359,5.459120,1.532497,11.349497
1004.519531,10.072157,4.518036,17.271431,9.544837
1004.523438,6.716475,9.138373,5.219963,5.722246
1004.527344,12.033269,15.401381,9.654770,16.356591
1004.531250,7.540603,8.188626,3.415527,8.262674
1004.535156,8.599905,10.175500,7.208798,9.524881
1004.539062,8.094908,11.864157,4.535763,7.514467
1004.542969,0.855334,0.183057,2.140700,7.259370
1004.546875,2.825207,1.345211,-0.321484,0.872669
1004.550781,1.038338,-3.767779,-7.428577,-2.754722
1004.554688,-7.184491,1.076777,-1.370951,-9.089030
1004.558594,-5.938670,-7.099150,3.654353,-1.479744
1004.562500,-9.307664,-7.397246,-7.759591,-5.929656
1004.566406,-11.191385,-8.623109,-11.566064,-11.930582
1004.570312,-16.128887,-8.021059,-6.208250,-5.646394
1004.574219,-12.050682,-6.608069,-13.581018,-8.270691
1004.578125,-2.061443,-3.854945,-4.659040,-12.044646
1004.582031,-8.507768,-7.290099,-8.212951,-9.006538
1004.585938,-6.974668,-9.574462,-5.956651,-17.646092
1004.589844,-6.744247,-1.330266,-14.606135,0.946646
1004.593750,-1.355772,-8.564534,-2.195472,-5.229465
1004.597656,-3.271071,-2.303354,2.191156,-0.471303
1004.601562,2.325671,3.131542,0.088446,1.479164
1004.605469,7.433745,5.979961,6.634998,2.023052
1004.609375,5.442094,0.180620,7.435158,8.831854
1004.613281,4.990432,10.477952,13.851707,9.535194
1004.617188,12.094384,3.465392,10.096295,7.666680
1004.621094,12.155006,13.884975,10.921519,7.636259
1004.625000,9.622047,13.695112,7.554899,14.755968
1004.628906,10.767213,9.069027,6.854456,5.752553
1004.632812,9.698878,15.007045,5.890280,2.775523
1004.636719,11.544266,9.818457,5.899759,6.505767
1004.640625,-3.443617,5.100496,11.364279,7.824668
1004.644531,1.553576,10.094641,1.390005,4.264435
1004.648438,-4.748830,1.044960,0.477661,-0.398105
1004.652344,-3.823998,-10.544260,-4.870981,0.488313
1004.656250,-8.298502,-2.632669,-3.248112,-2.096932
1004.660156,-6.242360,-10.554279,-2.826599,-4.965331
1004.664062,-4.367406,-10.533018,-7.830062,-9.850338
1004.667969,-8.797007,-8.614154,-15.630650,-12.269379
1004.671875,-13.114643,-17.308192,-15.299419,-7.455472
1004.675781,-11.830522,-8.028701,-17.139474,-10.271751
1004.679688,-15.623936,-7.278490,-13.740016,-9.559344
1004.683594,-11.827423,-14.983769,-5.624823,-11.681177
1004.687500,-3.838315,-15.114097,-10.585395,-9.291396
1004.691406,-1.242114,-7.669149,-5.643178,-11.961281
1004.695312,-3.499259,-7.246269,0.560876,-3.708662
1004.699219,4.114843,-2.214821,-3.071643,11.471319
1004.703125,4.921835,-3.029708,-2.553935,4.564969
1004.707031,8.555994,6.543696,0.576938,2.362817
1004.710938,0.671352,0.763327,9.440509,12.268123
1004.714844,5.312774,3.882424,17.915099,7.398357
1004.718750,13.738842,11.548311,5.287628,4.927465
1004.722656,10.889136,11.302021,15.871216,15.164807
1004.726562,8.094011,6.039700,1.935908,7.512931
1004.730469,3.906391,6.892313,16.715919,16.388631
1004.734375,6.153854,2.735413,6.068097,-0.957972
1004.738281,2.616064,3.158808,4.895332,14.092138
1004.742188,10.846805,-4.718950,11.459686,-1.931491
1004.746094,2.242884,0.939606,-0.902677,4.377412
1004.750000,2.288832,-0.195924,-0.086270,-2.329539
1004.753906,-5.299119,6.708519,3.524672,-2.349684
1004.757812,-7.455918,-3.417318,-0.447038,-3.218441
1004.761719,-8.979916,0.546358,-1.211521,-9.456717
1004.765625,-10.575088,-6.842342,-5.390427,-3.547523
1004.769531,-11.564179,-11.050582,-8.706521,-14.483847
1004.773438,-7.235396,-15.371728,-10.829652,-2.995379
1004.777344,-6.589792,-12.800705,-10.235023,-12.633863
1004.781250,-10.730298,-9.916246,-10.814795,-7.830724
1004.785156,-4.367164,-4.791894,-13.931904,-3.736919
1004.789062,-6.393371,-2.802414,-0.976564,-3.729236
1004.792969,-10.825032,-4.819800,-4.299536,5.211362
1004.796875,-7.982913,-2.267784,-2.059509,-2.479168
1004.800781,-3.601782,3.368703,3.797645,-5.554192
1004.804688,4.830547,-0.274692,-3.975271,0.817567
1004.808594,3.016882,5.633409,4.809095,9.592297
1004.812500,13.231972,12.708818,14.667323,5.973179
1004.816406,6.578294,3.004547,5.917558,2.769268
1004.820312,3.943144,8.998508,16.009049,17.724811
1004.824219,9.461024,12.220620,11.509379,8.105048
1004.828125,6.574842,5.101136,18.342173,7.706813
1004.832031,9.723508,15.844542,17.064659,7.868856
1004.835938,8.456951,14.820967,11.858223,7.890177
1004.839844,8.625141,10.672654,7.637787,14.684772
1004.843750,4.593529,6.390486,10.152274,0.291359
1004.847656,-6.267737,4.011712,-3.394067,1.667375
1004.851562,3.125395,3.017196,0.862734,2.028838
1004.855469,-2.231056,-5.389115,-1.010278,-7.023861
1004.859375,-5.101835,-3.155483,-7.218062,-3.939712
1004.863281,-7.139410,-2.563000,-5.875843,-8.786465
1004.867188,-11.878569,-9.206420,-20.359082,-4.878784
1004.871094,-8.280826,-11.304855,-16.164460,-4.111005
1004.875000,-5.369088,-5.894066,-8.285878,-0.190446
1004.878906,-11.183433,-11.980624,-5.651173,-4.727647
1004.882812,-12.237187,-4.525116,-6.872146,-9.215724
1004.886719,-0.205152,-0.703425,-14.764614,-8.547609
1004.890625,-7.831135,-8.141460,-5.558963,-9.426121
1004.894531,-2.775520,0.794762,-9.288365,-3.541588
1004.898438,-1.579294,2.893320,5.961972,2.328310
1004.902344,5.022150,2.791309,-4.656221,-3.652008
1004.906250,3.136401,0.869217,2.038352,4.491591
1004.910156,4.687488,-6.106073,2.311969,5.861522
1004.914062,7.353418,9.316668,12.160376,7.266914
1004.917969,10.398727,6.509901,10.190235,5.545359
1004.921875,12.786244,10.921160,9.466450,6.514557
1004.925781,6.545919,12.801767,12.158501,3.625061
1004.929688,12.887783,10.566787,6.900300,5.453315
1004.933594,9.297908,6.448177,5.435725,15.838795
1004.937500,7.185647,2.196292,9.192001,14.932541
1004.941406,5.301698,9.438590,3.391419,-2.661793
1004.945312,7.053267,-0.883670,1.681967,1.154712
1004.949219,-3.302253,2.398903,3.765925,0.125020
1004.953125,-6.732575,-1.787160,1.346911,6.373867
1004.957031,-0.205584,-0.957321,-1.612729,-6.877568
1004.960938,-9.866582,-3.085770,-9.152083,-2.878040
1004.964844,-10.911653,-9.457960,-8.438691,-10.821473
1004.968750,-14.341936,-11.844376,-13.964052,-15.599965
1004.972656,-4.905487,-9.368339,-12.167648,-11.094653
1004.976562,-8.569230,-13.313910,-12.484641,-8.916308
1004.980469,-11.334430,-10.054101,-9.432675,-11.519141
1004.984375,-15.130293,-7.735592,-1.065846,-6.320324
1004.988281,-1.921779,-6.774728,-5.854137,-6.380796
1004.992188,-7.893118,-7.805278,-4.795307,-3.900049
1004.996094,1.969457,-4.272935,2.521775,-8.330437
1005.000000,-3.083828,2.970371,-6.918271,-7.762620
1005.003906,2.287930,1.560458,3.901952,6.456066
1005.007812,8.368646,-1.232497,6.056182,13.301271
1005.011719,4.320793,11.417791,7.259088,3.941305
1005.015625,7.734518,0.292914,11.487945,15.058346
1005.019531,12.659970,10.888830,10.814520,12.908807
1005.023438,9.192634,7.596281,5.717762,1.862855
1005.027344,6.748246,14.613745,10.072702,16.346984
1005.031250,11.651011,7.773792,7.649046,16.717505
1005.035156,0.414850,13.463857,-0.084091,16.401690
1005.039062,7.663396,6.850160,4.514048,12.625226
1005.042969,1.606101,2.206366,-3.404253,5.542608
1005.046875,3.589146,11.387878,-4.042873,1.695971
1005.050781,-7.636928,-8.219372,3.264373,6.178129
1005.054688,-10.773803,-7.200070,-11.882972,-9.446939
1005.058594,-3.571188,-6.823066,-2.503655,-6.988977
1005.062500,-8.061925,-5.644779,-8.679488,-10.399407
1005.066406,-9.057126,-10.687393,-8.320019,-6.112139
1005.070312,-5.634459,-8.998083,-7.990655,-7.902640
1005.074219,-8.144271,-3.837419,-8.061725,-5.932265
1005.078125,-5.733900,-11.010066,-7.877785,-11.583607
1005.082031,-3.390103,-5.258338,-13.989462,-6.239890
1005.085938,-13.266964,0.857144,-4.976063,-14.746429
1005.089844,-2.239818,2.395467,-7.847417,-4.847154
1005.093750,0.073010,0.115522,-4.696476,-9.837477
1005.097656,-3.276283,-11.321641,1.548874,1.431184
1005.101562,0.559289,4.827869,1.769182,-0.532520
1005.105469,-0.743149,13.344343,1.810603,10.023866
1005.109375,-0.425300,7.314314,11.507656,7.070962
1005.113281,3.904694,3.957168,14.521471,12.165267
1005.117188,11.636459,17.386052,8.304928,12.337485
1005.121094,6.091530,5.769496,11.882489,9.156180
1005.125000,14.226745,11.768235,5.909520,13.346028
1005.128906,4.338122,16.144057,2.434066,9.716272
1005.132812,4.142775,9.422523,12.005177,13.517051
1005.136719,12.733215,2.605278,10.631712,1.585225
1005.140625,8.003209,7.794408,7.858394,5.248200
1005.144531,4.550550,0.123666,4.045464,2.276613
1005.148438,6.805089,-2.021005,2.162027,4.468083
1005.152344,-8.797882,-2.023831,-6.836362,4.366188
1005.156250,-3.735795,3.234141,-6.105479,-3.967986
1005.160156,-1.459559,-4.482340,-5.646103,-5.616905
1005.164062,-7.332254,-13.243682,-6.499719,-12.535037
1005.167969,-10.158923,-9.226761,-14.176279,-17.286835
1005.171875,-8.360844,-8.466690,-17.245373,-15.090065
1005.175781,-12.508052,-3.514876,-9.737365,-13.175017
1005.179688,-10.521308,-8.590169,-11.270384,-9.449107
1005.183594,-11.593264,-9.252273,-12.472481,-4.153722
1005.187500,-6.532504,-6.135453,-10.280673,-6.110832
1005.191406,-5.291619,-5.199306,1.672633,0.501296
1005.195312,5.132584,0.369334,-0.145954,-1.037126
1005.199219,0.858624,-3.026367,-5.221701,-1.098698
1005.203125,-1.305562,8.402309,8.077419,2.146263
1005.207031,8.664597,-0.634089,5.139037,1.612319
1005.210938,7.215765,7.802918,7.656032,7.773267
1005.214844,5.339297,10.897987,7.492382,2.565621
1005.218750,9.491408,0.275121,6.630286,7.272345
1005.222656,7.889235,8.466946,4.040211,12.122772
1005.226562,6.888500,12.044172,10.456513,11.822198
1005.230469,19.384336,12.792610,7.774848,3.857223
1005.234375,11.875727,4.821694,8.148740,8.961214
1005.238281,2.184207,7.874608,14.425619,2.833223
1005.242188,2.155903,2.784298,7.219864,6.391009
1005.246094,7.880981,9.386645,8.367161,4.129891
1005.250000,3.427272,1.487346,-1.028283,2.782239
1005.253906,-0.685408,-3.699538,-2.551075,4.309903
1005.257812,-1.147670,-6.147884,-2.963652,-8.053162
1005.261719,-7.208522,-0.445133,-0.505269,-8.743301
1005.265625,-10.040716,-9.809096,-7.626050,-9.700137
1005.269531,-13.200126,-5.601667,-6.486864,-8.300872
1005.273438,-10.621014,-6.176800,-10.664578,-9.196972
1005.277344,-13.390752,-10.585237,-6.983541,-7.793594
1005.281250,-8.484011,-10.338355,-7.581801,-9.239027
1005.285156,-0.596835,-14.897327,-11.753576,-0.128689
1005.289062,-6.869151,-9.204955,-5.808620,-2.542535
1005.292969,-6.307371,-4.520037,-1.808505,-0.841563
1005.296875,-2.930952,0.927381,0.000045,-0.369371
1005.300781,1.718163,0.245676,0.264288,5.305113
1005.304688,3.269333,3.929549,5.044273,0.266351
1005.308594,5.791949,1.879152,2.209461,3.921256
1005.312500,7.273384,0.137693,9.473138,8.745148
1005.316406,7.633220,12.417794,1.202135,8.112880
1005.320312,14.259114,10.665938,9.950088,9.213954
1005.324219,9.808474,5.151143,9.764443,1.750513
1005.328125,9.499671,14.650721,8.596472,20.178260
1005.332031,5.592111,7.649941,3.810164,7.861237
1005.335938,3.827266,7.440641,6.288278,9.179996
1005.339844,3.596938,3.879171,5.290224,5.595955
1005.343750,8.821268,-1.999815,0.706169,0.491461
1005.347656,3.378856,4.265217,9.943341,3.424210
1005.351562,-6.431121,-0.485208,-3.608923,-9.258379
1005.355469,0.806886,-8.998686,-5.147848,-4.858788
1005.359375,-8.259321,-3.861129,-0.273831,-6.775808
1005.363281,-6.085271,-6.021307,-8.248725,-6.873317
1005.367188,-7.988016,-11.789789,-6.341977,-9.456186
1005.371094,-10.925917,-6.822780,-3.891312,-8.714202
1005.375000,-15.887751,-9.582945,-20.085288,-6.746005
1005.378906,-12.188281,-8.342849,-5.716719,-8.200835
1005.382812,-9.646563,-4.278658,-6.555445,-6.864269
1005.386719,-6.782850,-1.019453,-6.955380,-4.263312
1005.390625,-6.092340,-10.504346,-8.687245,-1.634964
1005.394531,-6.854726,-4.890178,-9.123943,0.238023
1005.398438,-2.808617,-0.633943,-4.262256,-2.244759
1005.402344,2.432921,1.735573,-9.462964,4.882974
1005.406250,5.176534,10.937716,3.041670,5.321369
1005.410156,-2.627230,0.848866,8.661085,0.550926
1005.414062,6.962533,4.626666,11.954355,7.994208
1005.417969,12.439370,16.255894,5.101701,8.515881
1005.421875,15.069046,14.940654,9.020349,5.595206
1005.425781,12.071618,11.939302,11.886909,10.269822
1005.429688,6.736985,15.560664,-1.884070,10.749976
1005.433594,8.024747,9.682492,6.181113,8.354860
1005.437500,10.849176,12.823722,3.945986,9.446303
1005.441406,5.587463,8.880110,17.707223,8.393811
1005.445312,5.129968,-0.973745,-1.607002,-0.072714
1005.449219,4.681588,-4.437335,-6.331416,1.652256
1005.453125,-3.107074,1.666823,-2.416677,-9.629945
1005.457031,-4.586749,-4.120799,-6.527588,-4.505109
1005.460938,-8.616669,-1.316296,-8.572371,-11.934582
1005.464844,-3.558255,-13.482748,-7.065425,-7.791902
1005.468750,-13.533468,-7.798402,-4.224556,-6.961878
1005.472656,-9.758887,-9.539895,-13.487948,-9.898786
1005.476562,-13.461738,-9.688188,-17.604863,-12.184267
1005.480469,-8.760131,-8.635692,-5.920396,-15.419653
1005.484375,-0.032456,-8.291213,-4.734145,-8.815259
1005.488281,-16.559951,-7.962542,-4.264771,-5.433642
1005.492188,-4.076987,-0.804611,-4.253402,-5.702577
1005.496094,4.601441,2.319186,-0.354745,2.407484
1005.500000,4.001427,-4.663377,3.217823,2.301075
1005.503906,3.309216,-1.368235,-0.816441,5.013725
1005.507812,-2.934559,5.377680,7.642970,8.392218
1005.511719,4.222750,12.961188,6.816326,7.883905
1005.515625,6.110943,8.639749,16.098603,11.141165
1005.519531,0.671582,16.190406,14.692254,7.335305
1005.523438,7.374727,14.400298,5.784737,8.297418
1005.527344,13.039073,16.408448,10.694602,8.023544
1005.531250,5.255800,4.086861,12.220903,7.968683
1005.535156,16.357117,2.099387,7.326550,13.916142
1005.539062,8.076416,1.271564,5.762504,11.706182
1005.542969,-1.428606,7.631752,6.002349,4.458520
1005.546875,4.718671,-4.720737,5.000177,-2.603075
1005.550781,-6.362190,1.130601,-7.202086,-4.467411
1005.554688,-7.995002,-4.207929,-1.511465,-1.476317
1005.558594,-4.547727,-5.701410,-7.492376,-11.528100
1005.562500,-11.363144,-7.018241,-0.886972,-14.175013
1005.566406,-4.912937,-5.852244,-8.011540,-12.289886
1005.570312,-8.245600,-6.855039,-6.126592,-4.103717
1005.574219,-13.951573,-7.785411,-10.878693,-6.045785
1005.578125,-11.188508,-16.486430,-4.801369,-3.776913
1005.582031,-6.074072,-2.247283,-16.000959,-6.286139
1005.585938,-9.563408,-2.884973,-11.737180,-4.448344
1005.589844,-8.438454,1.111251,-7.820913,-4.245273
1005.593750,-11.677438,-14.485643,-2.125267,-6.294637
1005.597656,1.681697,1.509977,-2.168686,-4.321065
1005.601562,10.422666,-5.595469,-0.190405,0.254621
1005.605469,4.321797,-2.730736,7.116877,3.958784
1005.609375,1.176808,-0.389413,-1.750481,10.161006
1005.613281,13.447050,12.447984,4.473468,13.738922
1005.617188,-0.656723,11.527345,4.089151,10.285726
1005.621094,12.900990,2.099869,5.864096,9.494752
1005.625000,10.600423,2.317962,15.156799,6.301693
1005.628906,11.223256,14.734087,13.116770,7.209417
1005.632812,8.853750,13.215663,18.217121,8.945009
1005.636719,11.526262,14.034931,12.238730,8.182922
1005.640625,2.190437,9.866624,-0.388746,-1.046219
1005.644531,7.833542,4.487709,-4.011247,2.588575
1005.648438,5.041883,-4.479447,-4.469398,3.296331
1005.652344,-2.598583,3.448749,-4.755798,-3.587519
1005.656250,-1.771123,-6.530244,-1.568505,-4.429178
1005.660156,4.175663,-0.257667,-3.395798,-5.857393
1005.664062,-11.778231,-10.880303,-11.593724,-13.745109
1005.667969,-11.157949,-8.094496,-6.009155,-8.783639
1005.671875,-15.427268,-8.781717,-16.578735,-9.959605
1005.675781,-6.572834,-11.228669,-12.807059,-13.008711
1005.679688,-22.805499,-6.866415,-10.086043,-10.067760
1005.683594,-10.616265,-11.279284,-11.523740,-11.266294
1005.687500,-10.029483,0.401511,-3.953105,-8.502640
1005.691406,-3.509862,-2.662654,-4.012588,-2.829268
1005.695312,-0.177535,4.478389,-3.433956,-4.692517
1005.699219,1.863820,-2.509444,-1.764098,5.496099
1005.703125,2.655369,0.092653,3.971915,5.027203
1005.707031,4.109586,8.085528,-2.885992,5.567526
1005.710938,10.096466,0.736783,10.799127,10.558085
1005.714844,14.219328,10.649086,6.248602,8.667419
1005.718750,15.597893,5.381004,0.859387,13.643040
1005.722656,15.645730,13.210152,10.088495,13.996621
1005.726562,10.410909,6.302703,13.645320,15.329915
1005.730469,5.230503,13.470829,11.222200,12.332996
1005.734375,8.092280,12.071159,7.649789,1.710936
1005.738281,7.699626,4.724694,1.905780,8.881892
1005.742188,-1.840426,6.211056,7.173573,11.680049
1005.746094,5.591123,0.940411,4.439522,6.246012
1005.750000,-3.903481,-0.565891,-0.429916,3.975705
1005.753906,-3.366558,-0.543549,-3.385799,-6.481528
1005.757812,-3.980661,2.644324,-9.018594,-0.526573
1005.761719,-1.149550,-7.363548,-12.668244,-10.566402
1005.765625,-5.740295,-16.533860,-12.743056,-10.436750
1005.769531,-8.314047,0.733332,-15.573724,-9.261361
1005.773438,-13.780033,-9.762831,-14.118323,-8.997879
1005.777344,-11.747289,-11.035193,-10.435834,-8.772425
1005.781250,-7.344673,-0.624540,-14.012340,-9.599995
1005.785156,-4.242257,-11.255123,-5.202005,-13.690378
1005.789062,-5.364907,6.181433,-5.778459,5.632508
1005.792969,-4.921097,-2.208464,-7.405042,-2.356329
1005.796875,-1.152297,-1.578392,1.927407,-7.034821
1005.800781,1.758784,-0.011785,2.347428,-3.269346
1005.804688,-2.643835,3.652585,-0.513344,1.352586
1005.808594,2.674691,3.373343,1.689823,6.765618
1005.812500,4.873605,6.645083,15.297431,8.933294
1005.816406,9.047049,11.867648,-0.208513,10.032027
1005.820312,7.107291,8.867422,7.176847,8.411811
1005.824219,10.371455,14.780305,15.341239,12.978885
1005.828125,1.960340,11.489014,11.471553,6.850350
1005.832031,10.826514,17.828395,5.080449,12.710015
1005.835938,9.082638,8.313471,7.976128,10.878193
1005.839844,-1.574038,4.218092,10.994406,-2.660819
1005.843750,-3.639927,5.809000,1.528588,1.441931
1005.847656,4.794760,1.861566,0.045555,6.661732
1005.851562,-2.891210,0.102562,3.523977,-0.634948
1005.855469,-5.992895,1.284182,-3.112277,-2.727167
1005.859375,-7.850965,-5.537001,-7.859732,-11.463903
1005.863281,-8.629715,-10.720924,-2.896110,-6.153819
1005.867188,-7.214839,-10.527416,-5.278476,-7.942591
1005.871094,-8.350913,-5.940142,-11.623900,-6.087721
1005.875000,-0.695252,-12.358857,-6.621395,-10.794281
1005.878906,-4.614027,-7.811465,-10.069953,-9.596774
1005.882812,-6.757075,-9.370561,-7.398285,-6.460637
1005.886719,-2.379645,-6.024028,-7.631596,-4.082657
1005.890625,-2.559958,-6.789919,-5.842931,-7.915587
1005.894531,2.328355,4.607056,1.411396,-2.462202
1005.898438,-1.805831,-2.988472,0.279987,5.269030
1005.902344,4.792314,-3.154043,9.983594,-1.864993
1005.906250,1.602030,2.399740,1.177570,6.449327
1005.910156,9.010802,7.545977,0.798796,4.776713
1005.914062,7.830610,14.117219,5.039670,0.529341
1005.917969,9.789631,7.686198,12.843750,12.752487
1005.921875,9.857512,8.452698,5.036879,9.762988
1005.925781,3.728416,13.558821,6.990942,11.749302
1005.929688,8.440034,15.299904,9.661997,18.621622
1005.933594,17.375294,5.618409,5.767577,5.691247
1005.937500,10.292080,0.171609,9.014240,8.141726
1005.941406,0.430138,0.577244,14.084824,-1.641326
1005.945312,3.962296,7.858835,4.751267,-6.253655
1005.949219,-3.557008,-0.107719,4.175109,-0.041700
1005.953125,-1.887955,-6.965004,-4.785402,-6.317339
1005.957031,-2.059528,-2.443370,-0.598792,-8.095862
1005.960938,-10.685848,-5.084774,-17.288466,-7.058005
1005.964844,-16.216721,-9.428119,-18.334457,-7.589234
1005.968750,-13.810233,-9.572241,-10.777448,-12.935171
1005.972656,-9.728239,-17.570293,-15.789966,-8.047364
1005.976562,-14.735624,-10.635637,-9.067435,-10.524154
1005.980469,-6.865012,-14.672632,-6.674787,-14.413958
1005.984375,-8.612391,-1.653319,-7.502808,-9.305881
1005.988281,-11.760078,-4.236816,-6.798453,-0.820780
1005.992188,-8.279613,-3.590518,-4.956064,-3.178726
1005.996094,-0.479667,6.081687,-0.757398,-7.609105
1006.000000,1.429678,-1.849580,5.406532,4.599308
1006.003906,10.442545,5.479436,5.824635,4.103779
1006.007812,4.454491,8.256348,7.812845,2.481998
1006.011719,7.257819,7.450533,10.209233,4.690275
1006.015625,9.011145,16.039883,8.276205,6.191687
1006.019531,7.011904,4.155628,10.407623,9.801132
1006.023438,15.269487,6.088568,5.986843,12.621992
1006.027344,9.486527,10.712820,6.185909,7.856266
1006.031250,10.299436,18.431957,9.058180,8.863008
1006.035156,5.906355,-0.932524,1.919370,12.308993
1006.039062,5.749663,7.464648,4.870845,6.022908
1006.042969,5.352362,-4.253455,7.613875,5.297740
1006.046875,1.783962,-4.835198,1.334315,-0.479264
1006.050781,-1.923695,-0.311441,-4.582005,0.791967
1006.054688,-5.374029,-0.140464,3.501430,-2.296361
1006.058594,-5.317277,-4.867366,-2.059604,-0.472912
1006.062500,-10.167444,-12.928175,-13.898372,-11.055743
1006.066406,-8.620997,-9.509988,-7.157400,-6.755605
1006.070312,-3.361290,-11.093523,-9.106239,-4.979304
1006.074219,-8.513643,-11.317223,-9.117594,-14.320678
1006.078125,-7.724967,-4.316760,-6.291672,-13.818249
1006.082031,-10.747624,-0.611068,-8.980124,-12.813582
1006.085938,-11.240272,-10.229207,-0.292396,-6.972680
1006.089844,-5.983560,-4.931490,-8.221469,-2.475978
1006.093750,-10.186230,-1.890552,-5.053697,-0.524245
1006.097656,9.221550,-13.485908,3.295692,6.388584
1006.101562,2.355024,1.942550,-1.582446,-2.576103
1006.105469,4.595891,8.788382,5.277732,7.528897
1006.109375,8.013178,5.688129,7.686336,7.175600
1006.113281,7.584099,9.175857,5.857581,10.258543
1006.117188,2.409051,11.550609,7.633646,7.718299
1006.121094,15.091441,3.795274,7.965016,16.757391
1006.125000,18.318096,10.988056,12.803353,9.322847
1006.128906,7.301956,6.661285,9.195916,10.757104
1006.132812,4.258230,4.048763,11.082162,11.437824
1006.136719,7.829349,8.026715,8.087627,9.413692
1006.140625,9.963023,14.697964,7.115140,4.138190
1006.144531,3.572399,7.397294,-0.978670,1.572925
1006.148438,-2.499231,5.558051,1.445801,-3.214265
1006.152344,-2.718236,-3.345915,1.305421,-2.076920
1006.156250,-6.156899,-3.156945,1.839230,-8.682408
1006.160156,-2.225720,-4.872037,-3.363259,-9.498171
1006.164062,-10.138533,-5.107128,-9.929231,-9.549898
1006.167969,-16.000825,-5.545627,-6.454622,-4.687629
1006.171875,-1.856070,-9.041786,-7.783977,-8.790288
1006.175781,-12.117132,-14.096716,-15.534201,-4.662453
1006.179688,-5.853867,-15.069223,-8.189822,-9.816642
1006.183594,-5.889961,-15.861374,-16.656798,-6.951362
1006.187500,-9.594672,0.068057,-3.829920,-7.037737
1006.191406,-1.632056,-7.090125,-1.949426,-6.324024
1006.195312,-0.709899,2.820263,-1.167544,-13.073956
1006.199219,5.650841,-4.530062,-7.799617,0.177658
1006.203125,-4.296721,-0.157048,3.074478,-2.301009
1006.207031,8.203829,-1.028624,2.829627,-1.424211
1006.210938,3.282944,8.640861,12.249007,5.588467
1006.214844,12.278163,6.671492,4.331377,0.425184
1006.218750,8.251447,11.945994,13.682112,13.495169
1006.222656,6.063583,4.104785,9.783922,1.822817
1006.226562,8.640702,8.740222,6.584446,8.549261
1006.230469,4.886865,5.126335,8.159819,14.595019
1006.234375,8.561040,16.456541,14.559506,8.272664
1006.238281,6.036902,6.536888,9.559558,9.357810
1006.242188,1.545214,11.184497,2.182301,4.155312
1006.246094,6.696805,-0.702422,3.144645,-0.515009
1006.250000,-4.645757,-1.139334,-1.652860,0.594016
1006.253906,-1.018988,-6.811235,-5.691441,-6.212252
1006.257812,0.392699,-3.707524,-3.218047,1.023991
1006.261719,-8.264934,2.442889,-0.002404,-13.085269
1006.265625,-2.094808,-3.078949,-2.887156,-16.700308
1006.269531,-8.096138,-6.468278,-7.006704,-9.956032
1006.273438,-4.146293,-3.567200,-7.238689,-10.768155
1006.277344,-14.532884,-5.680786,-13.326928,-10.119515
1006.281250,-13.735758,-11.703856,-6.077852,-11.421701
1006.285156,-14.584489,-8.873077,-0.315753,-1.420130
1006.289062,1.015787,-12.862623,-0.163277,-4.514835
1006.292969,-1.520864,-2.844535,-1.121801,-9.974788
1006.296875,3.235154,-7.734607,-4.411515,-2.714530
1006.300781,0.666213,1.510214,3.327771,-3.229068
1006.304688,-1.278937,5.317367,4.470537,2.411930
1006.308594,2.452011,8.973850,5.481923,4.277810
1006.312500,11.704958,16.015993,4.838994,8.277921
1006.316406,11.351355,12.644982,1.239652,4.055909
1006.320312,8.387576,11.818970,1.112155,13.064591
1006.324219,2.590595,9.199124,9.222765,10.519996
1006.328125,17.877437,3.787938,8.440763,9.350717
1006.332031,10.432393,13.505746,10.878966,13.313719
1006.335938,7.864550,6.685536,8.248721,8.438135
1006.339844,4.769569,7.830005,2.005596,1.761743
1006.343750,5.444354,1.353021,0.918620,6.705568
1006.347656,-6.544402,7.335297,-1.568030,3.830912
1006.351562,-1.635437,0.788027,0.261222,0.006586
1006.355469,-3.292301,-3.390975,-4.740827,-8.933667
1006.359375,-2.367978,-2.903230,0.907630,-3.392822
1006.363281,-6.053943,-10.815345,-14.124594,-6.146829
1006.367188,-6.236954,-3.456055,-9.408088,-9.348882
1006.371094,3.530851,-10.575631,-3.105245,-8.125236
1006.375000,-6.476969,-8.737456,-14.999908,-8.287676
1006.378906,-2.959869,-8.314784,-10.953935,-9.148896
1006.382812,1.913030,-4.238241,-9.693264,-6.095058
1006.386719,-7.716327,-2.323885,-9.990075,-10.232814
1006.390625,-2.599832,-9.574719,-4.850535,-1.707120
1006.394531,-2.880851,-4.404297,-4.807112,-7.662786
1006.398438,0.405637,-8.823838,3.252549,0.550581
1006.402344,-1.796378,2.620386,3.780799,5.373272
1006.406250,4.038731,8.940609,1.649055,3.916687
1006.410156,9.455778,8.471144,6.877231,8.830829
1006.414062,10.331684,12.883721,12.225642,11.138980
1006.417969,5.668785,6.251921,13.966237,5.103413
1006.421875,6.243849,9.823151,4.128675,5.383570
1006.425781,6.590339,14.082286,8.116859,10.522868
1006.429688,6.111511,14.686461,4.239667,2.356020
1006.433594,10.094182,4.788508,12.328193,7.809102
1006.437500,13.318839,1.967283,5.211866,8.825876
1006.441406,5.140380,10.024361,12.920944,0.047814
1006.445312,3.493973,4.778031,-0.888517,11.257105
1006.449219,2.799685,-0.805282,8.936992,-1.861934
1006.453125,-1.488633,-6.841751,-4.768470,1.501469
1006.457031,-3.265736,-2.891734,-6.748913,-3.397569
1006.460938,-8.858154,-5.039506,-3.856335,-7.528050
1006.464844,-8.825621,-11.746109,-17.017245,-12.712549
1006.468750,-10.773337,-3.599810,-3.420397,-4.741505
1006.472656,-11.104753,-11.683344,-6.365464,-11.011189
1006.476562,-10.615702,-13.539790,-4.470278,-13.454735
1006.480469,-6.980892,-16.296335,-6.584630,-6.523637
1006.484375,-7.045259,-2.760281,-6.737164,-6.961259
1006.488281,-1.400668,-1.278339,-9.719227,-1.488824
1006.492188,-0.141997,-7.230225,-8.973920,-4.658017
1006.496094,-7.602416,8.048226,-9.376392,3.866859
1006.500000,3.754940,0.446185,0.371151,1.724970
1006.503906,4.811449,3.966509,4.575938,3.640351
1006.507812,5.893401,-1.510386,11.397299,-0.927326
1006.511719,11.720798,7.910085,11.459970,10.767567
1006.515625,3.541289,11.165357,12.210938,7.180474
1006.519531,7.607025,7.358823,5.820274,5.772008
1006.523438,7.399242,10.539693,9.609042,7.242688
1006.527344,9.107229,4.589674,7.030510,14.236620
1006.531250,6.246391,0.854563,7.071659,14.236861
1006.535156,9.734682,8.858053,9.228502,7.188875
1006.539062,2.922433,2.609959,4.054689,5.069254
1006.542969,-0.780787,1.939909,3.480494,4.002564
1006.546875,-0.143437,-6.726531,3.487943,5.326929
1006.550781,0.815960,-6.427621,5.606152,-8.572739
1006.554688,3.123018,-1.364530,-3.308502,-6.212301
1006.558594,-4.506506,-5.353207,1.681161,0.217217
1006.562500,-8.930723,-5.653908,-10.184761,-5.497121
1006.566406,-12.039752,-5.421700,-8.627460,-9.092567
1006.570312,-7.835969,-9.465160,-7.822496,-8.318826
1006.574219,-17.095847,-14.795806,-8.287090,-15.939699
1006.578125,-3.170157,-3.920610,-15.338866,-3.817308
1006.582031,-18.211819,-12.082751,-9.140467,-4.259393
1006.585938,-13.642910,-3.709321,-10.020158,-12.428882
1006.589844,-2.101240,-6.481813,-3.233686,-2.280971
1006.593750,-8.355389,3.571069,-6.536169,-9.037182
1006.597656,-8.682015,7.209965,-9.481795,2.646985
1006.601562,-1.395159,5.155950,2.843426,5.112132
1006.605469,-2.561133,13.501831,0.640139,1.057760
1006.609375,6.440458,0.970046,3.518892,3.519417
1006.613281,14.744693,6.570211,10.107012,4.324129
1006.617188,7.859734,2.572479,10.905531,17.373187
1006.621094,12.029070,5.185199,6.036723,7.689186
1006.625000,12.070756,8.428013,14.497934,12.370945
1006.628906,5.099072,9.033664,11.703736,8.528363
1006.632812,7.088871,14.046715,11.627184,17.828988
1006.636719,9.837845,6.599039,7.500724,12.259127
1006.640625,4.126303,9.050687,-4.170839,4.388389
1006.644531,4.348161,-1.869090,8.803714,5.256912
1006.648438,6.316068,0.728788,-0.167668,-0.746439
1006.652344,0.024494,-4.198146,4.128513,-4.719257
1006.656250,-3.334807,-6.449806,-1.918223,-0.719229
1006.660156,-6.780463,1.320204,-2.611727,-6.560262
1006.664062,-8.608444,-14.924229,-2.896736,-2.750982
1006.667969,-5.735082,-9.497360,-5.769422,-11.148875
1006.671875,-15.020814,-5.768566,-4.360057,-5.882485
1006.675781,-12.096123,-12.878806,-9.237826,-5.456650
1006.679688,-3.138595,-11.530571,-5.819537,-7.928743
1006.683594,-4.792626,-5.017876,-10.616308,-16.308005
1006.687500,-14.891860,-4.594498,-12.351382,-2.264401
1006.691406,-7.059265,3.953819,-3.642214,-8.063010
1006.695312,-2.147342,0.839296,-0.157693,-2.750227
1006.699219,-6.240353,-1.774478,5.729030,-5.493432
1006.703125,-4.534398,-3.426976,-0.614404,3.266482
1006.707031,7.528487,0.650681,6.533483,7.783056
1006.710938,7.904238,1.214915,8.563238,9.909834
1006.714844,9.815175,15.811797,4.741098,2.563611
1006.718750,10.534321,15.576117,12.961234,6.233460
1006.722656,13.930950,10.152703,9.067912,7.681585
1006.726562,13.834548,6.666202,7.259949,17.199333
1006.730469,11.227766,6.361563,10.932740,14.344375
1006.734375,3.802708,3.799807,5.707846,13.426021
1006.738281,5.158830,10.395790,7.366700,11.519342
1006.742188,1.952550,7.440087,-1.259955,2.781511
1006.746094,3.270989,-5.579022,6.750462,-2.593178
1006.750000,-0.610914,5.096328,1.526192,-0.638325
1006.753906,1.085290,-0.063036,-0.854205,1.532080
1006.757812,-6.225936,0.480028,-6.229165,-4.967346
1006.761719,-4.433995,-5.466627,-6.229632,-9.925622
1006.765625,-9.962150,-4.025767,-8.153878,-13.648332
1006.769531,-10.771366,-12.518187,-6.287782,-13.239886
1006.773438,-8.253244,-11.006476,-7.523165,-9.643978
1006.777344,-6.039027,-10.585102,-10.061131,-7.763692
1006.781250,-19.820687,-8.877490,-6.656818,-3.450763
1006.785156,-2.300654,-6.289689,-8.201624,-1.714298
1006.789062,-2.013837,-4.156426,0.582816,-2.075654
1006.792969,-0.969631,-8.684002,-2.573224,5.425003
1006.796875,3.298434,-6.720820,-0.161091,-4.805414
1006.800781,-2.919185,-6.065204,1.362501,-0.731194
1006.804688,-5.343711,-0.836985,7.003249,0.624587
1006.808594,-3.099985,4.705357,2.428630,-1.828223
1006.812500,6.565485,5.330509,12.604005,12.927270
1006.816406,7.580020,14.108853,3.322031,11.462643
1006.820312,1.651765,10.355415,10.446982,6.215623
1006.824219,8.608795,8.300189,12.439576,12.698249
1006.828125,11.969913,11.852411,9.430967,15.080121
1006.832031,8.532325,14.593352,5.915974,5.631690
1006.835938,5.637903,12.213910,7.805260,7.409647
1006.839844,-0.702120,-0.159928,2.679775,8.873486
1006.843750,-0.906260,5.961875,9.634008,3.179217
1006.847656,3.318119,7.488046,6.457295,9.013300
1006.851562,2.797353,-0.023749,-1.737023,-0.114729
1006.855469,2.014443,-0.953585,-10.431391,-0.559134
1006.859375,-6.020209,1.144286,-3.434385,-4.245324
1006.863281,-5.110462,-5.225977,-10.832206,-11.786526
1006.867188,-10.882668,-8.470829,-9.063435,-14.960717
1006.871094,-9.551121,-6.134013,-9.409390,-14.798655
1006.875000,-4.863926,-8.942665,-9.904005,-9.483868
1006.878906,-4.422190,-12.819424,-11.497180,-10.774549
1006.882812,-4.782413,-11.276906,-9.275806,-13.985846
1006.886719,-10.030598,-8.555944,0.129661,-10.386227
1006.890625,-3.412104,-2.887744,-6.026329,-2.471895
1006.894531,-8.418971,-6.457403,-4.333870,-2.638052
1006.898438,-1.438965,-0.973393,-3.648469,-0.510210
1006.902344,-0.747905,2.434052,-7.888122,1.212175
1006.906250,3.003170,4.641872,7.514938,1.796351
1006.910156,-8.755958,6.980152,7.296866,3.204874
1006.914062,1.795114,6.871054,9.609155,2.251904
1006.917969,10.967459,2.210219,14.423948,13.554029
1006.921875,5.373438,8.794431,11.011404,9.273253
1006.925781,12.270913,3.875497,8.003853,11.551337
1006.929688,7.695964,9.262478,9.901139,17.861715
1006.933594,5.644111,8.181857,10.879247,3.839476
1006.937500,12.264840,7.267421,5.176662,12.747014
1006.941406,1.479630,5.210695,7.347483,4.779609
1006.945312,0.014909,0.328947,1.418103,-3.209580
1006.949219,3.017044,5.629593,-0.638804,5.799841
1006.953125,4.153995,3.484194,-0.640026,-2.528054
1006.957031,-2.837738,-5.736337,-14.800438,-7.914060
1006.960938,-1.919552,0.288799,-6.982244,-8.242091
1006.964844,-4.513707,-9.066969,-3.634783,-6.889874
1006.968750,-11.700810,-4.546409,-7.735375,-13.956367
1006.972656,-14.329054,-13.068474,-14.451315,-4.798943
1006.976562,-15.460130,-12.491258,-8.629300,-11.076911
1006.980469,-9.967232,-9.294031,-12.879173,-5.405033
1006.984375,-6.576546,2.386244,-12.729699,-5.184665
1006.988281,-4.634789,-4.609696,-3.908451,-5.592272
1006.992188,-2.591918,-6.785512,-3.350366,-9.625944
1006.996094,-4.166173,-1.626653,-7.887402,-11.040848
1007.000000,-0.919803,2.788011,5.429938,-2.613859
1007.003906,8.061546,8.907745,15.925087,-0.273417
1007.007812,1.648922,0.853796,4.693298,-5.509848
1007.011719,7.428256,4.999527,12.368499,7.273909
1007.015625,7.713216,6.458592,7.672443,5.784579
1007.019531,5.604944,12.939487,1.343684,12.784835
1007.023438,14.636430,11.744577,8.475484,7.723680
1007.027344,10.276748,5.750747,5.884591,7.167672
1007.031250,4.709657,12.863601,14.532711,7.815063
1007.035156,6.239146,4.271708,10.154768,6.694663
1007.039062,5.320450,12.448360,10.315945,4.256458
1007.042969,5.327717,7.241617,1.909809,5.825395
1007.046875,9.180622,8.935949,3.677717,2.127466
1007.050781,1.999549,3.979393,-0.351792,5.794831
1007.054688,-0.577141,-2.204586,-4.366728,0.812145
1007.058594,-6.213029,-2.548740,-4.177916,-3.733873
1007.062500,-3.563092,-6.594599,-3.900755,-8.357625
1007.066406,-8.810629,-13.046889,-8.276496,-8.987205
1007.070312,-7.042238,-10.047160,-19.910280,-7.195570
1007.074219,-11.978384,0.182233,-15.066167,-10.204471
1007.078125,-13.695073,-10.338003,-6.439144,-15.655020
1007.082031,-13.013047,-11.647746,-7.831523,-12.419928
1007.085938,-11.521231,-9.747169,-11.732398,-11.669315
1007.089844,0.396706,-7.851580,2.106202,-7.825264
1007.093750,-2.152318,-10.361540,-3.532473,-4.320464
1007.097656,-4.652605,0.853497,1.359311,-1.214510
1007.101562,0.289571,-5.717248,7.728346,1.491263
1007.105469,4.201415,8.415424,0.688598,10.428906
1007.109375,4.369047,0.822936,1.019172,-4.776422
1007.113281,4.727402,5.136681,-5.448553,6.905887
1007.117188,11.226836,14.222084,14.432932,6.337358
1007.121094,6.208494,11.176998,14.107841,9.330200
1007.125000,9.844278,11.935063,9.204700,5.266421
1007.128906,6.053903,8.827620,14.137384,3.238508
1007.132812,12.738640,10.391097,10.906645,5.111835
1007.136719,7.870888,5.163248,13.284606,11.357568
1007.140625,9.894022,1.900304,2.718788,3.848841
1007.144531,0.181709,5.659482,6.932314,5.171680
1007.148438,-3.392637,1.813034,4.482969,5.586658
1007.152344,-7.086507,0.823327,-0.223724,-3.798296
1007.156250,-3.382077,-7.152318,4.386799,-1.719742
1007.160156,-5.234503,-4.332370,-7.123932,-4.243797
1007.164062,-7.150044,-8.784548,-3.689190,-5.219912
1007.167969,-7.950569,-3.724319,-10.524714,-12.946791
1007.171875,-12.288584,-11.070484,-17.466395,-13.281627
1007.175781,-15.262623,-9.014099,-12.533189,-7.451427
1007.179688,-9.164052,-10.444191,-10.276985,-6.950618
1007.183594,-5.380136,-10.046091,-6.054661,-9.231919
1007.187500,-3.685072,-13.267284,-8.167425,-9.621816
1007.191406,-8.840430,-8.055236,-7.535232,-8.069244
1007.195312,0.070876,-2.577335,4.484454,-3.116135
1007.199219,3.225034,0.890210,-4.869641,-4.769522
1007.203125,-0.546832,-0.196124,-0.305048,6.150870
1007.207031,0.243005,8.920381,6.796491,1.112924
1007.210938,10.716244,4.403450,15.345387,1.247649
1007.214844,3.446704,8.174695,10.581584,15.555276
1007.218750,9.223333,7.215921,9.178516,9.717571
1007.222656,14.017322,9.492624,8.898448,12.487352
1007.226562,16.382160,9.221172,12.896113,17.827436
1007.230469,8.398817,13.001951,14.866152,15.141243
1007.234375,1.716807,10.557806,8.021987,5.786925
1007.238281,6.034320,4.544262,6.725297,5.421610
1007.242188,4.042082,2.185542,5.091201,4.294856
1007.246094,7.815792,4.041700,2.487834,-2.383230
1007.250000,-4.537820,2.128675,-6.296172,-5.494456
1007.253906,-5.751604,-8.465058,-7.112020,-9.396982
1007.257812,-5.659689,-11.536136,-1.221178,-1.468895
1007.261719,-6.586151,-8.199535,-3.179773,-3.191601
1007.265625,-10.296474,-4.955625,-4.838736,-12.748937
1007.269531,-10.556115,-8.017857,-9.182493,-11.203933
1007.273438,-2.792676,-10.229906,-0.027040,-12.169006
1007.277344,-9.798024,-14.651439,-11.530279,-13.326051
1007.281250,-15.524900,-9.010586,-5.427994,-4.305814
1007.285156,-3.139928,-5.810934,-17.027599,0.528108
1007.289062,-11.469245,0.591382,-6.158739,-8.377703
1007.292969,-7.931170,-6.460614,-9.856056,-1.168454
1007.296875,-5.000466,-5.644279,-1.236111,1.485266
1007.300781,5.433531,2.906687,-6.994139,4.092748
1007.304688,10.895363,1.121727,6.626591,2.500088
1007.308594,7.737809,2.726991,5.563307,0.800788
1007.312500,2.802280,14.216934,3.241404,7.817609
1007.316406,0.751177,8.976889,4.138397,9.941064
1007.320312,13.405916,5.885669,12.350877,4.396345
1007.324219,9.334892,13.820688,20.173640,14.563610
1007.328125,13.688490,3.005747,12.643237,4.890262
1007.332031,5.521018,11.076993,14.633944,5.963968
1007.335938,6.646422,8.914757,7.323226,4.580712
1007.339844,7.624016,8.606821,10.333199,7.956353
1007.343750,3.005637,6.631008,5.394482,9.363598
1007.347656,10.643609,2.679155,5.944573,1.537214
1007.351562,4.255456,-1.194098,4.129357,-4.844803
1007.355469,-2.563174,-5.627041,-4.848547,-2.169607
1007.359375,-1.962801,1.144061,-0.802094,-13.400113
1007.363281,-3.956469,-3.405312,-6.404977,-2.989480
1007.367188,-8.164710,-10.467766,-10.467649,-13.035990
1007.371094,-6.999756,-5.157469,-7.392583,-7.568238
1007.375000,-10.179249,-9.535795,-5.970713,-12.415127
1007.378906,-6.107023,-9.416495,-19.535878,-15.037595
1007.382812,-5.991152,-5.693406,-5.283328,-14.265400
1007.386719,-5.703028,-13.877916,-2.288231,-4.740648
1007.390625,-6.261448,-6.020052,-12.285518,-3.778140
1007.394531,-1.729447,-7.205549,-4.487450,-6.461483
1007.398438,4.653094,-2.791789,-0.482234,3.410455
1007.402344,3.611742,1.410044,1.132064,-0.461953
1007.406250,5.297018,13.244734,-0.941301,0.002878
1007.410156,2.003639,13.244816,10.258047,1.848853
1007.414062,7.150029,9.063896,4.009453,17.149513
1007.417969,5.299079,7.148909,12.726022,4.859656
1007.421875,3.706150,13.722534,9.245124,4.152135
1007.425781,8.823340,12.691913,16.853202,18.767052
1007.429688,12.715306,17.328348,2.013469,8.266784
1007.433594,3.645262,17.805039,10.637120,15.758588
1007.437500,5.410350,9.300507,9.024415,4.350139
1007.441406,1.800545,7.880450,13.104896,-3.703389
1007.445312,8.723625,1.907345,-0.599286,-0.348729
1007.449219,-0.408740,4.018911,4.560300,3.966231
1007.453125,-0.344491,-6.388115,-3.696818,-3.027935
1007.457031,-0.280766,-6.698579,-7.901427,-3.723054
1007.460938,-3.036865,-5.558249,-4.807552,-4.340786
1007.464844,-5.441475,-9.119592,-6.330425,-3.812186
1007.468750,-1.915405,-14.878490,-9.156398,-8.155325
1007.472656,-6.470336,-11.258606,-7.798730,-2.646042
1007.476562,-8.478145,-8.247055,-17.470912,-5.402510
1007.480469,-12.132711,-9.755350,-13.822122,-7.092308
1007.484375,-4.500950,-15.436276,-5.445102,-0.176453
1007.488281,-2.577100,-8.035258,-5.083777,-7.075898
1007.492188,-2.213124,-5.500297,-5.525516,-6.786302
1007.496094,-13.591952,3.776948,-0.027623,0.879339
1007.500000,-3.359812,-3.764566,-5.620806,-4.558103
1007.503906,4.152891,6.255274,1.306663,0.229697
1007.507812,7.489376,8.085840,0.974201,2.172816
1007.511719,12.479858,9.873488,4.028437,6.097153
1007.515625,12.684972,12.453640,11.462185,12.545059
1007.519531,4.211162,3.961927,6.842801,9.230770
1007.523438,14.951656,8.410154,15.164184,10.321436
1007.527344,3.357885,8.150636,2.922663,13.989070
1007.531250,5.728409,13.621426,10.744616,13.837876
1007.535156,2.802564,12.608074,7.459340,6.725992
1007.539062,7.018459,5.709215,3.835575,3.260851
1007.542969,0.481369,2.884977,4.999607,5.953500
1007.546875,11.165070,4.980564,3.620553,-0.235364
1007.550781,-3.780748,8.279453,-3.468927,-4.216740
1007.554688,5.634268,-2.482497,-0.080560,-1.592673
1007.558594,-0.887271,-6.456461,-10.889736,-1.088296
1007.562500,-7.762394,-4.138795,-8.839190,-3.136414
1007.566406,-3.782071,-12.753382,-10.559976,-2.525204
1007.570312,-17.487032,-7.423008,-7.879637,-9.529157
1007.574219,-6.867991,-17.773064,-8.296397,-4.627436
1007.578125,-9.523134,-5.192800,-4.804006,-6.897794
1007.582031,-2.052057,-11.712642,-16.433909,-12.445766
1007.585938,-12.000417,-12.470541,-13.788357,-9.112544
1007.589844,-8.252626,-8.443343,-6.343677,-14.341904
1007.593750,-10.034824,-6.050285,-1.044165,-5.087999
1007.597656,-1.757381,-5.338272,6.820804,-9.740692
1007.601562,6.872456,-3.120724,8.710816,0.219162
1007.605469,2.668018,3.086314,7.967915,0.291783
1007.609375,0.350774,8.957094,-0.671859,8.062898
1007.613281,10.025058,8.188169,6.980484,16.761924
1007.617188,10.374750,10.632707,7.522625,9.935173
1007.621094,7.399877,9.403940,11.390087,4.655566
1007.625000,3.613406,9.022840,9.776412,6.994193
1007.628906,11.028514,18.998181,5.713946,9.388342
1007.632812,10.375288,8.737092,8.241315,8.921464
1007.636719,3.033852,2.186133,12.314902,7.810127
1007.640625,9.843193,5.622943,1.780609,7.656316
1007.644531,-2.116789,7.597609,3.125424,3.994443
1007.648438,1.141165,3.172673,8.177148,5.024938
1007.652344,-3.088955,-3.060638,-0.919568,-3.314180
1007.656250,-0.009244,-9.901709,-0.430839,-7.772005
1007.660156,-8.492629,-4.747788,-0.725219,-9.840389
1007.664062,-2.275471,-8.078009,-11.582890,-3.272655
1007.667969,-9.607952,-5.165575,-10.963964,-9.610881
1007.671875,-14.945869,-14.611252,-8.902388,-4.187538
1007.675781,-10.764793,-17.180168,-13.734584,-13.563189
1007.679688,-12.810219,-11.994391,-4.271227,-7.934006
1007.683594,-10.781288,-13.365675,-7.533669,-6.359892
1007.687500,-3.203698,-3.861610,-7.060961,-19.305602
1007.691406,-9.667458,-5.176995,-5.044226,-10.449092
1007.695312,-0.220001,-5.486894,3.100757,-6.958201
1007.699219,-5.405199,-1.593673,4.961739,1.692102
1007.703125,7.808508,3.691897,5.849728,1.671443
1007.707031,6.615624,13.852980,-0.635266,2.715477
1007.710938,12.254798,0.204743,10.258402,6.381329
1007.714844,8.534217,2.133574,5.548216,11.480458
1007.718750,7.409458,11.577251,9.346300,12.421416
1007.722656,13.308354,9.003184,9.370002,9.086976
1007.726562,12.595015,12.789961,10.998351,13.501100
1007.730469,5.035975,11.909982,11.649215,13.144476
1007.734375,7.730589,11.699185,3.299526,6.082588
1007.738281,11.624058,-1.415240,7.537355,16.011557
1007.742188,8.980197,4.136883,5.610398,1.396324
1007.746094,0.727932,-1.177237,4.761744,2.622286
1007.750000,4.208193,3.889523,-0.227548,5.427796
1007.753906,-6.919058,-7.663907,-3.671592,-1.626467
1007.757812,-10.058771,-1.063842,3.515050,2.252079
1007.761719,-13.246300,-5.183829,-5.845341,-4.386174
1007.765625,-3.855298,-4.160666,1.639808,-9.533472
1007.769531,-11.344990,-6.801652,-11.139828,-13.796850
1007.773438,-10.186223,-11.068443,-4.751305,-7.412962
1007.777344,-10.628419,-10.904667,-11.413746,-1.346751
1007.781250,-5.327949,-11.213243,-4.522452,-11.429054
1007.785156,-5.127750,-10.930394,-8.460003,-4.308089
1007.789062,0.833010,-4.005564,-5.294153,-7.831947
1007.792969,-0.433652,-4.665512,-4.230622,-8.791084
1007.796875,-0.387656,0.000502,3.833698,4.151252
1007.800781,3.958093,7.368921,4.036209,0.294312
1007.804688,3.941289,0.745078,1.642392,6.896349
1007.808594,5.790779,-4.732983,8.902238,10.047952
1007.812500,6.134678,7.075811,8.229945,7.008914
1007.816406,12.131185,4.683328,-4.326606,5.669939
1007.820312,7.745951,0.799187,10.931169,7.615304
1007.824219,3.811940,17.541153,4.880332,13.612562
1007.828125,6.596305,2.700012,10.031177,13.729455
1007.832031,16.260678,8.087677,13.577090,7.352625
1007.835938,6.233464,5.887349,4.636486,6.440290
1007.839844,1.157736,7.206179,1.483264,7.899304
1007.843750,7.881119,2.331714,-0.452666,4.274025
1007.847656,1.739341,0.272978,7.366111,-2.115054
1007.851562,-0.223598,-2.542825,-1.075946,-1.943207
1007.855469,-1.376168,-1.826866,4.003923,-5.786978
1007.859375,-5.248797,-5.319596,-2.319162,-9.401621
1007.863281,-9.716304,-9.530419,-1.184603,-7.670451
1007.867188,-1.131276,-11.203193,-7.899647,-0.430734
1007.871094,-14.083990,-10.177028,-10.983307,-11.553075
1007.875000,1.419244,-13.635168,-7.227679,-6.805476
1007.878906,-12.326839,-13.885215,-11.738729,-6.434917
1007.882812,-12.564055,-18.078509,-10.291696,-6.847972
1007.886719,-7.234906,-12.883007,-3.072539,-11.381156
1007.890625,-11.508391,-4.222291,-7.088340,-9.356057
1007.894531,-10.730487,-2.819237,2.386943,-4.057248
1007.898438,2.980693,-4.490518,-1.084991,5.592722
1007.902344,2.361198,0.876078,3.540622,-0.108104
1007.906250,14.641278,4.643672,5.439395,5.034321
1007.910156,7.189175,3.847669,8.227803,10.626490
1007.914062,-1.126029,11.434883,5.558528,8.142271
1007.917969,12.937568,8.856243,10.085747,9.174327
1007.921875,9.660652,7.737161,9.562182,6.041919
1007.925781,13.267406,6.150657,10.447202,0.245356
1007.929688,11.154235,8.282411,14.095374,0.872327
1007.933594,10.515072,5.424897,11.344455,11.554735
1007.937500,6.170245,11.282658,1.014912,0.458791
1007.941406,2.741900,7.274294,-0.739500,1.522891
1007.945312,5.077999,5.391596,-2.988946,0.533757
1007.949219,-3.041154,-2.144488,-3.747190,-0.500719
1007.953125,-1.529459,1.520296,-1.501349,-2.078547
1007.957031,-0.420295,-10.109251,-2.169850,-12.502468
1007.960938,-8.011665,-5.098758,-10.165631,-6.973471
1007.964844,-10.501224,0.549697,-6.572468,-3.542821
1007.968750,-7.356009,-13.368463,-21.408832,-10.230350
1007.972656,-14.785756,-5.437980,-13.356574,-15.414032
1007.976562,-2.487600,-6.982503,-5.145400,-8.379922
1007.980469,-9.777593,-11.738837,-3.577802,-11.398542
1007.984375,3.362460,-16.894309,-7.246348,-2.458225
1007.988281,2.010904,-3.771623,-13.018835,-2.076765
1007.992188,-2.848052,-2.189292,-3.911675,-6.123701
1007.996094,2.380672,-3.614452,-2.661463,-0.306732
1008.000000,5.571454,-0.866496,-2.242821,6.535525
1008.003906,7.652117,5.673970,6.833725,-1.801891
1008.007812,5.045265,6.203064,10.519043,7.697735
1008.011719,2.500581,4.667368,3.930128,8.871623
1008.015625,4.147128,11.201896,18.165127,11.696372
1008.019531,8.764424,14.394283,11.961566,14.601159
1008.023438,13.139803,10.170783,3.758592,5.303482
1008.027344,8.347338,6.144046,5.922473,12.727962
1008.031250,10.346161,8.518727,12.979821,12.345044
1008.035156,15.126082,3.632490,7.950924,7.531684
1008.039062,1.170606,6.164850,5.889304,8.107590
1008.042969,5.476933,8.383315,3.350439,5.213011
1008.046875,3.400266,6.067550,5.761714,-3.590263
1008.050781,-0.539865,-1.936410,1.829043,7.946221
1008.054688,-8.283756,-2.140849,0.018606,-4.309782
1008.058594,-11.336414,-3.246668,-3.715449,2.994176
1008.062500,-3.432578,-5.852132,-7.531322,-5.631351
1008.066406,-11.348909,-12.311031,-0.048775,-12.160426
1008.070312,-6.066633,-8.063687,-1.382274,-15.013773
1008.074219,-11.882918,-12.024752,-10.241747,-11.997326
1008.078125,-7.420643,-4.705762,-3.726317,-13.617604
1008.082031,-9.264788,-15.149358,-4.933156,-15.811453
1008.085938,-8.645174,-6.978834,-11.588136,-13.417403
1008.089844,-0.314345,-8.796712,-4.554064,-3.071445
1008.093750,-0.521044,-1.737426,-2.514284,-5.622661
1008.097656,4.498301,0.550892,-1.985550,-0.900167
1008.101562,2.785597,1.559649,0.293252,7.447903
1008.105469,9.273276,6.929078,0.290211,4.935465
1008.109375,4.609543,5.026246,7.230913,1.371834
1008.113281,11.384230,3.213695,13.033286,2.537499
1008.117188,6.888759,16.185501,9.637688,10.825602
1008.121094,15.538202,13.452397,8.547691,13.262842
1008.125000,9.667333,15.891912,5.508861,5.779164
1008.128906,9.181676,19.913103,6.931741,13.503388
1008.132812,10.826421,1.981961,14.866846,13.321877
1008.136719,5.488315,9.664542,10.637523,14.644904
1008.140625,5.779387,10.797223,3.474839,4.615331
1008.144531,4.910786,0.901377,5.699926,-2.021726
1008.148438,7.491376,2.224806,3.394492,3.063354
1008.152344,3.251301,-6.400044,-5.137066,-5.046799
1008.156250,1.309904,-0.032930,-2.168672,-5.433880
1008.160156,-0.652449,-5.314443,-9.426130,0.335235
1008.164062,-8.916022,-13.526232,-6.231022,-9.950226
1008.167969,-2.786404,-8.785487,-11.593799,-8.636875
1008.171875,-13.912765,-3.505646,-6.982034,-12.394859
1008.175781,-4.152017,-7.668410,-14.774944,-14.212604
1008.179688,-9.884597,-13.731611,-3.828224,-15.776357
1008.183594,-6.755855,-11.825106,-7.360318,-12.270168
1008.187500,-13.683658,-15.278506,-6.485115,-13.459366
1008.191406,-4.233065,-9.011522,-2.795932,-0.030312
1008.195312,-9.724743,0.636129,-4.125061,-4.179396
1008.199219,-0.745482,2.273757,1.004202,-11.839661
1008.203125,8.746109,-2.836161,-5.656131,2.670905
1008.207031,3.678373,1.230870,11.717855,7.031355
1008.210938,6.240264,9.484225,6.667910,8.132999
1008.214844,9.428118,13.372562,11.393529,4.510446
1008.218750,7.422538,1.816687,7.292151,12.221313
1008.222656,2.617153,13.877298,12.584068,7.034346
1008.226562,17.020814,11.125728,5.793848,0.798646
1008.230469,9.836571,4.374322,8.443291,14.842341
1008.234375,3.317916,14.879312,2.442884,10.804776
1008.238281,11.841411,4.828065,6.112375,7.706679
1008.242188,7.557292,4.988282,8.033306,5.889001
1008.246094,-4.416660,0.214907,4.734231,7.695662
1008.250000,-4.585989,-1.536904,0.754438,1.858225
1008.253906,-4.677721,-1.508280,0.463500,-6.554431
1008.257812,-7.960386,1.389599,-7.013987,-10.350298
1008.261719,-2.462986,-0.507612,-5.861803,-9.257553
1008.265625,-8.124983,-8.284532,-9.455013,-4.252024
1008.269531,-11.064516,-15.551559,-14.313797,-11.592373
1008.273438,-9.652129,-12.741851,-7.480803,-14.803813
1008.277344,-4.609039,-14.793614,-11.771235,-12.808245
1008.281250,-5.520570,-6.955424,-6.355651,-8.063158
1008.285156,-14.243606,-3.047136,-4.506695,-7.897679
1008.289062,-9.530760,-8.608169,2.359105,-1.580258
1008.292969,-4.922661,-3.546330,-7.517454,0.290209
1008.296875,-1.676368,-4.766009,-2.644454,1.022729
1008.300781,-3.366533,5.481115,2.361613,9.560453
1008.304688,4.923496,0.524944,5.390972,-4.818168
1008.308594,13.119167,9.860486,7.869754,10.898249
1008.312500,7.094242,5.978986,6.581078,12.089861
1008.316406,12.414340,6.740778,4.205346,6.999746
1008.320312,6.849392,12.891743,6.258749,9.092091
1008.324219,6.635835,10.853242,5.184306,10.862358
1008.328125,7.413820,14.430465,13.021536,13.836329
1008.332031,1.023530,10.216032,7.867975,3.626352
1008.335938,6.736562,0.484582,8.937069,5.190280
1008.339844,7.287292,4.863451,8.472977,11.145320
1008.343750,1.103714,-0.841739,0.259385,5.189752
1008.347656,-3.591322,4.590441,5.040574,-0.599235
1008.351562,0.980944,2.305808,4.774416,2.854003
1008.355469,-3.102125,-0.515263,-2.745936,-8.890326
1008.359375,-9.686920,-5.019014,-7.833846,-12.615735
1008.363281,-6.093738,-7.258233,-12.498780,-10.390887
1008.367188,-6.419918,-12.017067,-7.644715,-19.560939
1008.371094,-8.653014,-4.394583,-12.666162,-3.809960
1008.375000,-17.047677,-13.183673,-16.295707,-3.819959
1008.378906,-8.277330,-6.119363,-8.508454,-12.988644
1008.382812,-11.462147,-5.579843,-8.727595,-4.370757
1008.386719,-9.339948,-11.960633,-0.449017,-13.173535
1008.390625,-4.996020,-6.934331,-9.380677,-0.316659
1008.394531,-8.852745,0.051700,-3.171543,-4.759598
1008.398438,-0.500044,2.651219,0.558438,-12.626722
1008.402344,2.670544,4.366196,-3.725217,3.088530
1008.406250,0.110279,3.261229,-3.576243,9.369545
1008.410156,4.800502,10.221571,5.313887,2.725066
1008.414062,8.367797,13.398483,8.115534,3.837032
1008.417969,8.734171,13.116400,11.144506,15.339075
1008.421875,3.585734,7.388749,10.981880,12.070534
1008.425781,9.862515,11.224112,15.072195,5.771610
1008.429688,5.651816,13.322775,7.915127,10.988377
1008.433594,6.315010,11.462973,8.089748,5.075812
1008.437500,9.900463,0.321957,4.741143,6.636015
1008.441406,12.509881,-0.186381,10.606783,7.959504
1008.445312,3.791198,-0.635678,2.629496,2.268287
1008.449219,-2.534472,-1.383493,1.570626,-4.942833
1008.453125,3.054030,-1.122714,-6.919468,-4.502724
1008.457031,-9.073458,-9.246348,1.769025,-8.664645
1008.460938,-8.905909,-9.801337,-4.910626,-12.136476
1008.464844,-7.363116,-7.325281,-0.528249,-9.526023
1008.468750,-12.961872,-8.200399,-9.563674,-5.906878
1008.472656,-7.909363,-8.776496,-15.741424,-6.772656
1008.476562,-2.064329,-12.718406,-9.255054,-3.937254
1008.480469,-10.631610,-11.354326,-7.044308,-7.364052
1008.484375,-15.981310,-8.317907,-13.161611,-3.046804
1008.488281,6.008533,-5.012525,-6.255591,-8.692638
1008.492188,-6.618032,-2.850744,-9.206781,-10.342464
1008.496094,-1.336057,4.386907,-2.712423,-4.886034
1008.500000,2.337326,5.945758,2.547095,-0.278703
1008.503906,-0.907074,-5.599113,-0.633724,-3.486090
1008.507812,7.655227,8.538133,4.793291,-0.270077
1008.511719,2.784993,1.138892,6.671965,5.192938
1008.515625,3.894349,8.880373,3.888150,8.378407
1008.519531,4.344001,8.214993,13.107931,8.194309
1008.523438,10.742572,2.779247,13.098253,5.849824
1008.527344,8.991572,13.527346,8.822681,6.908596
1008.531250,10.023657,14.856576,2.035776,7.431775
1008.535156,3.769169,9.094515,9.222018,12.040080
1008.539062,7.450227,1.906284,11.846336,1.801728
1008.542969,6.592259,-2.243239,6.671428,9.144825
1008.546875,4.274549,7.658927,5.826490,-2.047072
1008.550781,-1.947250,0.175870,0.911275,-1.804137
1008.554688,-7.266999,-0.819177,-2.829143,-6.989191
1008.558594,-5.331949,-7.206927,-3.420167,-6.765006
1008.562500,-8.436487,-7.716964,-4.598230,-3.573665
1008.566406,-9.065226,-6.097113,-9.899609,-3.177542
1008.570312,-1.329483,-11.549290,-10.769070,-13.174439
1008.574219,-14.187941,-11.929243,-19.323320,-18.191337
1008.578125,-12.531356,-8.833146,-13.259797,-11.847135
1008.582031,-14.744141,-15.340861,-10.225918,-13.352777
1008.585938,-5.700267,-8.272752,-12.093880,3.269885
1008.589844,-3.290555,-4.917671,-0.922793,-8.369567
1008.593750,-9.505316,-8.176939,-5.092472,-9.805043
1008.597656,-4.787814,-1.014477,-3.755663,-2.670335
1008.601562,5.668838,5.163792,-1.310023,-1.349443
1008.605469,0.181011,8.326573,7.750742,12.990296
1008.609375,8.192221,11.611768,1.676008,7.212735
1008.613281,3.282111,10.563115,4.086060,10.044427
1008.617188,1.615225,4.524222,3.652852,12.948999
1008.621094,13.947159,6.011758,14.213453,7.646139
1008.625000,6.673401,19.928438,11.527645,8.161929
1008.628906,4.143188,15.092506,12.923341,9.633428
1008.632812,9.592823,12.885748,13.990216,4.411219
1008.636719,1.318479,4.625061,7.811616,0.764899
1008.640625,6.954167,7.335108,8.501073,8.186071
1008.644531,1.241502,1.587536,-0.245224,3.046595
1008.648438,-1.329860,3.037531,-1.578396,0.556047
1008.652344,5.227351,-4.434498,0.530656,-3.099124
1008.656250,-6.053505,-5.212438,-1.074751,-1.502827
1008.660156,-13.038249,-8.711921,-8.455188,-8.940484
1008.664062,-6.076898,-11.665469,-7.741811,-14.925492
1008.667969,-0.535927,-9.200837,-9.770442,-11.267355
1008.671875,-5.247152,-10.905460,-6.462031,-9.675304
1008.675781,-2.074379,-8.257698,-10.259135,-6.976082
1008.679688,-9.368475,-11.153788,-5.012158,-8.401791
1008.683594,-0.743221,-19.702166,-8.107314,-11.528911
1008.687500,0.616712,-2.546021,-6.662301,-2.150260
1008.691406,-2.604323,-2.463764,-0.840829,-8.943620
1008.695312,-3.946915,-3.307056,-0.858873,-4.334287
1008.699219,-4.631656,1.653290,7.035229,-2.887825
1008.703125,5.145754,-0.742560,-2.175974,2.795741
1008.707031,4.000481,3.431147,10.394195,3.103088
1008.710938,8.453325,5.959945,9.190515,3.978944
1008.714844,9.089350,3.240276,7.668322,5.513535
1008.718750,8.780827,3.373338,8.758888,2.181777
1008.722656,10.728665,13.667220,14.537316,8.594277
1008.726562,12.621223,10.840987,9.826093,1.567614
1008.730469,4.530338,8.870952,-0.825104,13.934057
1008.734375,7.796495,6.673362,11.278126,6.530931
1008.738281,10.748937,-0.247911,1.843432,11.376952
1008.742188,9.543780,6.070448,9.487707,-3.394913
1008.746094,1.179269,2.115529,4.519348,-2.419948
1008.750000,1.565163,1.205775,-0.407562,-2.068021
1008.753906,-0.480462,-0.643555,-7.655685,-4.473666
1008.757812,-0.713421,-5.884839,-13.246017,2.054450
1008.761719,-1.717832,-2.693792,-12.133879,-5.888469
1008.765625,-13.933284,-9.711965,-19.348875,-8.565969
1008.769531,-5.666096,-17.524993,-8.251099,-8.613623
1008.773438,-22.081194,-9.832172,-14.665306,-15.964087
1008.777344,-10.176757,-4.784377,-13.910674,-10.025134
1008.781250,-12.708031,-12.486364,-11.108318,-7.688224
1008.785156,-14.538197,-10.446623,-8.111664,-8.412638
1008.789062,-6.161950,3.560703,-11.833391,3.984199
1008.792969,-6.945115,-2.993595,0.300960,-3.260350
1008.796875,-7.171547,-4.396429,3.515516,-4.289354
1008.800781,3.587853,2.573483,4.234430,4.379021
1008.804688,-2.412724,2.610590,1.898317,0.606509
1008.808594,1.711459,6.989516,5.123962,9.897620
1008.812500,10.617190,0.909777,11.163797,13.265286
1008.816406,17.545032,10.832443,8.543148,18.191999
1008.820312,13.150407,9.539132,11.559121,12.451759
1008.824219,15.954959,8.288341,18.459965,16.589441
1008.828125,13.942136,12.610451,15.048998,13.498776
1008.832031,10.025735,12.487883,6.402216,14.848114
1008.835938,13.155959,9.006480,7.290949,8.159616
1008.839844,10.569138,2.215836,4.445797,10.762785
1008.843750,10.035487,3.541958,8.222045,-0.770297
1008.847656,6.468307,3.952132,7.854052,2.918570
1008.851562,0.295406,-3.518147,-5.602033,1.726261
1008.855469,-4.899017,-5.758523,-0.248411,-3.817838
1008.859375,1.196210,-2.671202,-3.144145,-4.506066
1008.863281,2.393537,-7.994531,-7.617658,-10.172069
1008.867188,-9.141439,-6.776265,-13.285196,-13.997952
1008.871094,-13.877118,-11.033139,-14.477352,-9.992543
1008.875000,2.662201,-2.734792,-10.808839,-10.478956
1008.878906,-7.066476,-13.130463,-11.013795,-15.062288
1008.882812,-12.901031,1.057693,-8.540577,-9.327970
1008.886719,-7.282430,-11.293086,-0.636684,-5.267175
1008.890625,-16.674133,-2.289828,-6.157903,-2.885393
1008.894531,-7.935193,-8.398190,-3.235421,-8.352444
1008.898438,-5.783702,1.603562,3.524032,-5.720703
1008.902344,4.946026,3.106368,-0.223591,2.840179
1008.906250,1.126870,15.613814,4.556683,-3.072981
1008.910156,9.549731,5.255834,3.725692,4.975226
1008.914062,9.124403,2.810823,10.757119,8.054345
1008.917969,15.471289,8.961351,11.840422,7.473052
1008.921875,5.853620,12.184667,14.958791,8.709897
1008.925781,14.065178,3.639575,13.788930,12.341478
1008.929688,10.096252,7.042493,12.635841,3.634893
1008.933594,8.645414,12.641505,12.194051,1.489184
1008.937500,1.055036,2.537597,4.035743,-4.971244
1008.941406,6.659198,-0.727077,8.048514,-2.590387
1008.945312,3.310948,-0.085707,9.934976,4.327633
1008.949219,0.132536,2.709708,-7.098007,-1.320073
1008.953125,-2.485018,-6.068521,-1.131456,-2.211303
1008.957031,-6.555755,-4.227383,-1.537645,-2.510215
1008.960938,-11.482150,-6.254492,-10.606377,1.850297
1008.964844,-8.277996,-4.070237,-5.822254,-6.183330
1008.968750,-15.992808,-4.622418,-16.131942,-12.985045
1008.972656,-10.967859,-10.444163,-12.453527,-8.543129
1008.976562,-11.666748,-2.377867,-3.643383,-3.500637
1008.980469,-7.870291,-6.759227,-11.327957,-10.543739
1008.984375,-6.094061,-7.576573,-5.866307,-7.362706
1008.988281,-4.302989,-12.351729,-12.011819,-13.744509
1008.992188,-7.021654,-2.431118,-3.988717,2.665079
1008.996094,-2.363435,-8.362063,2.192528,-2.964781
1009.000000,0.721159,-3.936851,3.066404,1.422469
1009.003906,-0.048686,7.614125,4.021782,7.324099
1009.007812,2.592394,6.612553,3.785029,5.414747
1009.011719,5.479527,6.117194,6.307239,9.146707
1009.015625,5.707580,9.795229,8.809124,4.617410
1009.019531,9.022348,12.080103,17.983112,10.432424
1009.023438,14.822589,7.922396,11.549981,13.709588
1009.027344,17.621506,10.195368,3.760691,13.150742
1009.031250,6.454716,9.330687,5.471857,5.427043
1009.035156,9.377625,11.398858,6.857656,6.440604
1009.039062,16.840104,4.326803,8.720685,8.372626
1009.042969,-2.721272,2.591555,3.132830,1.440187
1009.046875,2.745729,11.239822,0.578443,5.114648
1009.050781,2.633820,-0.620162,-2.480863,1.218656
1009.054688,-0.990968,-0.651529,-6.920330,-2.775252
1009.058594,-8.218576,-5.441687,-5.461185,-5.267565
1009.062500,-6.144093,4.891539,-7.176413,-2.567312
1009.066406,-5.986820,-5.425530,-14.768195,-15.409918
1009.070312,-12.066778,-13.218647,-12.227821,-11.762301
1009.074219,-10.054732,-11.294540,-7.492523,-14.413753
1009.078125,-10.225012,-13.465514,-12.527092,-13.592871
1009.082031,-8.595608,-8.308834,-14.677513,-6.561753
1009.085938,-16.207506,-6.978608,-5.484378,-10.667087
1009.089844,-10.817581,-10.023049,-9.752189,-13.905515
1009.093750,-4.475233,-3.815730,0.408599,-0.557166
1009.097656,0.573175,-0.164028,-0.383572,-7.517526
1009.101562,-0.515429,3.297212,-1.674432,4.370841
1009.105469,1.620979,13.123407,6.760447,-0.233228
1009.109375,5.950090,0.974211,-1.142388,5.678232
1009.113281,-0.175944,4.957156,12.526690,10.432931
1009.117188,9.706951,6.080931,5.113740,8.178908
1009.121094,13.012462,6.387943,16.811848,14.428111
1009.125000,10.837058,9.385964,5.568320,5.152535
1009.128906,14.346772,14.094460,10.642402,17.542004
1009.132812,11.317906,8.389433,11.606431,5.936096
1009.136719,13.296446,10.368397,4.566930,9.717683
1009.140625,11.550352,10.014674,4.602016,2.586981
1009.144531,11.195501,2.940219,13.972198,6.242623
1009.148438,-0.687896,-5.180400,-0.461927,-0.585916
1009.152344,-3.786900,-1.354956,-5.562969,-8.105525
1009.156250,-7.198977,-2.782790,-8.736522,-6.612986
1009.160156,-6.182228,-8.964743,-16.214039,-7.767280
1009.164062,-6.928296,-7.348938,-12.132473,-3.610521
1009.167969,-4.624368,-7.636050,-15.455675,-8.842749
1009.171875,-10.727747,-7.581214,-12.083301,-11.089071
1009.175781,-10.185320,-7.420422,-10.451671,-10.076706
1009.179688,-5.944607,-10.760637,-13.169768,-8.783189
1009.183594,-9.560031,-8.890182,-6.728353,-13.326484
