timestamp,TP9,AF7,AF8,TP10
1000.000000,-2.437430,2.354413,-0.022585,-2.692861
1000.003906,-2.011100,5.330938,3.679673,7.632027
1000.007812,-0.750234,5.157514,-2.381765,3.169527
1000.011719,9.806138,10.662196,10.276091,-2.669666
1000.015625,11.635795,11.652933,9.627935,13.737129
1000.019531,14.689613,10.895376,6.366119,8.385262
1000.023438,10.552095,18.140330,12.865036,5.950917
1000.027344,8.216131,16.251252,3.900299,8.921043
1000.031250,8.358922,7.181555,10.849048,8.674858
1000.035156,6.864919,8.354710,9.937473,8.013455
1000.039062,9.682421,11.755871,12.034864,3.362862
1000.042969,2.717647,6.146814,5.641632,-2.773937
1000.046875,-2.874516,-0.840942,2.242842,-1.996894
1000.050781,2.527571,-5.078526,-2.142219,-2.568670
1000.054688,-6.506980,-2.745384,-2.535406,-4.528018
1000.058594,-5.950754,-4.590152,-7.923734,-9.530002
1000.062500,-6.220056,-15.182593,-7.953490,-14.732202
1000.066406,-8.051455,-12.085743,-6.107014,-13.407106
1000.070312,-8.542162,-8.867126,-8.836189,-10.163275
1000.074219,-4.853571,-17.175808,-16.921481,-9.747802
1000.078125,-4.540392,-12.075738,-3.979888,-11.886360
1000.082031,-13.362856,-6.304000,-9.227267,-8.261512
1000.085938,-7.836732,-8.443649,-10.135664,-11.143191
1000.089844,-6.908662,-6.629714,-7.669595,-0.528677
1000.093750,-1.261722,0.112431,-6.207425,-2.524099
1000.097656,-1.764627,7.730263,-3.812332,4.971239
1000.101562,4.308329,2.915108,5.922096,7.702282
1000.105469,6.452491,1.711836,5.608187,3.009001
1000.109375,5.016378,1.275739,5.446830,4.264469
1000.113281,5.690805,10.820207,5.473990,6.958363
1000.117188,13.485009,4.863876,8.415469,5.717877
1000.121094,19.344703,9.701841,15.504700,6.985540
1000.125000,13.400559,18.595991,13.992838,6.695168
1000.128906,7.881341,12.033393,6.167350,3.800599
1000.132812,10.645174,7.348876,6.325355,12.467527
1000.136719,7.992724,7.836629,8.005295,5.375966
1000.140625,7.756546,2.208555,2.711348,5.275818
1000.144531,7.794626,6.555345,0.870319,6.154055
1000.148438,7.379887,2.192279,5.394896,2.464828
1000.152344,-2.457272,-3.413051,-2.809103,-4.889599
1000.156250,-5.669352,-5.559455,-7.465073,-4.373682
1000.160156,-1.620475,-6.342740,-8.643957,-12.748816
1000.164062,-5.920309,-12.232484,-13.228205,-13.140946
1000.167969,1.320139,-10.495586,-4.551570,-9.705332
1000.171875,-13.024972,-8.780229,-5.955775,-6.224621
1000.175781,-14.966716,-13.794048,-7.804649,-6.813011
1000.179688,-14.554726,-15.488253,-4.575624,-9.322367
1000.183594,-16.228913,-10.440609,-11.859325,-7.127394
1000.187500,-8.489705,-5.905064,1.928870,-2.965699
1000.191406,-10.450165,-1.114919,-3.537176,-2.655290
1000.195312,-2.492080,-3.611394,-6.182181,3.851429
1000.199219,-3.158143,6.069400,2.412840,1.228696
1000.203125,-3.823653,-3.222343,-0.727355,3.569887
1000.207031,7.111624,-3.361029,0.804251,3.128657
1000.210938,3.615630,9.431556,11.288123,5.253416
1000.214844,1.667673,13.014966,16.068429,5.000093
1000.218750,20.195287,6.767920,14.902812,6.747809
1000.222656,15.075156,11.296081,4.958947,13.059607
1000.226562,4.070995,9.590005,8.175343,8.460974
1000.230469,5.136900,9.229929,12.981734,6.011098
1000.234375,5.710176,3.970862,10.088952,6.660766
1000.238281,5.778794,6.647344,8.047552,8.430557
1000.242188,1.405040,-1.240481,-1.369400,7.357076
1000.246094,0.587993,3.057041,4.324531,10.051618
1000.250000,-6.089137,4.575155,-0.957128,4.226956
1000.253906,-1.134685,-1.595949,-5.350158,-7.200600
1000.257812,-0.617464,-0.399359,-6.175751,-7.169019
1000.261719,-3.828877,-3.582369,-7.163757,1.174968
1000.265625,-1.539955,-1.877502,-12.994688,-2.676529
1000.269531,-12.551361,-15.568182,-5.838564,-4.280419
1000.273438,-2.031450,-11.229273,-11.022201,-15.854753
1000.277344,-3.444615,-13.831065,-7.254286,-4.724575
1000.281250,-13.276348,-6.524663,-7.951615,-10.813029
1000.285156,-15.578091,-10.081913,-3.681304,1.372752
1000.289062,-7.458790,-1.594482,-3.270374,-10.751110
1000.292969,-4.740337,-0.694427,-4.735619,0.871735
1000.296875,-3.031343,-3.166476,1.173513,1.593611
1000.300781,1.850628,1.216493,2.264559,-1.893137
1000.304688,-0.789778,5.825316,3.961117,3.656428
1000.308594,6.382332,7.581680,9.857363,4.274735
1000.312500,5.726945,2.871909,1.172911,7.011004
1000.316406,10.968930,9.434005,5.642219,12.385526
1000.320312,9.838507,15.379454,2.926644,6.811341
1000.324219,13.864772,16.136360,9.504181,13.207403
1000.328125,12.350259,10.366531,10.972843,18.451921
1000.332031,5.544654,8.173607,8.830827,11.069990
1000.335938,6.840887,10.804362,8.762951,10.572821
1000.339844,4.524244,4.475240,12.453993,7.140324
1000.343750,9.154344,8.629802,5.157591,3.753178
1000.347656,3.115796,0.994063,3.994267,2.587642
1000.351562,-0.446479,9.812124,-5.211392,0.465395
1000.355469,-0.310489,2.450306,-10.701927,0.203965
1000.359375,-1.704547,-3.266119,-3.537583,-10.358997
1000.363281,-3.135100,-7.701139,-1.746478,-1.112593
1000.367188,-11.553809,-8.098221,-1.501306,-10.527034
1000.371094,-13.869579,-0.574755,-15.782250,-0.019453
1000.375000,-5.024530,-7.670924,-9.336150,-11.189345
1000.378906,-12.196719,-8.249949,-9.921434,-11.025291
1000.382812,-10.244393,-9.178450,-20.600925,-8.545505
1000.386719,-4.971764,-11.064203,-2.174613,-8.209066
1000.390625,-13.730308,-10.266966,-4.391796,-5.264140
1000.394531,-6.763511,-6.993987,-6.869972,-4.482424
1000.398438,1.460220,6.941860,-1.657879,-0.470057
1000.402344,-2.502507,-1.621304,0.064213,9.732712
1000.406250,-0.865976,2.940295,5.019296,5.407749
1000.410156,11.552305,4.145978,3.037500,7.955795
1000.414062,6.098758,6.498210,14.409927,5.636365
1000.417969,12.976292,8.242466,9.245054,10.923996
1000.421875,7.318262,15.731647,10.768799,8.293044
1000.425781,14.873047,8.088548,14.117899,12.141315
1000.429688,4.784655,7.276135,4.467377,9.795192
1000.433594,5.482804,4.172682,15.741707,10.146853
1000.437500,6.045022,7.545921,13.186024,4.158069
1000.441406,5.915545,3.738828,0.608562,9.164131
1000.445312,3.666347,-1.412699,7.142345,7.828970
1000.449219,-4.801441,1.508766,1.661288,3.026806
1000.453125,-8.296548,-3.832297,1.204565,-1.151562
1000.457031,-1.549414,-2.612643,-6.133631,-4.449884
1000.460938,-13.089572,-3.469104,-6.177639,-4.719127
1000.464844,-5.651520,-7.085816,-2.477687,-12.317162
1000.468750,-11.350984,-8.415082,-8.915611,-3.101570
1000.472656,-10.457336,-9.809976,-7.053185,-6.807025
1000.476562,-9.390931,-5.039979,-8.930017,-1.935088
1000.480469,-3.379183,-14.414775,-10.317343,-9.048170
1000.484375,-15.613178,-4.325310,-12.123200,-4.937776
1000.488281,-8.855326,-4.646093,-5.665090,-13.751367
1000.492188,-3.187936,-2.180491,-6.380188,-1.367447
1000.496094,1.469232,-2.107942,-2.752700,-0.105224
1000.500000,5.004554,-2.295505,0.763604,1.314389
1000.503906,-2.616810,4.545432,10.579949,-7.963690
1000.507812,9.864903,13.811828,6.363546,6.734283
1000.511719,5.023535,6.512922,4.158563,6.995461
1000.515625,12.238850,7.571796,9.257195,10.394059
1000.519531,2.571925,3.684685,2.483482,4.885271
1000.523438,11.126843,11.597103,5.780314,13.546548
1000.527344,9.757639,12.109967,14.692464,7.415133
1000.531250,11.159701,8.801869,12.217369,10.205278
1000.535156,12.644559,3.302385,9.540316,8.008609
1000.539062,7.425218,6.884836,7.202391,12.260747
1000.542969,5.646373,8.960874,8.121514,2.291897
1000.546875,-5.025986,9.053614,-3.056445,0.592600
1000.550781,1.950833,-0.221235,3.412390,1.597134
1000.554688,-1.866252,-5.205653,-10.658884,-3.956887
1000.558594,-12.223063,-7.726968,-6.438565,-4.877759
1000.562500,-4.307520,-13.162463,-6.839970,-12.218907
1000.566406,-6.898848,-10.034610,-5.809902,-16.086351
1000.570312,-6.168956,-14.682606,-13.858268,-4.482383
1000.574219,-8.660474,-16.245315,-6.136462,-9.588296
1000.578125,-7.215532,-9.491918,-13.609898,-10.562832
1000.582031,-9.043380,-5.834016,-10.908568,-12.787300
1000.585938,-11.740072,-3.491977,-8.326779,-4.140409
1000.589844,-3.117191,-3.720438,-7.393088,-2.019171
1000.593750,-5.029074,-7.949850,-2.567234,-7.473104
1000.597656,-0.823512,-7.936935,9.750759,-3.965996
1000.601562,2.749898,-2.436957,-0.212682,2.860960
1000.605469,10.260555,4.431092,-1.175089,1.558034
1000.609375,8.567954,3.817374,2.948315,7.544171
1000.613281,3.457611,9.664344,2.301757,12.491723
1000.617188,6.185124,6.861779,8.029958,11.268830
1000.621094,14.989426,11.505664,7.702124,13.242613
1000.625000,10.613808,8.473729,13.313848,0.729926
1000.628906,9.478554,7.082599,0.772631,5.140945
1000.632812,8.736604,8.450340,12.424553,2.375611
1000.636719,9.951689,11.240938,0.996093,2.784750
1000.640625,11.708407,5.423269,9.041753,6.890331
1000.644531,1.314134,0.850454,-1.614253,3.768439
1000.648438,-0.428138,6.374308,-0.729309,5.378567
1000.652344,-0.775440,-3.016691,3.202261,4.063742
1000.656250,-3.277292,1.742635,0.679770,-7.786158
1000.660156,-5.158584,-7.134893,-5.536089,-1.072839
1000.664062,-7.736260,-3.797107,-11.109307,-11.740822
1000.667969,-8.896029,-4.801912,-9.207903,-16.686496
1000.671875,-4.524286,-10.284520,-13.281033,-17.207213
1000.675781,-8.318982,-11.511383,-1.513621,-16.996461
1000.679688,-9.016890,-10.513256,-6.813000,-7.864936
1000.683594,-5.759191,-6.548328,-6.035102,-4.708815
1000.687500,-3.382443,-13.455096,-15.945113,-1.518487
1000.691406,-10.997426,0.739792,-6.672534,-2.635103
1000.695312,2.203736,-9.266986,-5.067521,-5.336344
1000.699219,2.757141,-0.772620,0.570447,-5.729486
1000.703125,-0.520542,1.114093,9.523157,3.761998
1000.707031,3.651436,-0.347439,8.060368,3.838956
1000.710938,5.182815,6.138978,9.447558,7.373679
1000.714844,13.937053,16.319284,10.053720,5.911151
1000.718750,17.715901,12.092876,4.831160,9.619500
1000.722656,8.749728,11.258548,14.754340,11.838053
1000.726562,9.190438,6.844615,9.629998,11.335604
1000.730469,3.878263,13.515858,18.198407,6.626370
1000.734375,8.731155,8.120268,1.856632,9.633276
1000.738281,-0.035022,4.871417,5.160562,5.437317
1000.742188,4.676114,8.370617,3.435200,5.245658
1000.746094,2.353517,1.689472,3.966496,4.201549
1000.750000,2.085374,4.394153,4.087012,-3.716199
1000.753906,3.654318,0.225087,4.140015,0.690201
1000.757812,0.455759,0.383826,-7.779764,-2.074641
1000.761719,-6.375850,-7.891819,-7.946357,-7.335227
1000.765625,-10.200286,-8.417192,-18.395096,1.832583
1000.769531,-11.809746,-14.672965,-5.140255,-11.481766
1000.773438,-12.906111,-8.131165,-13.349023,-8.101421
1000.777344,-5.749141,-12.481064,-4.603895,-4.087844
1000.781250,-12.764761,-3.783280,-7.885708,-5.731639
1000.785156,-8.015387,-1.652660,-10.586255,-0.972704
1000.789062,-7.153989,-4.620599,-7.169659,-5.012769
1000.792969,-6.687411,-1.289054,-0.438046,-3.379126
1000.796875,-6.239366,-4.546448,-4.743337,-6.211017
1000.800781,-0.133239,2.897342,-2.305712,0.001167
1000.804688,6.213847,5.269587,6.819627,-2.510064
1000.808594,9.184437,1.747271,-2.936359,-0.873641
1000.812500,12.513931,10.789995,10.771082,5.019960
1000.816406,10.691670,6.059422,2.021018,2.417326
1000.820312,7.271646,8.411756,11.335062,8.594174
1000.824219,6.828555,8.145675,12.147518,17.764526
1000.828125,11.343894,9.838086,7.380451,13.497026
1000.832031,9.241276,15.247394,10.578870,10.283612
1000.835938,5.657787,10.001293,15.114023,3.500210
1000.839844,13.973045,12.494097,4.077910,2.287905
1000.843750,7.301764,10.690288,10.000480,6.249768
1000.847656,-1.753949,-6.738237,-1.764998,-3.814194
1000.851562,0.000928,-0.096945,-0.649703,0.619619
1000.855469,-8.317651,-9.559229,9.156377,-4.840484
1000.859375,-11.146339,-3.185970,-8.774336,-6.344913
1000.863281,-12.372925,-7.723417,-1.672969,-5.938575
1000.867188,-7.493339,-8.642135,-7.758822,-11.939848
1000.871094,-5.469448,-0.149548,-7.182693,-10.244448
1000.875000,-13.114666,-14.421424,-7.933946,-7.314866
1000.878906,-11.343617,-4.988732,-16.421563,-9.521139
1000.882812,-11.110912,-11.979358,-10.595184,-10.858100
1000.886719,-6.393881,-2.855438,-5.655417,-5.596387
1000.890625,-6.633699,-4.269962,-8.309019,-9.146181
1000.894531,-3.944287,-11.786717,-4.417959,-3.077415
1000.898438,0.590847,1.086032,-5.414528,0.310064
1000.902344,-4.357483,-0.566032,1.550003,1.854654
1000.906250,1.971493,8.673943,7.396072,7.467395
1000.910156,-0.319511,-1.329592,5.256501,2.109429
1000.914062,9.960780,1.135999,7.841796,7.541543
1000.917969,4.100732,6.085103,9.950884,11.777125
1000.921875,6.527260,16.752686,8.871805,10.760678
1000.925781,6.728896,12.580774,5.535568,12.626442
1000.929688,6.066756,2.970287,10.378268,13.344398
1000.933594,6.362370,5.189522,6.344117,2.622698
1000.937500,9.579026,9.649524,7.373763,5.622368
1000.941406,6.581339,5.234493,8.330368,1.099867
1000.945312,4.827266,3.782553,-3.184478,-1.492780
1000.949219,3.220607,3.463019,-2.620565,3.747928
1000.953125,-0.800468,0.701007,-0.092438,3.472564
1000.957031,-7.314315,-2.686839,3.549033,3.076050
1000.960938,-7.986053,-10.715536,-3.495294,-7.571763
1000.964844,-2.726751,-12.303802,-1.438862,-13.091653
1000.968750,-9.855581,-14.530430,-2.831047,-7.001629
1000.972656,-18.567172,-11.656122,-3.368332,-10.775520
1000.976562,-12.773766,-8.781720,-8.448922,-12.635756
1000.980469,-8.926101,-9.742780,-8.777810,-14.058092
1000.984375,-11.556014,-16.422179,-13.782391,-13.960411
1000.988281,-4.806502,-13.857758,-8.699973,1.666226
1000.992188,-3.757474,-3.420727,-8.603151,-11.863352
1000.996094,-2.226856,-1.937701,-0.839765,2.779421
1001.000000,6.002580,2.490045,-8.665651,2.975030
1001.003906,-0.170371,3.827701,-2.308682,-0.196464
1001.007812,5.913305,-0.835768,0.221560,3.158752
1001.011719,5.057600,8.155613,7.075230,8.694740
1001.015625,10.670074,6.848811,1.507870,6.261111
1001.019531,11.300651,14.190268,4.288875,3.779171
1001.023438,12.479539,7.896666,11.691755,6.705273
1001.027344,7.751972,7.356941,9.563504,8.191140
1001.031250,8.427804,10.962577,7.232612,9.775509
1001.035156,12.806592,15.477972,-0.507985,6.592525
1001.039062,6.778035,0.907854,11.069586,8.953230
1001.042969,10.184316,3.066700,6.909325,8.484350
1001.046875,6.759503,1.824083,-1.763732,7.811547
1001.050781,1.587125,-3.478610,1.197858,-0.421942
1001.054688,-11.631146,0.730693,-0.125697,-4.008416
1001.058594,-8.858625,-2.856716,-2.320838,-10.078293
1001.062500,-3.737910,-6.604231,-12.959249,-7.477799
1001.066406,-10.175774,-6.400565,-11.311839,-11.791177
1001.070312,-13.063647,-10.343785,-10.933308,-14.900070
1001.074219,-12.892680,-11.981559,-13.490525,-9.013728
1001.078125,-8.774446,-5.453639,-11.400792,-17.677105
1001.082031,-9.432976,-2.390658,-1.326582,-11.837423
1001.085938,-11.548774,-7.981079,-5.715883,-5.886678
1001.089844,-8.942604,-6.166049,-5.494697,-9.194187
1001.093750,-7.221203,-4.550045,-2.468202,-2.222750
1001.097656,8.023653,5.058866,-1.496906,-4.705900
1001.101562,1.144268,1.095546,-0.211668,3.359113
1001.105469,8.216109,9.662003,-4.050820,4.421257
1001.109375,7.453613,7.639794,6.054428,7.307475
1001.113281,4.658769,8.951096,3.851525,8.930776
1001.117188,7.377043,4.113768,8.630263,3.382379
1001.121094,0.874125,8.059840,7.224611,10.149291
1001.125000,4.970204,14.253190,8.822068,4.637995
1001.128906,8.186369,11.725940,11.016914,16.993813
1001.132812,10.081355,7.830274,9.921195,3.343446
1001.136719,13.552185,14.576640,12.314846,13.069708
1001.140625,0.274142,6.830542,0.803705,7.959638
1001.144531,9.429433,4.347044,8.404211,0.417705
1001.148438,-0.062452,4.946665,-1.665319,-0.538528
1001.152344,-0.971875,-5.347901,1.722618,-2.925299
1001.156250,-6.359898,0.971560,-7.798697,-1.865740
1001.160156,-6.718636,-2.483070,-11.923081,-10.278941
1001.164062,-11.254697,1.988187,-9.908774,-5.804877
1001.167969,-10.075478,-3.504267,-0.524997,-8.618228
1001.171875,-13.722525,-7.947066,-16.101131,-9.359147
1001.175781,-12.154590,-10.434253,-6.010270,-14.267562
1001.179688,-13.130042,-15.599654,-14.823568,-9.488077
1001.183594,-5.356725,-11.430610,-5.554321,-8.214962
1001.187500,-10.085441,-6.384979,-9.769514,-2.964531
1001.191406,-7.191320,-7.375909,-5.240978,-10.412816
1001.195312,0.502189,-5.006949,2.831150,-7.033334
1001.199219,-5.300366,2.933657,-1.569028,2.866330
1001.203125,2.516666,4.653666,1.036198,-0.488820
1001.207031,3.285484,4.258377,6.362853,5.824365
1001.210938,4.068304,6.375806,6.108809,10.416313
1001.214844,7.461997,13.139371,10.045014,12.460719
1001.218750,9.993927,9.503142,11.317392,3.737536
1001.222656,11.629416,7.327424,6.949976,8.591969
1001.226562,9.702470,3.698710,11.713859,10.440143
1001.230469,11.462031,8.160028,9.735655,14.005565
1001.234375,10.086324,10.240751,3.856322,6.120213
1001.238281,0.560666,5.740286,6.210311,7.192381
1001.242188,8.086303,12.387881,1.732272,-1.825279
1001.246094,-6.990672,-3.591450,-2.983684,2.866085
1001.250000,-0.655047,-1.343914,-4.807731,-2.863157
1001.253906,2.026912,-1.004204,-1.383646,-2.342333
1001.257812,2.209067,-1.606273,-7.800527,-7.758022
1001.261719,-4.668156,-8.890689,-13.670126,-6.488949
1001.265625,-15.089179,-10.683767,-7.372493,-12.465462
1001.269531,-9.639976,-2.810050,-1.487901,-11.581885
1001.273438,-6.015726,-14.368558,-5.882666,-5.243833
1001.277344,-11.598956,-6.632089,-8.709351,-4.693529
1001.281250,-7.269545,-5.662036,-12.822125,-2.431543
1001.285156,-9.855986,-11.500179,-11.337753,-2.280448
1001.289062,-12.375989,-6.609111,-8.752618,-9.757519
1001.292969,-6.059557,-4.979049,-3.493044,-6.876535
1001.296875,-4.748230,2.187250,0.871211,1.956976
1001.300781,1.732717,1.103471,-1.629230,-5.372968
1001.304688,-0.697111,-2.074711,4.917435,5.036191
1001.308594,9.871543,7.393119,11.437720,8.332616
1001.312500,4.110862,5.844523,4.500087,-0.213437
1001.316406,6.111789,15.205815,10.692420,12.978315
1001.320312,2.903001,16.810362,10.685343,9.276570
1001.324219,15.994734,4.974690,10.655841,12.688857
1001.328125,8.907012,8.712123,9.078792,6.767289
1001.332031,3.986190,8.717011,10.058382,4.357239
1001.335938,1.852367,9.659424,5.005775,8.467933
1001.339844,2.232805,1.410573,1.207995,4.732428
1001.343750,5.771378,5.936175,1.198218,-3.797805
1001.347656,3.233822,-2.559353,2.395853,3.112074
1001.351562,-0.712629,2.317532,-2.597521,2.586039
1001.355469,-4.556812,-9.853244,0.449369,-5.659922
1001.359375,-7.288139,-15.568102,-2.788761,3.886244
1001.363281,-6.141845,-15.014708,-7.433313,-16.394880
1001.367188,-14.115252,-9.195794,-1.060808,-4.455124
1001.371094,-11.830685,-15.942098,-7.779910,-4.486232
1001.375000,-11.840086,-12.692504,-10.990825,-14.063403
1001.378906,-13.718017,-7.668100,-9.920252,-8.945844
1001.382812,-8.532808,-16.051537,-17.047094,-7.306597
1001.386719,-10.797717,-9.211900,-5.916395,-7.327991
1001.390625,-0.888980,-5.108798,-9.427988,-4.426546
1001.394531,-1.682264,-1.302399,-4.542709,-6.004893
1001.398438,-2.537121,-0.467704,-5.745666,-3.864876
1001.402344,4.089665,-3.702083,5.028918,1.709491
1001.406250,4.350849,2.449082,1.014844,2.397987
1001.410156,6.541640,3.707532,7.881155,-4.513367
1001.414062,0.458784,9.393295,3.437560,-1.733197
1001.417969,11.443489,8.118908,13.485815,5.274217
1001.421875,14.092350,10.910557,9.091002,7.345856
1001.425781,9.753595,5.314276,10.511539,16.403972
1001.429688,10.403261,7.612288,3.352636,14.425547
1001.433594,9.505032,7.354223,6.920564,9.925845
1001.437500,7.727140,5.889004,6.297102,8.043352
1001.441406,2.432399,0.494066,-2.038753,2.561857
1001.445312,-1.289962,3.054387,5.120035,6.379594
1001.449219,3.861674,1.097016,7.133161,7.779986
1001.453125,-9.182066,-4.455710,-1.346519,-0.879165
1001.457031,-3.773717,-3.247588,-5.990586,-9.180141
1001.460938,-5.785206,-4.499541,0.214851,0.073103
1001.464844,-14.985766,-10.808665,-5.582914,-10.444557
1001.468750,-14.532423,-6.308154,-7.298009,-8.468280
1001.472656,-13.748498,-10.456961,-6.483542,-8.264472
1001.476562,-4.433500,-13.783193,-11.418263,-6.763599
1001.480469,-5.643646,-9.359769,-5.065619,-7.709045
1001.484375,-2.747484,-2.912134,-6.145073,-8.351613
1001.488281,-9.679491,3.332977,-4.991831,-11.961353
1001.492188,-0.605879,-5.146062,-11.702067,-8.323206
1001.496094,-6.047080,-1.926223,-3.645031,-9.902468
1001.500000,3.406643,3.194438,-0.098964,0.550385
1001.503906,5.663375,2.077010,4.883747,-0.578493
1001.507812,6.964218,10.548959,3.964364,10.342342
1001.511719,8.328471,7.822819,8.899596,13.437838
1001.515625,6.674267,14.097905,7.027914,8.629980
1001.519531,5.455147,10.409294,9.659551,1.127012
1001.523438,6.561802,7.805444,13.863003,8.315304
1001.527344,7.216404,7.813211,1.801013,4.204997
1001.531250,3.789634,6.914417,9.031443,1.568818
1001.535156,12.173046,9.433046,7.247721,13.526025
1001.539062,12.274250,7.858887,8.292037,5.959202
1001.542969,1.094836,-3.841212,7.303841,10.762226
1001.546875,4.498327,4.614801,7.343779,6.455656
1001.550781,3.137670,-4.651979,-3.183685,0.846293
1001.554688,-3.826186,0.533107,-1.033040,-1.776113
1001.558594,-4.689152,-3.976764,-10.306198,-5.290196
1001.562500,-3.294416,-6.624122,-9.517944,-12.952008
1001.566406,-14.731701,-3.483275,-10.763364,-10.067299
1001.570312,-10.112915,-10.622973,-12.656486,-7.061801
1001.574219,-13.009548,-13.194452,-8.393455,-7.587259
1001.578125,-8.629960,-14.444252,-12.185522,-12.826875
1001.582031,-13.052274,-5.127164,-3.446658,-7.913511
1001.585938,-7.756710,-5.943544,-6.254350,-3.865019
1001.589844,-8.994099,-3.873871,-9.209797,-1.020435
1001.593750,-8.349639,1.049246,-4.606690,1.081285
1001.597656,5.929005,-5.470815,2.510159,-3.925636
1001.601562,-4.078400,4.756337,0.088177,0.540667
1001.605469,-2.675338,0.133698,-3.323632,3.741673
1001.609375,4.134827,7.146874,4.202895,10.940260
1001.613281,13.559269,17.786385,3.220535,0.082686
1001.617188,7.814270,7.967606,12.740448,7.275064
1001.621094,10.974333,14.167074,6.756341,10.989195
1001.625000,8.930309,8.768192,12.242046,14.402948
1001.628906,-1.553990,6.219171,11.926782,12.536562
1001.632812,-0.083433,5.643530,7.984330,10.552936
1001.636719,15.136021,5.509067,6.288755,8.421583
1001.640625,4.315407,9.085478,2.958653,10.381822
1001.644531,2.274305,2.087235,2.305248,6.215215
1001.648438,2.560741,-1.429389,5.284993,-0.521388
1001.652344,-5.879200,-0.650221,-3.667061,-5.987841
1001.656250,-10.279668,1.137571,-2.847901,-6.992814
1001.660156,-1.474075,-2.219746,-10.889617,-10.918647
1001.664062,-3.769438,-6.564900,0.910968,-8.300894
1001.667969,-11.227725,-5.056833,-12.697744,-13.307990
1001.671875,-11.490571,-14.652633,-14.288609,-15.817539
1001.675781,-10.924902,-9.550487,-14.128049,-11.299660
1001.679688,-11.349718,-17.943458,-8.721648,-10.205085
1001.683594,-10.545151,-7.951382,-10.513989,-0.068336
1001.687500,-8.614757,-15.324769,-12.995970,-11.616860
1001.691406,-4.121264,-2.332202,-11.158330,-9.592077
1001.695312,-1.372265,-3.692647,1.010796,-4.563427
1001.699219,-6.478894,-3.144766,-3.421677,7.136679
1001.703125,6.101240,-4.615524,-1.755433,-0.439086
1001.707031,14.327995,2.379472,8.484715,7.160836
1001.710938,9.625164,2.925185,12.472559,2.718359
1001.714844,1.046667,15.921983,8.371000,8.522968
1001.718750,10.335498,13.610976,10.963077,12.930312
1001.722656,17.856091,9.018121,6.627703,4.274253
1001.726562,11.185231,5.329194,6.903151,14.593580
1001.730469,10.477185,5.972576,12.979085,6.700204
1001.734375,10.362501,6.139205,10.953196,9.734617
1001.738281,10.389119,8.030297,8.249270,-0.197000
1001.742188,6.288218,-0.031583,5.301509,12.584028
1001.746094,1.355454,-4.515349,1.357033,8.025082
1001.750000,3.027181,-2.799722,2.650674,-3.162022
1001.753906,-5.885951,4.573441,-0.858606,-10.224918
1001.757812,-2.588045,-8.248658,3.356001,-3.326845
1001.761719,-6.289829,-5.135038,-7.357699,-1.613039
1001.765625,-14.004891,-5.973266,-7.144272,-7.356845
1001.769531,-7.351930,-8.760544,-1.251287,-4.014338
1001.773438,-8.302827,-13.680343,-11.132014,-0.872936
1001.777344,-14.383905,-5.559239,-12.270374,-11.217637
1001.781250,-13.853082,-9.498877,-10.456809,-6.307742
1001.785156,-5.965014,-11.238842,-13.348370,-10.454723
1001.789062,-5.089735,-7.456332,-9.301458,-2.212255
1001.792969,-2.844540,-7.061692,-1.352633,-2.840521
1001.796875,-0.054532,1.676555,0.056661,-1.063329
1001.800781,4.967934,-3.014119,-7.913075,0.559696
1001.804688,7.877259,4.491901,10.255427,0.073582
1001.808594,4.224846,1.279382,-1.547638,-0.433046
1001.812500,6.481318,6.597809,7.850366,11.496801
1001.816406,8.183705,5.141272,11.723511,6.199337
1001.820312,1.371275,7.245771,7.251946,9.978137
1001.824219,16.302322,13.522505,11.767568,17.382903
1001.828125,3.425252,10.630425,4.392815,2.913086
1001.832031,4.877018,11.789372,5.925879,5.777939
1001.835938,7.838843,10.032491,7.634711,10.395474
1001.839844,2.360401,2.757857,3.439334,5.519681
1001.843750,9.095201,5.262327,2.471573,5.571076
1001.847656,-8.483633,2.816149,3.173938,2.757182
1001.851562,-4.727532,-7.183301,-1.556739,0.566860
1001.855469,-7.417704,-8.853348,-4.018622,1.298913
1001.859375,-2.780480,-5.279363,-6.169000,-11.091501
1001.863281,-13.209220,-4.623195,-3.082940,-9.561380
1001.867188,-7.865457,3.177123,-5.959229,-11.054558
1001.871094,-11.412134,-16.481064,-7.654225,-11.271429
1001.875000,-11.385152,-14.038019,-12.282967,-3.546480
1001.878906,-8.311763,-17.341503,-9.179877,-5.582472
1001.882812,-7.480394,-12.171635,-8.351489,-6.871562
1001.886719,-5.256031,-6.642125,-3.595456,-3.448339
1001.890625,-1.923361,-9.087348,-6.724685,-0.945537
1001.894531,0.205923,-4.539381,-1.438472,3.280168
1001.898438,-2.959463,-2.651604,-5.878353,4.153102
1001.902344,-4.857887,1.777150,-3.681010,5.146478
1001.906250,-1.198545,8.637439,8.984490,1.115257
1001.910156,5.508469,2.706994,8.935966,1.959178
1001.914062,4.523769,0.772072,0.205379,10.919654
1001.917969,13.089336,5.998503,11.115129,7.811492
1001.921875,13.418360,7.036712,15.142202,17.677960
1001.925781,10.531291,2.571389,14.180151,7.177525
1001.929688,8.888408,9.030040,8.361319,13.113856
1001.933594,4.799936,14.932881,10.701627,7.578972
1001.937500,0.346507,4.027552,3.642655,6.648887
1001.941406,8.095827,3.291436,7.778006,7.087151
1001.945312,-0.691917,-2.134690,-0.029450,-5.798721
1001.949219,-2.860803,0.371523,0.794612,1.754505
1001.953125,-0.738719,-4.843995,-0.491773,0.881614
1001.957031,-2.631118,-5.231677,2.609214,-4.065473
1001.960938,-6.685586,-5.076371,-6.003052,-12.304258
1001.964844,-4.667743,-2.475949,0.673629,-6.412897
1001.968750,-13.449773,-5.254868,-14.957456,-4.199829
1001.972656,-4.572157,-11.651444,-11.750783,0.275583
1001.976562,-11.402193,-13.183826,-14.333900,-8.219901
1001.980469,-7.759858,-8.360438,-12.342259,-2.922677
1001.984375,-8.189243,-8.262826,1.310237,-0.447595
1001.988281,1.145368,-6.180628,-8.998421,-7.973771
1001.992188,-3.522943,-10.281727,-3.573248,-6.886209
1001.996094,-1.083882,-3.599560,-6.686527,-2.163472
1002.000000,-2.481351,-4.706533,2.193516,1.246223
1002.003906,-1.395774,-0.139242,3.706322,-3.244289
1002.007812,6.212620,4.252989,5.598851,2.257633
1002.011719,9.968949,2.947869,4.449097,8.025590
1002.015625,5.643729,6.065872,5.536777,8.402601
1002.019531,6.794909,3.190947,8.924285,4.210975
1002.023438,13.693775,8.655035,6.545059,15.388662
1002.027344,12.344222,4.722519,12.367725,3.542140
1002.031250,1.206300,3.572619,4.280752,10.059353
1002.035156,8.341673,9.889252,10.925246,10.515310
1002.039062,3.860287,7.859655,1.211566,0.342380
1002.042969,-1.789351,-0.915931,-1.970304,8.841845
1002.046875,-3.600033,-0.022077,5.645826,-1.842783
1002.050781,3.512901,-4.938512,2.611573,-2.573520
1002.054688,-4.618455,0.922710,-4.347400,-2.281275
1002.058594,-3.418750,-6.069280,3.032157,-2.794158
1002.062500,-7.289534,-13.528022,-6.525713,-20.018943
1002.066406,-8.559284,-10.638098,-13.703084,1.315701
1002.070312,-10.913383,-5.523001,-10.145715,-9.853274
1002.074219,-4.949425,-11.792920,-9.941883,-9.009935
1002.078125,-9.208267,-9.484797,-5.605268,-8.577470
1002.082031,-13.576277,-3.770332,-2.570122,-6.007948
1002.085938,-10.045673,-15.516670,-10.202922,-6.449041
1002.089844,2.998130,-7.990368,0.909982,-7.328934
1002.093750,-10.367322,1.018682,-9.425973,-8.450695
1002.097656,-0.354676,5.575573,-2.134832,4.659839
1002.101562,-0.194630,2.082728,-3.278543,0.634445
1002.105469,-4.995045,0.587344,0.667147,0.780631
1002.109375,-0.313643,1.298414,-1.766575,8.649549
1002.113281,0.787471,6.604688,2.028364,6.743335
1002.117188,12.010684,8.991232,10.021931,0.686866
1002.121094,10.415416,10.811057,9.576916,5.968572
1002.125000,8.609876,8.360990,5.340370,15.131504
1002.128906,9.027789,-0.237295,0.440705,7.132662
1002.132812,8.166686,19.644100,14.496168,5.140146
1002.136719,4.979798,13.881366,8.393566,13.920363
1002.140625,5.320733,2.867452,-3.379523,-1.890782
1002.144531,-1.476465,2.932290,1.557472,0.932249
1002.148438,2.287212,3.062712,-0.497777,6.237973
1002.152344,-0.283199,-3.985427,1.278755,-5.679596
1002.156250,3.165051,-9.974729,-1.287835,-0.988006
1002.160156,-4.281912,-5.996284,-2.826947,-5.285649
1002.164062,-7.018587,-7.825523,-6.271235,-9.129545
1002.167969,-10.613258,-6.605929,-5.473840,-10.259338
1002.171875,-11.734506,-9.758386,-8.500477,-9.250511
1002.175781,-13.122963,-10.445695,-9.984570,-9.910268
1002.179688,-8.738682,-6.753826,-3.996177,-9.647279
1002.183594,-8.984373,-2.560928,-3.375582,-8.081836
1002.187500,-2.213389,-2.186554,-11.307258,-11.659153
1002.191406,-7.648266,-8.519077,-3.374305,-5.240903
1002.195312,-6.205793,5.514966,-0.671199,0.533595
1002.199219,6.488553,2.821994,8.351073,-1.646402
1002.203125,3.686083,2.345030,7.974510,5.338419
1002.207031,4.524008,11.248777,8.202202,6.189641
1002.210938,13.490046,5.863690,4.704476,3.769634
1002.214844,4.342653,9.113166,6.901312,3.217204
1002.218750,6.985339,6.084213,8.611361,7.520858
1002.222656,15.178561,8.817337,9.134608,7.571632
1002.226562,13.785063,14.529560,-2.205406,6.975759
1002.230469,14.434302,14.028054,8.377826,7.185713
1002.234375,7.998484,5.814282,11.874959,13.170548
1002.238281,7.676846,2.075095,9.498112,2.883849
1002.242188,0.649904,3.942307,0.792961,0.277311
1002.246094,0.157090,1.810223,1.843375,-1.037165
1002.250000,-5.973240,4.996484,0.599980,5.516979
1002.253906,-4.467883,-0.090682,-4.769520,-3.700443
1002.257812,-6.070751,-5.766669,3.044208,-3.329443
1002.261719,-9.549137,-3.562491,-4.898889,-12.828856
1002.265625,-9.077796,-5.264331,-18.123160,-3.554639
1002.269531,-13.541095,-6.828121,-9.039642,-14.085440
1002.273438,-3.247797,-11.755447,-15.566731,-10.404288
1002.277344,-5.502540,-3.047735,-12.549956,-6.376190
1002.281250,-18.602045,-14.970779,-8.126741,-7.954447
1002.285156,-0.059637,-6.800525,-9.436362,-4.731491
1002.289062,0.164143,0.817033,-12.165451,-13.812391
1002.292969,-12.035695,-2.190863,1.521908,-4.463632
1002.296875,-11.879634,-7.574864,-3.271227,-4.015035
1002.300781,6.967064,3.524416,5.698654,-0.640954
1002.304688,5.091761,-4.615013,4.288864,-2.465098
1002.308594,5.689730,11.820714,9.419981,12.842723
1002.312500,8.629601,-0.510528,5.826403,4.282269
1002.316406,13.898632,2.526459,13.432440,12.760479
1002.320312,13.119908,11.305147,13.234770,15.890013
1002.324219,6.328890,8.833208,7.760809,10.502835
1002.328125,13.310158,14.658543,11.093893,14.185623
1002.332031,9.550665,5.990922,6.330913,8.518578
1002.335938,9.470270,4.986365,13.268692,8.952354
1002.339844,8.017389,4.859168,10.335815,4.900717
1002.343750,3.950589,-0.291828,-1.110710,5.290068
1002.347656,-4.911399,1.735825,4.735761,-0.431496
1002.351562,0.993947,3.295157,1.774467,-5.302227
1002.355469,3.550953,0.239937,2.082633,1.619793
1002.359375,0.316558,-4.376593,-5.011206,-4.551439
1002.363281,-10.219733,-11.499310,-11.199798,-9.463226
1002.367188,-10.013139,-6.653962,-5.824956,-6.576441
1002.371094,-6.576230,-11.501697,-12.759916,-5.256693
1002.375000,-11.325045,-7.122299,-12.098574,-11.130803
1002.378906,-13.653339,-16.779685,-6.988708,-9.167184
1002.382812,-6.957906,-7.848873,-12.606601,-12.451509
1002.386719,-4.667054,2.503636,-3.917328,-7.231340
1002.390625,-8.942460,-4.328518,-7.949063,-7.908308
1002.394531,-0.774612,-3.735938,-7.837796,0.498752
1002.398438,4.660279,0.760083,-5.460230,-5.894467
1002.402344,-10.296275,-4.886745,10.492067,3.582545
1002.406250,1.635077,1.788255,-0.704297,-4.024401
1002.410156,7.830175,5.916976,13.768344,6.494642
1002.414062,12.696063,7.293173,8.439513,13.399798
1002.417969,10.940868,1.053808,7.546272,11.530834
1002.421875,9.176040,8.040598,7.443803,14.644391
1002.425781,9.070228,13.622660,8.219611,5.216190
1002.429688,11.079837,2.341319,6.410066,3.303739
1002.433594,7.930599,5.410693,8.379669,12.508381
1002.437500,7.287682,-1.139724,5.791302,6.800469
1002.441406,7.562450,7.752535,11.516110,2.931862
1002.445312,4.167467,0.948407,4.990007,4.786816
1002.449219,0.482675,0.838629,1.263280,4.287929
1002.453125,-2.450036,1.059210,-2.385896,3.969196
1002.457031,-7.332766,-2.992495,-3.535369,-6.063559
1002.460938,-5.169837,-8.492929,-8.390308,-10.042859
1002.464844,-8.185285,-9.320552,-0.945772,-4.872580
1002.468750,-10.014017,-9.190496,-7.833317,-1.349859
1002.472656,-8.139252,-18.610365,-7.047193,-8.620391
1002.476562,-10.711704,-11.036936,-16.532473,-6.919366
1002.480469,-7.299196,-16.107216,-9.466591,-4.656346
1002.484375,-5.266937,-4.003484,-6.262334,-7.414918
1002.488281,-5.524360,-4.033755,-6.111589,0.254624
1002.492188,-4.190701,-3.299084,-16.740961,-6.854093
1002.496094,0.741392,2.237533,3.444332,3.905493
1002.500000,-1.152476,-4.839745,-2.669476,4.684058
1002.503906,-1.933627,1.943476,5.239549,1.832710
1002.507812,11.507876,3.546882,4.826329,4.419322
1002.511719,1.537935,1.723222,6.436068,7.215618
1002.515625,11.253585,2.577755,4.299466,10.363610
1002.519531,8.381949,12.793591,10.251354,11.118653
1002.523438,7.686837,5.729267,9.825453,9.735482
1002.527344,15.476164,11.767461,8.344076,14.687299
1002.531250,11.229949,10.370261,12.329854,9.380134
1002.535156,10.401782,7.245800,4.296350,8.582448
1002.539062,10.495912,4.022276,11.517260,10.004471
1002.542969,7.371745,9.383214,7.692167,8.787125
1002.546875,-0.689657,5.738889,6.049049,-1.129667
1002.550781,0.120135,2.771617,3.335680,-2.011319
1002.554688,4.574991,-0.419606,-5.791677,-9.933348
1002.558594,-7.116518,-0.242161,-6.533796,-3.575711
1002.562500,-10.169568,-5.275044,-4.710265,-13.086412
1002.566406,-6.258737,-10.645762,-9.893297,-4.347221
1002.570312,-4.357829,-14.756429,-12.992522,-4.868464
1002.574219,-7.321338,-7.930793,-12.685755,-8.793910
1002.578125,-9.650080,-6.327377,-11.762314,-10.153849
1002.582031,-9.386079,-7.497951,-11.388701,-8.156980
1002.585938,-1.124037,-2.540454,0.189872,-5.780354
1002.589844,-9.136358,-6.200159,-4.015974,-9.987388
1002.593750,-3.064334,-5.444902,-4.663240,-13.471817
1002.597656,-0.509393,-6.231910,-7.093425,-2.250475
1002.601562,6.884993,-1.431678,-1.055166,3.430225
1002.605469,1.543823,5.018020,1.773722,7.542656
1002.609375,-1.099003,7.621142,4.740200,0.664183
1002.613281,9.308861,4.923398,7.819334,4.734220
1002.617188,4.338868,11.471125,8.771536,11.685260
1002.621094,6.032253,8.819433,6.966275,13.383682
1002.625000,6.384312,12.567959,17.080734,11.238638
1002.628906,14.854164,13.886451,-0.196798,13.842338
1002.632812,7.108649,8.735905,9.042541,12.242090
1002.636719,4.746751,7.293803,1.864538,2.732968
1002.640625,-6.076801,2.618050,11.303103,10.112808
1002.644531,7.229575,7.441160,8.085144,5.485895
1002.648438,-5.498875,8.020213,-5.401960,5.274560
1002.652344,-4.381527,2.866501,-3.013421,-4.412980
1002.656250,-10.986823,-2.306346,2.272738,3.452958
1002.660156,-8.450669,0.563829,-5.530992,-8.759129
1002.664062,-13.524459,-9.648271,-9.205973,-7.909353
1002.667969,-4.899933,-10.144340,-12.174070,-4.726525
1002.671875,1.249331,-9.978649,-5.406776,-7.074833
1002.675781,-12.536793,-9.378557,-13.094401,-13.359358
1002.679688,-11.609043,-13.185420,-15.410619,-16.286941
1002.683594,-6.238542,1.024977,-10.277456,-6.956195
1002.687500,-3.960288,-6.770948,-9.304183,-12.039195
1002.691406,-5.383043,-7.733828,-1.747407,-5.799622
1002.695312,1.125868,-2.446389,0.872302,0.597668
1002.699219,-1.598447,-2.371924,-5.182356,-5.244600
1002.703125,5.402822,-0.687013,7.091954,8.293455
1002.707031,2.779894,8.114282,1.401682,1.220452
1002.710938,10.582306,4.481230,7.662131,5.185861
1002.714844,3.028388,15.330856,6.044203,6.059819
1002.718750,13.918542,11.937588,10.992788,8.014964
1002.722656,10.354044,10.560725,6.674230,10.837912
1002.726562,13.246850,7.747046,10.388797,11.056963
1002.730469,13.697282,10.214141,12.036940,12.676605
1002.734375,9.122593,1.948160,8.252434,5.642479
1002.738281,11.615389,4.603656,5.403170,6.159470
1002.742188,4.295975,3.905559,4.092452,-0.265201
1002.746094,8.218313,9.168039,7.155131,-4.953132
1002.750000,-6.512155,-1.343179,2.348865,6.118092
1002.753906,0.702498,-5.987921,0.130970,1.057727
1002.757812,-5.296898,-8.848370,-0.087337,0.508100
1002.761719,-9.337819,-3.639007,-4.018014,-10.501920
1002.765625,-12.020878,-8.624357,-2.134255,-8.008992
1002.769531,-15.157551,-13.074105,-13.165824,-6.010992
1002.773438,-5.505632,-5.424551,-7.580837,-9.448264
1002.777344,-1.907494,-4.509590,-9.989668,-10.079983
1002.781250,-7.714038,-4.184155,-3.170371,-8.027084
1002.785156,-8.090777,-6.933313,-10.860289,-11.357969
1002.789062,-4.494988,-5.370936,-10.461872,-5.673117
1002.792969,-6.127756,-1.059806,-5.273337,-3.034076
1002.796875,-9.227003,-2.478831,1.193053,-1.283514
1002.800781,-0.139872,-3.574775,-2.002840,3.071194
1002.804688,6.733660,1.768584,4.000711,0.652434
1002.808594,6.314102,7.942000,5.510848,6.615705
1002.812500,8.377068,2.513963,9.018591,2.093786
1002.816406,8.927732,3.467503,0.694154,9.627527
1002.820312,7.890096,6.368136,3.485408,19.467823
1002.824219,17.494356,14.335144,11.693956,13.760694
1002.828125,7.091955,8.975300,17.107984,15.085323
1002.832031,7.280503,11.714714,12.222818,18.815255
1002.835938,7.191356,10.415124,6.395770,4.484847
1002.839844,6.817593,12.271139,3.057830,6.916208
1002.843750,9.534955,0.615885,5.975882,6.702355
1002.847656,4.044363,8.056518,-2.512912,-1.002980
1002.851562,-4.822654,4.848539,-7.197681,1.383255
1002.855469,-9.609193,1.722397,-5.612845,-3.985072
1002.859375,-10.857773,-1.094081,-9.463069,-3.724897
1002.863281,-8.134599,-9.711665,-6.850888,-9.513041
1002.867188,-8.059637,-1.203469,-10.445318,-10.075868
1002.871094,-13.846587,-14.039278,-8.095129,-14.462981
1002.875000,-11.346132,-10.712439,-7.778650,-11.783414
1002.878906,-11.983809,-6.980888,-4.587832,-11.725509
1002.882812,-7.896486,-9.799194,-8.225802,-7.351191
1002.886719,-4.522246,-9.333079,-9.463698,-9.545470
1002.890625,-6.329266,-11.248147,-1.838771,-7.071261
1002.894531,-8.182363,-4.390679,1.541575,-5.165510
1002.898438,-1.903469,-1.682283,-2.937486,0.254200
1002.902344,-0.391257,1.547622,5.229772,1.214278
1002.906250,0.331130,4.177637,1.149258,3.576986
1002.910156,0.583183,4.887862,7.195654,10.725016
1002.914062,4.941589,4.083915,6.622545,5.164702
1002.917969,5.231663,6.696898,0.616659,6.225867
1002.921875,12.045300,14.721445,14.317043,11.865477
1002.925781,12.616938,6.556886,7.368727,7.814296
1002.929688,5.863263,11.270817,11.045442,6.649359
1002.933594,12.254382,14.145901,4.551265,4.933286
1002.937500,6.969905,7.896031,12.365109,3.082839
1002.941406,-0.059153,7.154166,3.114549,2.995038
1002.945312,2.773909,1.328392,-0.196284,-5.330778
1002.949219,5.284641,3.074838,0.269488,0.416971
1002.953125,-7.430423,-5.833581,-10.065789,-4.568216
1002.957031,2.221899,0.518081,-5.115325,-10.470517
1002.960938,-14.397254,-7.112567,-10.758291,-2.476081
1002.964844,-12.191755,-6.324534,-6.841386,-4.264499
1002.968750,-7.765071,0.219709,-9.715558,-14.102551
1002.972656,-7.973994,-12.466568,-8.469415,-5.509399
1002.976562,-11.088106,-10.414584,-9.437755,-13.318063
1002.980469,-6.308134,-13.120473,-1.908799,-10.745288
1002.984375,-12.082418,-9.479018,-13.320091,-4.919589
1002.988281,-3.086135,-11.235791,3.656527,-7.994795
1002.992188,-4.655845,-7.723974,-7.797861,-1.442033
1002.996094,0.220824,0.085213,1.546837,-0.498341
1003.000000,3.532071,0.220962,7.533986,-1.873566
1003.003906,-2.923335,0.239108,-1.351670,3.049426
1003.007812,8.162731,2.797041,4.364465,4.841890
1003.011719,15.940183,1.642876,9.312869,5.230888
1003.015625,6.583059,3.825380,6.846380,8.963716
1003.019531,10.350515,1.283410,6.409160,10.022442
1003.023438,15.287827,13.920865,14.545060,6.154723
1003.027344,9.270191,15.066362,7.341208,13.913704
1003.031250,9.800654,6.637408,14.548385,7.783430
1003.035156,6.378395,12.141881,6.499794,5.714030
1003.039062,4.809847,6.187418,5.233625,7.112875
1003.042969,3.757492,7.333087,7.045731,6.456042
1003.046875,2.709597,1.845379,1.893267,1.879935
1003.050781,1.801217,7.688922,-5.426933,2.493745
1003.054688,-0.511020,-7.360859,0.832008,-5.891455
1003.058594,-8.317655,-1.398906,-1.891115,-0.966297
1003.062500,-6.805065,-8.052702,-8.895845,-9.241948
1003.066406,-4.453735,-3.444911,-3.868112,-12.189817
1003.070312,-9.460900,-7.183206,-8.820856,-9.836327
1003.074219,-4.824287,-15.710592,-13.247719,-8.595722
1003.078125,-6.814134,-10.660577,-14.662758,-15.561808
1003.082031,-8.302748,-4.848272,-7.608940,-7.459781
1003.085938,-4.262595,-15.294697,-1.479471,-10.745397
1003.089844,-13.128133,-2.972114,-2.358995,-6.800402
1003.093750,2.495748,-3.940481,-2.309506,-6.486405
1003.097656,-0.042316,-6.300679,-4.302467,-0.102521
1003.101562,2.733203,-8.815714,2.686397,-7.170290
1003.105469,2.672209,4.801319,3.552056,-1.006999
1003.109375,4.152241,2.711782,2.215633,2.459761
1003.113281,-0.194016,8.260504,6.987104,8.172362
1003.117188,13.294290,15.401316,5.160811,5.684834
1003.121094,10.965217,13.439046,6.815561,7.311203
1003.125000,11.760161,10.310964,11.939874,2.999009
1003.128906,4.261290,-4.427750,15.116529,10.822061
1003.132812,12.228434,6.453358,7.241518,13.873571
1003.136719,6.120119,1.064637,5.350730,1.814841
1003.140625,11.796603,9.596335,10.853187,2.287652
1003.144531,5.341983,1.513946,2.188495,3.456176
1003.148438,1.499575,-4.859977,6.805421,-0.720275
1003.152344,-11.084318,3.116270,0.549319,1.962894
1003.156250,-11.128518,-2.008986,-11.221134,-3.980124
1003.160156,-5.799443,-2.444927,-10.539154,-12.302002
1003.164062,-10.452056,-1.548069,-9.188429,-6.755607
1003.167969,-7.269814,-13.609049,-10.734763,-20.328971
1003.171875,-10.440974,-11.326073,-12.887396,-7.791114
1003.175781,-11.700154,-4.487476,-15.714882,-11.990411
1003.179688,-15.321986,-9.624023,-13.344622,-10.897231
1003.183594,-2.219536,-12.818840,0.891170,-8.812823
1003.187500,-7.693877,-8.191751,-4.038070,-11.612520
1003.191406,-3.246738,-1.623338,-3.921237,0.037743
1003.195312,2.162273,-2.112834,-9.940179,-3.876508
1003.199219,0.702236,3.264270,-0.874060,2.628366
1003.203125,3.723072,1.499066,-1.793453,-10.295441
1003.207031,4.558647,7.667321,0.943637,6.923035
1003.210938,10.113325,-0.332928,7.563908,4.722242
1003.214844,13.200842,4.754709,14.296911,11.230432
1003.218750,8.685214,9.172844,4.493737,10.273531
1003.222656,17.852210,7.856390,8.973319,12.092438
1003.226562,10.023146,3.021301,7.015912,12.716778
1003.230469,11.117102,4.220487,9.802325,13.311423
1003.234375,13.656255,9.062923,6.565631,9.713332
1003.238281,5.631648,1.206467,6.150911,6.822082
1003.242188,9.654826,6.246708,9.643051,-1.279963
1003.246094,-2.317698,-4.049750,3.757096,7.246026
1003.250000,-0.335707,5.381935,1.632839,2.258479
1003.253906,-9.381180,-6.720753,-1.194939,-2.084846
1003.257812,4.110680,-2.009058,-8.167110,-9.340449
1003.261719,-7.913143,-10.363270,0.367974,-11.948930
1003.265625,-6.699865,-5.463642,-9.856765,-10.842891
1003.269531,-7.484980,-18.068357,-11.726436,-12.966094
1003.273438,-11.838847,-1.090025,-10.559088,-16.355543
1003.277344,-8.302625,-10.741085,-23.760912,-6.071889
1003.281250,-10.888134,-10.603435,-1.439229,-15.948069
1003.285156,-1.577719,-7.331839,-11.777947,-4.746726
1003.289062,-11.906258,-8.236132,-1.107014,-4.483267
1003.292969,-6.003312,-2.852224,-6.806142,0.677387
1003.296875,1.130963,3.580768,1.565946,0.413436
1003.300781,-2.241824,-4.406117,-0.772420,-9.270109
1003.304688,8.621455,-0.184588,3.141103,5.974194
1003.308594,2.657848,8.149807,1.954896,2.845519
1003.312500,2.846664,11.057931,1.148657,3.467153
1003.316406,3.085559,2.672371,3.129601,9.997610
1003.320312,10.570883,3.523246,10.686490,12.138951
1003.324219,16.168986,6.086322,6.048514,12.442051
1003.328125,3.899274,12.125836,7.475180,12.629545
1003.332031,14.572689,2.457947,8.882488,15.082223
1003.335938,4.232986,4.999086,3.932707,12.516831
1003.339844,7.515633,1.637327,7.825645,3.286927
1003.343750,6.778867,5.882439,13.367366,11.964972
1003.347656,0.694383,3.990853,-0.209352,-2.747757
1003.351562,7.902157,-4.414640,0.583974,-1.431919
1003.355469,-7.745068,-0.848601,-7.833343,-10.665432
1003.359375,-0.807398,-1.636927,-5.062954,-3.996587
1003.363281,-6.491587,-2.613108,-11.849155,-10.448149
1003.367188,-8.443157,-7.015601,-12.289750,-7.893637
1003.371094,-5.208711,-10.561351,-8.672818,-12.522756
1003.375000,-8.497914,-12.665219,-9.505511,-7.081615
1003.378906,-11.578357,-14.511041,-6.926667,-9.224977
1003.382812,-5.789217,-12.533976,-17.040948,-8.456839
1003.386719,-8.073375,-1.263813,-7.153060,-11.093111
1003.390625,-6.009564,-8.909404,-10.026613,-4.630392
1003.394531,1.029040,-8.325263,-3.241523,-6.789861
1003.398438,-4.996821,1.541406,-0.811580,0.998850
1003.402344,3.262988,-7.928643,-2.493850,-1.776282
1003.406250,10.311866,5.473675,3.201248,4.479875
1003.410156,9.873415,1.900945,2.323555,6.981850
1003.414062,4.618505,6.550855,4.862561,9.331188
1003.417969,6.920175,4.091683,14.138295,10.900379
1003.421875,10.302261,7.166829,7.395905,5.039366
1003.425781,7.590596,11.021842,3.459908,6.234745
1003.429688,7.535134,9.630178,8.849055,9.841112
1003.433594,8.332211,13.166833,7.551076,14.060878
1003.437500,5.131634,11.664136,6.414408,9.379251
1003.441406,4.498566,3.179371,8.144255,9.419417
1003.445312,3.850059,3.849796,3.703217,0.409977
1003.449219,2.350022,0.461079,-2.524728,-1.259815
1003.453125,4.614036,-1.397031,3.976299,-0.807753
1003.457031,1.795651,-10.344470,-7.578575,-3.497667
1003.460938,-13.816422,-4.918495,-8.037472,-8.773550
1003.464844,-5.629909,-10.868854,-4.264994,-7.636511
1003.468750,-9.114013,-5.714278,-15.476775,-13.628229
1003.472656,-8.091236,-12.718099,-10.942742,-11.463237
1003.476562,-8.837902,-6.247531,-10.944348,-7.485760
1003.480469,-16.235273,-6.432647,-8.798371,-9.267529
1003.484375,-10.777082,-10.344316,-7.950786,-12.187465
1003.488281,-6.762471,-4.188239,-1.402037,-8.561231
1003.492188,-3.875171,-6.066947,-17.676764,-0.468026
1003.496094,-11.019067,-2.234143,-5.079345,-0.099570
1003.500000,2.598075,9.120987,3.919343,-0.034348
1003.503906,4.656697,1.757796,3.715353,6.534019
1003.507812,8.194446,9.107214,10.954435,8.356118
1003.511719,7.119947,2.875264,6.451305,11.762332
1003.515625,9.553154,3.463481,4.098704,3.747887
1003.519531,12.365855,5.836495,6.639755,16.041236
1003.523438,8.791200,16.824040,8.216101,12.149709
1003.527344,7.084807,11.044939,12.656974,12.887493
1003.531250,11.429950,4.650993,2.887165,12.513109
1003.535156,10.038241,-2.221374,1.949878,9.599249
1003.539062,4.840493,10.622477,8.577446,8.454665
1003.542969,1.568527,0.112736,4.158448,6.684427
1003.546875,-1.313511,-0.781421,-3.903811,2.510734
1003.550781,0.113317,1.457460,9.943121,-2.276614
1003.554688,-3.748215,-4.343184,-14.350743,-4.459779
1003.558594,-0.858427,-6.696727,-1.631087,-3.571867
1003.562500,-4.749482,-14.006556,-1.870674,-5.066609
1003.566406,-2.593288,-2.474947,-2.951985,-6.978061
1003.570312,-14.421770,-4.063998,-12.217382,-10.539988
1003.574219,-12.793244,-15.297887,-9.259641,-10.406821
1003.578125,-3.429222,-5.905590,-11.321132,-8.240586
1003.582031,-9.146515,-12.601631,-8.318559,-9.670977
1003.585938,-11.208768,-10.213714,-11.451765,-9.819883
1003.589844,-6.032931,-6.017537,-8.347459,-9.663869
1003.593750,-4.300134,-3.587363,4.699936,0.842805
1003.597656,-0.302068,-7.048406,-1.522381,-3.308595
1003.601562,3.792267,3.626596,9.593414,2.811104
1003.605469,2.607066,6.162044,-1.904243,7.617483
1003.609375,0.492929,1.218804,8.074734,5.227682
1003.613281,3.452294,11.097995,-3.368957,4.349732
1003.617188,7.483033,13.014636,9.785133,15.240089
1003.621094,5.847472,11.706014,7.984771,8.543995
1003.625000,11.132967,12.089469,6.102270,19.897523
1003.628906,11.151680,4.589231,8.576112,12.641086
1003.632812,5.977728,6.590047,7.479340,8.727990
1003.636719,15.331906,6.633443,3.225654,10.129041
1003.640625,2.573395,11.069431,-1.898501,2.125516
1003.644531,-3.373859,3.340525,3.495170,3.162675
1003.648438,3.308619,-3.997837,-3.270443,-0.526689
1003.652344,-5.245575,2.075432,1.597455,-3.559006
1003.656250,-1.426945,-4.095473,-4.749382,2.509099
1003.660156,-16.428991,-11.649965,-3.230506,-8.680783
1003.664062,-11.796201,-5.208757,-9.013388,-9.024415
1003.667969,-14.433104,-12.126542,-10.924031,-10.000499
1003.671875,-8.836639,-16.340831,-4.803259,-9.056238
1003.675781,-6.757424,-10.120738,-4.200258,-18.112951
1003.679688,-12.339636,-5.506597,-7.042464,-6.758189
1003.683594,-8.414361,-7.030620,-7.650878,-5.519162
1003.687500,-4.823581,-5.845531,-1.127214,-6.590323
1003.691406,-3.265470,-2.730437,-0.641197,-5.628056
1003.695312,-4.664794,-4.801912,-2.451182,-3.976362
1003.699219,-8.055644,-6.884928,6.379441,-2.576905
1003.703125,5.389157,8.297296,6.958714,5.230526
1003.707031,3.783426,1.590817,-1.613717,7.576641
1003.710938,3.061476,6.000922,11.516103,11.773783
1003.714844,11.760772,8.558274,16.768858,13.075823
1003.718750,4.807963,8.922028,4.731992,-0.083508
1003.722656,10.237616,12.401093,4.787585,19.100471
1003.726562,13.797663,15.257768,3.474799,7.487174
1003.730469,11.218149,15.967102,0.311513,3.426053
1003.734375,10.096680,3.175367,3.061023,9.724838
1003.738281,5.956930,2.949373,8.587318,7.010364
1003.742188,-2.017721,8.639300,9.216862,7.861397
1003.746094,3.497900,-0.285169,-1.268754,1.512322
1003.750000,-4.304773,0.451958,2.115213,0.087642
1003.753906,-2.534705,-5.968609,-1.570274,-0.002706
1003.757812,1.848106,-3.065262,-4.754354,-9.330355
1003.761719,-5.002436,-8.526127,-2.984473,2.686127
1003.765625,-5.058794,-13.723954,-6.118985,-7.587910
1003.769531,-9.841677,-9.356196,-17.439962,-7.555647
1003.773438,-7.560314,-18.333559,-7.884623,-5.767140
1003.777344,-5.965264,-5.728941,-13.976555,-17.345585
1003.781250,-11.830319,-11.882570,-2.742641,-5.600959
1003.785156,-12.104991,-4.720394,-9.265238,-4.047735
1003.789062,-6.175869,-6.092119,2.435393,-5.756129
1003.792969,-1.325105,-7.831601,-5.265751,-3.885480
1003.796875,1.716071,-6.355777,-1.302075,-5.586655
1003.800781,0.800989,6.473896,1.000085,4.496247
1003.804688,1.360468,-2.394972,-2.994551,-1.890122
1003.808594,2.531322,0.211371,7.259504,7.061874
1003.812500,7.369888,8.273219,7.309838,5.242392
1003.816406,10.335170,5.616139,6.253575,6.989112
1003.820312,4.677541,10.664063,12.009105,9.884494
1003.824219,13.320631,17.091985,12.422753,14.195410
1003.828125,2.522285,7.100734,6.938243,10.373937
1003.832031,2.272431,1.398592,4.088805,8.161994
1003.835938,1.635967,6.279694,11.587076,7.132490
1003.839844,4.098513,3.308714,-3.070413,7.694255
1003.843750,1.743964,4.641765,4.680717,1.330548
1003.847656,4.533675,12.221391,4.709096,1.885807
1003.851562,1.876544,4.247721,-0.789648,-2.421011
1003.855469,-5.161792,-9.193810,1.680034,-4.908090
1003.859375,-12.318827,-4.721998,-5.809367,-2.164908
1003.863281,-4.141188,-11.216143,-4.873065,-7.951453
1003.867188,-10.074370,-7.400491,-6.618108,-4.245066
1003.871094,-6.058617,-13.286394,-10.163020,-12.945411
1003.875000,-7.873095,-9.320302,-17.528393,-8.069669
1003.878906,-4.135535,-8.325202,-8.650300,-7.820457
1003.882812,-10.046545,-4.288760,-1.147180,-18.737136
1003.886719,-6.393314,-10.425284,-6.791664,-12.311585
1003.890625,-11.310306,-8.022065,-4.810361,-8.445971
1003.894531,-1.375222,2.548491,-6.287432,1.372336
1003.898438,2.998631,-2.199518,-6.177372,4.671429
1003.902344,0.031952,-1.090370,-3.017696,2.119709
1003.906250,2.004026,-5.497646,8.893763,11.899664
1003.910156,6.191755,3.900881,2.753269,5.296023
1003.914062,10.385447,6.463766,9.060405,4.766662
1003.917969,2.165014,12.682515,7.437366,11.703032
1003.921875,12.725698,11.669059,6.724651,9.764419
1003.925781,13.047370,7.907552,11.257772,6.196929
1003.929688,15.316248,8.810542,13.601365,2.433440
1003.933594,8.813552,10.527393,5.037576,8.324825
1003.937500,9.273765,7.753820,3.009217,12.859994
1003.941406,7.744327,3.034889,10.682155,4.057989
1003.945312,0.528205,7.306643,7.893718,7.613452
1003.949219,-2.210489,-0.755430,1.315870,-2.953424
1003.953125,3.503401,3.780149,-3.177148,-4.165224
1003.957031,3.556902,-5.706912,-3.080211,1.719323
1003.960938,-3.727054,-6.926973,-8.956775,-9.188974
1003.964844,-1.736728,-1.646169,-4.534156,-5.160076
1003.968750,-16.737059,-8.120456,-7.270622,-8.411375
1003.972656,-12.567183,-1.572060,-8.119492,-6.500445
1003.976562,-14.567854,-11.185011,-12.498524,-2.709935
1003.980469,-15.225924,-8.177577,-18.568259,-11.563298
1003.984375,-7.887231,-14.137700,-7.878030,-4.539425
1003.988281,-12.027782,-10.768902,-0.805885,-6.482726
1003.992188,-9.330899,-1.325894,-6.049879,-4.123252
1003.996094,3.139072,1.001948,-4.130133,-8.403206
1004.000000,0.613171,1.529173,-11.742117,-3.364634
1004.003906,6.076333,-2.099767,1.704747,2.665127
1004.007812,8.001772,7.805008,2.633818,5.623757
1004.011719,3.969934,8.954736,7.594337,10.763589
1004.015625,10.623214,5.849293,7.251808,6.725837
1004.019531,7.402216,7.910508,9.386949,1.188364
1004.023438,1.374249,0.870838,8.692332,18.682477
1004.027344,14.118777,7.571823,6.664948,10.784721
1004.031250,16.074322,9.028419,11.040456,14.398057
1004.035156,3.722176,6.080665,15.656037,7.889912
1004.039062,7.197190,11.668853,2.634649,10.088138
1004.042969,3.682417,9.202867,2.882535,0.725273
1004.046875,-1.935541,7.045955,11.965199,1.920345
1004.050781,-4.041839,-1.745424,0.952487,5.483007
1004.054688,-4.030026,-13.861168,-3.043676,-2.098632
1004.058594,-0.617008,-9.333688,-6.067373,-5.907544
1004.062500,-7.958213,-1.414037,-5.457914,-11.558171
1004.066406,-8.754694,1.305261,-6.439728,-6.676008
1004.070312,-10.177091,-10.783244,-12.320398,-6.253546
1004.074219,-13.371400,-13.251734,-6.849627,-6.315424
1004.078125,-12.635256,-5.538633,-2.429948,-12.195359
1004.082031,-5.149915,-12.520477,-6.638824,-9.558657
1004.085938,-5.510647,-8.035366,-11.783728,-5.707296
1004.089844,1.540151,-6.476758,-5.920824,-8.859791
1004.093750,-7.940373,-7.756879,-2.626628,-4.989424
1004.097656,-6.715252,5.045687,1.243172,3.853231
1004.101562,6.978372,-2.412267,2.318768,-0.608497
1004.105469,6.627483,7.129686,7.315094,3.492357
1004.109375,3.376944,8.593898,8.709510,1.595020
1004.113281,-0.423150,3.598092,11.089020,4.657579
1004.117188,5.484976,9.582807,11.582070,10.983359
1004.121094,13.763379,10.864338,7.489837,9.955247
1004.125000,14.677211,11.291481,9.730375,7.098229
1004.128906,11.384941,9.037239,12.802211,9.430313
1004.132812,4.826278,13.500227,11.378127,17.662466
1004.136719,6.707592,11.488052,4.562888,4.329017
1004.140625,6.305170,7.860864,8.049867,5.567557
1004.144531,-0.445333,1.203675,0.036286,8.318594
1004.148438,8.509946,5.114954,1.340126,7.722223
1004.152344,-12.047165,5.473365,-5.423521,0.293747
1004.156250,5.318175,-10.153283,-3.936045,-2.636829
1004.160156,-3.686302,0.431611,-1.641023,-5.931342
1004.164062,-7.158190,-8.707580,-7.061582,-5.568454
1004.167969,-9.829840,-10.484788,-4.147190,-12.941590
1004.171875,-8.765986,-1.212332,-10.158597,-17.316529
1004.175781,-10.893912,-9.772846,-8.127030,-10.364905
1004.179688,-7.502923,-6.122064,-16.239945,-7.160834
1004.183594,-4.414559,-11.151317,-4.444979,-9.657324
1004.187500,-9.316630,2.242930,-10.226560,-3.892358
1004.191406,-6.591799,-5.266457,-4.153808,-6.313439
1004.195312,1.123774,-2.396305,-2.946725,-2.577261
1004.199219,-2.607913,1.717142,0.251328,7.599940
1004.203125,-0.405997,1.815941,-3.023915,3.218720
1004.207031,2.029915,5.871434,4.992076,2.270417
1004.210938,6.956731,2.029307,4.614423,5.724249
1004.214844,8.045484,15.989486,20.643317,10.851049
1004.218750,5.367117,6.774220,6.391118,12.901701
1004.222656,8.731176,12.099782,13.445225,7.238580
1004.226562,17.762552,9.141775,12.448063,11.172001
1004.230469,21.556404,13.743201,12.378686,4.008476
1004.234375,8.575892,6.199089,3.660066,4.271817
1004.238281,4.590645,0.843669,8.424559,11.059115
1004.242188,2.800987,0.949903,-2.658854,-1.662089
1004.246094,-0.258786,5.605153,2.100908,5.296603
1004.250000,0.630177,1.468668,2.992843,3.223698
1004.253906,-4.850451,9.081541,1.276779,-8.437366
1004.257812,-4.590330,-3.847073,-6.059982,-4.189486
1004.261719,-3.748830,-13.391850,-13.641837,-5.813357
1004.265625,-9.586408,-3.481777,-9.756919,1.311508
1004.269531,-16.670402,-15.000482,-10.230747,-9.089070
1004.273438,-13.243059,0.170791,-14.873380,-14.305888
1004.277344,-9.873564,-0.549957,-9.342947,-1.982051
1004.281250,-10.985342,-3.359286,-11.829893,-6.296785
1004.285156,-2.317261,-11.259826,-5.207936,-3.988438
1004.289062,-5.032159,-4.219779,-10.171264,-12.020624
1004.292969,2.324461,-10.784217,2.232335,-6.030555
1004.296875,1.204610,4.598290,5.953600,-4.619131
1004.300781,0.873008,-3.861474,-8.356619,-2.358196
1004.304688,5.811896,-7.164382,1.073778,-1.856225
1004.308594,-4.573454,-4.361353,2.977665,9.248341
1004.312500,3.246914,9.514202,6.598835,7.157968
1004.316406,5.916375,18.383831,7.442147,6.222940
1004.320312,6.436789,6.865877,7.935283,20.133423
1004.324219,10.147406,5.177842,14.051292,10.209495
1004.328125,8.618965,14.691866,8.101593,5.251707
1004.332031,12.677978,12.448820,7.786141,7.395830
1004.335938,3.771620,-0.406197,7.211189,15.869115
1004.339844,11.874112,7.714880,5.626470,14.427856
1004.343750,-1.719936,-4.485671,5.225196,3.001386
1004.347656,6.610262,0.240889,3.885804,4.200356
1004.351562,-4.952807,0.046781,6.168696,-0.957993
1004.355469,-3.457844,-12.463279,-5.026229,-1.588846
1004.359375,-4.945349,-2.313552,2.463302,-10.168263
1004.363281,-12.235979,-9.748586,-13.904557,-4.764826
1004.367188,-4.961464,-4.162758,-8.479123,-9.139302
1004.371094,-13.310744,-8.593768,-13.259944,-11.395520
1004.375000,-10.548136,-14.888607,-8.017219,-7.955457
1004.378906,-16.116479,-14.189735,-12.033532,-12.407160
1004.382812,-5.562450,-10.595646,-8.521714,-4.064703
1004.386719,-12.341997,-11.108847,-8.941514,-8.672881
1004.390625,1.244235,-2.840004,-5.290828,-9.040328
1004.394531,5.374829,-4.153363,1.516971,-7.010607
1004.398438,-1.300980,-10.816561,0.215921,-4.565855
1004.402344,-1.623048,-0.137618,2.331077,0.586804
1004.406250,2.884311,-0.431386,5.135994,-2.006072
1004.410156,12.680493,4.252621,1.371276,7.345491
1004.414062,1.967360,13.107546,6.468989,13.309345
1004.417969,3.621048,3.454917,17.183976,6.101598
1004.421875,0.018718,9.562311,20.398957,13.959214
1004.425781,7.182397,13.378119,16.136120,8.449684
1004.429688,7.626939,7.834003,4.011350,9.901675
1004.433594,8.898665,13.165816,9.036349,11.090967
1004.437500,12.877393,0.645010,5.040482,9.655234
1004.441406,10.462493,16.258709,11.604816,1.875787
1004.445312,-8.049932,-0.542911,1.410458,-0.754864
1004.449219,4.547911,2.810615,2.830441,0.505214
1004.453125,-1.261584,-6.505717,0.729020,-2.869207
1004.457031,-4.743772,-6.379084,-6.665513,-11.492038
1004.460938,-10.523396,-7.275759,-10.191970,-12.817474
1004.464844,-8.039688,-3.347204,-4.326217,-3.846672
1004.468750,-8.397674,-12.780776,-5.950704,-4.633332
1004.472656,-9.796160,-13.191851,-10.842994,-11.338796
1004.476562,-16.581466,-8.883987,-9.197473,-6.982401
1004.480469,-7.381595,-11.620024,-10.687377,-11.407001
1004.484375,-4.130101,-7.425298,-13.458467,-3.760457
1004.488281,3.030813,-5.737715,-3.413730,-4.360096
1004.492188,2.274546,2.879442,-0.851705,-0.195951
1004.496094,-5.654877,-6.649588,-0.792345,-3.786538
1004.500000,8.539806,-0.218076,6.319341,4.844468
1004.503906,-4.218616,4.263816,0.675480,0.062049
1004.507812,4.121824,3.188856,1.956157,9.074381
1004.511719,6.805377,3.213305,3.129385,7.481961
1004.515625,16.550516,6.904861,9.171575,14.422361
1004.519531,10.061619,8.924452,6.978607,6.769323
1004.523438,14.048905,10.594737,6.825727,3.875608
1004.527344,6.735236,16.171401,10.780531,8.332160
1004.531250,14.562380,11.606672,10.595252,1.833810
1004.535156,10.413088,11.707649,5.463482,6.498160
1004.539062,2.426264,3.662323,1.866901,3.639053
1004.542969,-1.039159,10.640103,16.545323,6.968622
1004.546875,-0.945732,3.775731,0.415004,7.781245
1004.550781,2.254985,-3.105122,-0.464505,-3.170951
1004.554688,-7.395426,-4.891001,-6.719176,-0.379785
1004.558594,0.048390,4.699424,-10.301382,-3.244554
1004.562500,-9.163784,-4.840675,-8.861942,-10.804921
1004.566406,-3.821874,-9.206951,-7.001675,-8.244577
1004.570312,-8.948244,-7.073082,-11.086175,-7.396851
1004.574219,-6.800622,-10.520465,-10.697622,-7.917436
1004.578125,-7.037007,-8.355691,-10.734719,-5.144127
1004.582031,-7.141220,-13.049121,-15.749378,-13.569498
1004.585938,-4.000570,-7.627029,-5.624595,-3.248401
1004.589844,-2.909810,-4.652396,-1.690340,-15.108516
1004.593750,-4.457295,-5.842087,-3.122483,4.621979
1004.597656,-4.891037,-2.828511,4.998774,-2.243786
1004.601562,4.529183,1.056222,-1.080043,4.400139
1004.605469,8.529284,1.986337,1.669076,3.260776
1004.609375,5.033336,5.447672,12.068584,13.667450
1004.613281,10.869513,-0.446217,7.264932,3.449292
1004.617188,8.402091,7.299857,-0.848649,12.771888
1004.621094,7.148228,4.493774,3.507174,15.712438
1004.625000,10.245277,16.764970,9.979487,14.397343
1004.628906,9.911511,13.672177,8.922310,12.006217
1004.632812,8.628982,14.313697,11.436606,7.736908
1004.636719,9.065187,5.345983,-0.099557,8.269525
1004.640625,-0.985116,3.613736,-0.105056,4.689610
1004.644531,6.630645,2.723758,8.796222,7.743827
1004.648438,0.071017,-2.593501,-6.565104,2.033456
1004.652344,-0.982682,-1.900886,-1.904558,-1.301929
1004.656250,-7.320674,4.066827,-4.306483,-1.885361
1004.660156,-8.289580,-6.643831,-8.439220,-11.657854
1004.664062,-16.394194,-6.440468,-12.453770,-7.675960
1004.667969,-6.137212,-9.063906,-12.201241,-1.435506
1004.671875,-9.488773,-7.513136,-11.344966,-9.943544
1004.675781,-14.089732,-14.267330,-16.638055,-4.333676
1004.679688,-17.077571,-19.001625,-5.492312,-14.525464
1004.683594,-12.119667,-9.803293,-9.665311,-13.195626
1004.687500,-3.794634,-12.876989,-1.418519,-5.166998
1004.691406,-5.173398,-8.579206,-8.159096,-8.569836
1004.695312,-8.243092,-2.969474,-6.550691,-1.278720
1004.699219,-0.115376,-6.372098,-0.602591,-7.699986
1004.703125,11.483009,5.142754,-1.910572,-2.500604
1004.707031,5.555505,9.929067,6.761016,4.649173
1004.710938,7.637088,4.987465,5.104434,5.538519
1004.714844,7.377862,5.994457,5.499392,10.549092
1004.718750,6.707265,11.371822,8.261317,8.449358
1004.722656,11.389863,11.802823,5.660836,8.444673
1004.726562,12.218785,14.421411,13.974075,13.144256
1004.730469,12.873289,7.622443,8.312918,11.942846
1004.734375,13.693843,7.512157,0.605173,6.388991
1004.738281,3.840447,-2.047309,-0.253655,8.083327
1004.742188,-0.840645,3.812729,3.469622,5.809918
1004.746094,6.205569,1.471522,-0.052404,3.876763
1004.750000,-4.920396,-1.564162,2.674267,3.050141
1004.753906,-1.077622,-2.041763,-6.388698,-3.979266
1004.757812,-6.574313,-5.543340,-1.397431,1.130291
1004.761719,-0.703213,-4.948542,-1.619296,-8.025633
1004.765625,-6.040886,-6.974498,-11.096175,-11.993271
1004.769531,-8.787938,-5.557557,-11.007159,-11.768236
1004.773438,-10.875264,-2.172561,-9.122519,-15.060569
1004.777344,-6.177814,-6.545504,-9.759595,-10.585603
1004.781250,-8.858291,-15.071617,-11.745366,-7.658352
1004.785156,-3.011470,-4.096413,-10.944528,-6.011493
1004.789062,-10.391242,-5.933518,-5.032901,-9.519856
1004.792969,-9.316308,-6.593247,-11.337253,-9.513022
1004.796875,-4.125703,-8.246744,5.003410,-1.836431
1004.800781,-4.638322,-8.849747,-2.852701,-3.980039
1004.804688,5.557075,8.493020,-5.426493,8.220040
1004.808594,9.063657,9.253473,0.765890,0.684974
1004.812500,7.019173,4.739229,6.722022,7.015773
1004.816406,9.824534,6.113439,16.974047,10.111178
1004.820312,1.788570,12.215666,5.589035,11.944856
1004.824219,9.013777,12.066752,13.348569,11.840222
1004.828125,14.374543,5.491473,14.570191,8.668837
1004.832031,13.857197,15.235337,5.109873,13.089658
1004.835938,8.261360,7.855955,9.396529,7.840536
1004.839844,6.543495,9.894885,2.143948,9.710617
1004.843750,9.524901,3.800796,1.688726,0.535973
1004.847656,10.410741,2.468283,0.916549,1.382030
1004.851562,-2.530396,0.582208,-1.418839,-0.981959
1004.855469,-0.415494,4.215513,-7.112324,-5.678134
1004.859375,-6.748377,3.377855,-8.462749,-9.703497
1004.863281,-11.829913,-1.164571,-5.122511,-2.770366
1004.867188,-6.887055,-10.303210,-10.866710,-8.146098
1004.871094,-3.685231,-4.455526,-8.162348,-7.766185
1004.875000,-11.968662,-17.176692,-5.193488,-8.163908
1004.878906,-10.726191,-12.890159,-13.999981,-12.941708
1004.882812,-11.888987,-9.350307,-5.313617,-12.307738
1004.886719,-5.570353,-10.379324,-0.386150,-3.251359
1004.890625,-7.162567,-11.664850,-4.405820,-6.805493
1004.894531,3.134857,2.648420,-6.101489,-0.610169
1004.898438,1.333146,-0.406091,-7.629929,-1.008275
1004.902344,-0.036100,-1.366159,-2.003317,6.338015
1004.906250,-4.669569,7.039899,3.736930,9.283461
1004.910156,4.412325,7.628242,0.303521,0.583920
1004.914062,5.037659,6.744775,12.262062,8.132508
1004.917969,13.366816,2.565833,17.117037,6.734782
1004.921875,6.595527,16.970282,13.565509,10.213692
1004.925781,11.177195,8.399967,14.098049,12.996985
1004.929688,17.763761,20.528795,6.375295,6.806816
1004.933594,6.135189,9.661279,5.205002,6.431333
1004.937500,7.138428,7.298705,7.199075,9.243908
1004.941406,3.869118,8.275793,-0.399234,2.940155
1004.945312,3.099995,1.203576,-0.075122,-1.773164
1004.949219,-5.265680,8.918854,2.946551,2.694249
1004.953125,3.797166,-0.026022,-4.062612,-3.090826
1004.957031,-3.195191,2.106713,-5.518978,1.179157
1004.960938,-7.662483,-10.108964,-6.930533,-13.566976
1004.964844,-6.998957,-5.815514,-6.112733,-8.169023
1004.968750,-9.740889,-7.225505,-14.986241,-7.645241
1004.972656,-5.431523,-7.937462,-8.512758,-9.613766
1004.976562,-9.252484,-15.623331,-5.393576,-13.345256
1004.980469,-10.072231,-13.794402,-16.059433,-16.665405
1004.984375,-4.421324,-5.426382,-11.980810,-7.661198
1004.988281,-7.037580,-8.617187,-6.905997,-0.313491
1004.992188,-4.410058,-2.910335,-0.030874,-7.848502
1004.996094,4.015757,-5.653516,-6.847457,-3.445782
1005.000000,-1.815285,2.558166,2.391896,6.589234
1005.003906,1.355757,2.269203,-3.290666,2.177626
1005.007812,7.913841,-1.329809,7.208526,7.953861
1005.011719,11.220708,9.449921,9.907530,4.198599
1005.015625,13.916959,5.536033,-0.816033,8.494896
1005.019531,6.068737,12.874275,0.214030,7.088233
1005.023438,11.114596,8.137385,13.564944,10.475391
1005.027344,7.770391,10.779105,6.475444,9.716934
1005.031250,4.851854,17.728261,4.589684,8.513901
1005.035156,-2.298490,5.219930,4.275539,1.458199
1005.039062,4.778751,4.126285,2.054920,6.031617
1005.042969,-2.421360,5.899495,2.238843,8.845834
1005.046875,8.557029,0.674277,2.041566,-0.407596
1005.050781,4.295388,3.686784,5.794553,-1.474671
1005.054688,-1.159092,6.134006,-3.343754,-2.357677
1005.058594,-10.475367,-1.220923,-7.406022,-6.597738
1005.062500,-9.498536,-7.484326,-15.084178,-7.323316
1005.066406,-13.887585,-17.932886,-9.346397,-4.167619
1005.070312,-11.468683,-6.205084,-15.865045,-6.526455
1005.074219,-18.490320,-16.687457,-5.927346,-0.219010
1005.078125,-14.131962,-4.423909,-7.451061,-10.293189
1005.082031,-12.767148,-1.338349,-13.656643,-6.982355
1005.085938,-12.269460,-3.133437,-12.224599,-7.655740
1005.089844,-1.509821,-9.034949,-5.169446,-8.061993
1005.093750,-6.559957,-4.673986,-5.447917,-12.066193
1005.097656,-5.575028,-5.128600,-3.010388,0.487062
1005.101562,6.891013,-0.804284,6.931507,-4.175522
1005.105469,1.435761,3.721741,-3.432830,2.439098
1005.109375,10.237518,8.090415,8.204845,6.634629
1005.113281,3.381599,3.532832,9.967001,11.409353
1005.117188,4.921397,14.082657,10.643899,15.593496
1005.121094,8.735124,6.334744,2.023108,8.746283
1005.125000,11.805226,8.933888,14.020407,6.408389
1005.128906,16.251392,13.523897,11.406620,12.726816
1005.132812,6.091216,8.934643,13.165864,8.077491
1005.136719,11.741717,7.452550,7.333396,6.032715
1005.140625,-0.298353,1.847694,8.960416,0.369511
1005.144531,-2.876746,3.232317,2.183633,4.516905
1005.148438,4.350435,5.049491,-1.022909,-0.590123
1005.152344,-2.991504,3.624121,6.916119,1.383112
1005.156250,-4.811725,-4.655744,-2.760859,-5.259277
1005.160156,-6.698186,-7.222102,-7.888814,-10.192791
1005.164062,-8.656117,-7.074280,-16.808293,-9.581363
1005.167969,-7.922579,-8.891498,-14.416595,-16.650927
1005.171875,-5.738695,-5.658924,-10.147855,-10.601561
1005.175781,-12.088145,-7.091636,-8.350949,-9.049414
1005.179688,-12.939860,-5.320703,-2.594917,-8.414172
1005.183594,-6.430570,-2.045947,-2.743876,-8.725740
1005.187500,-5.986287,-2.751376,-9.678037,-10.879761
1005.191406,-9.264584,-5.063451,-3.670893,-2.687325
1005.195312,2.651753,-9.878553,1.190547,-3.247699
1005.199219,-0.322341,-2.789536,1.264616,-1.468380
1005.203125,4.209672,1.722368,5.189441,3.942932
1005.207031,9.510573,6.361514,0.802111,4.974694
1005.210938,2.028192,5.121818,6.591349,15.607723
1005.214844,10.331565,6.084366,6.821744,8.983949
1005.218750,16.065358,6.356312,12.349914,12.447428
1005.222656,9.210080,5.951920,5.186765,17.833362
1005.226562,5.590742,11.670850,16.534498,13.576593
1005.230469,17.352175,9.531868,4.720250,8.815924
1005.234375,13.733447,4.174274,10.189052,11.615110
1005.238281,7.542533,5.561846,7.435060,4.326788
1005.242188,3.464689,1.456836,0.719917,1.572786
1005.246094,3.755973,11.005719,-3.739545,-3.381885
1005.250000,5.908959,1.817447,-1.748556,1.664651
1005.253906,-0.368872,-3.585628,3.467514,-6.575864
1005.257812,-6.978078,-5.251782,-8.450403,-11.080793
1005.261719,0.687658,-8.543852,-9.715840,-4.820175
1005.265625,-6.674041,-15.080562,-6.916771,-5.490277
1005.269531,-4.475167,-4.820826,-8.247790,-1.742612
1005.273438,-5.384751,-8.494710,-16.230096,-13.549488
1005.277344,-12.863738,-10.647872,-5.506430,-11.039249
1005.281250,-10.071538,-13.829166,-9.422086,-7.649133
1005.285156,-1.580114,-7.405145,-12.394778,-9.925653
1005.289062,-13.886166,5.849096,-12.089254,-6.330205
1005.292969,-4.439639,-0.349090,-5.452590,-4.461911
1005.296875,1.749401,-6.262935,-2.718221,-4.837504
1005.300781,0.513073,-0.335897,-1.685020,3.777763
1005.304688,-4.951021,5.594661,2.713133,-3.262899
1005.308594,4.972195,6.618120,-0.425187,2.535694
1005.312500,9.357476,15.479162,7.091403,18.296548
1005.316406,10.702084,7.258145,9.996115,8.780372
1005.320312,4.942064,5.458708,10.469192,7.352672
1005.324219,7.218710,10.881916,7.131871,14.617233
1005.328125,10.505199,15.744843,6.205966,8.259865
1005.332031,7.740728,9.615545,10.236222,8.126706
1005.335938,12.233121,5.648238,15.641954,12.415298
1005.339844,2.894700,-5.387858,5.371252,5.477486
1005.343750,7.674011,6.194963,0.007453,-4.340232
1005.347656,6.177415,4.823081,6.107761,0.766606
1005.351562,4.809013,-7.178595,0.048662,1.115829
1005.355469,-5.947840,1.636659,0.353131,-5.271325
1005.359375,-11.150238,-3.545473,-7.856707,-2.069992
1005.363281,-11.790200,-8.443464,-6.524956,0.928374
1005.367188,-1.861109,-15.829005,-13.334565,-5.538427
1005.371094,-14.802614,-10.951619,-11.867950,-18.121295
1005.375000,-3.580036,-7.949526,-6.418547,-14.315234
1005.378906,-11.230240,-14.238368,-15.706173,-4.690464
1005.382812,-7.816961,-10.130724,-10.724364,-12.054461
1005.386719,-5.704852,-7.344964,-7.783967,-10.576056
1005.390625,-1.234619,-0.486775,-8.262982,-1.108404
1005.394531,-5.750633,1.563080,-2.599922,-9.420993
1005.398438,-8.423115,0.598646,0.276887,0.524530
1005.402344,3.723343,-2.273425,-0.140677,14.696059
1005.406250,3.542328,5.059364,4.661575,-0.086047
1005.410156,-5.165690,6.940511,0.544950,8.198679
1005.414062,13.768197,9.538403,5.502751,4.563430
1005.417969,5.380048,9.810357,6.255445,10.761273
1005.421875,8.566857,13.750811,6.655450,8.029612
1005.425781,1.899732,9.757212,12.526046,6.165639
1005.429688,18.750052,13.741387,5.441821,13.888403
1005.433594,5.232355,3.051382,9.785437,12.122115
1005.437500,1.464375,3.301343,7.667378,4.472363
1005.441406,4.148321,3.540787,7.840692,3.498685
1005.445312,6.884514,0.032466,0.660814,15.479343
1005.449219,4.820411,7.370958,-1.237844,6.027591
1005.453125,-6.452593,-4.866820,-6.968204,-0.371251
1005.457031,0.769875,-4.457920,-7.503966,-4.894194
1005.460938,-3.091842,-3.972441,-14.077766,-7.497856
1005.464844,-5.522257,-7.974059,-0.719156,-7.604175
1005.468750,-2.609731,-11.592642,-10.299266,-9.870749
1005.472656,-11.344741,-9.759807,-6.168535,-15.168980
1005.476562,-6.829145,-7.689319,-6.034791,-5.085931
1005.480469,-9.969913,-11.461977,-10.746134,-11.821652
1005.484375,-9.850497,-18.887851,-12.817410,-10.693005
1005.488281,-6.620571,-8.146015,-9.525879,-5.653633
1005.492188,1.900942,2.157893,0.660784,3.262926
1005.496094,-8.293332,-3.228926,0.133950,-10.208412
1005.500000,2.282953,0.407242,-2.406795,6.717753
1005.503906,1.902551,6.711289,7.217917,4.671367
1005.507812,2.140977,3.263338,3.086659,4.871230
1005.511719,-1.611677,9.604363,12.540377,8.651215
1005.515625,5.693130,5.798616,10.534375,5.444359
1005.519531,12.458953,12.912101,12.416025,7.392340
1005.523438,12.084763,8.871502,7.116872,12.627366
1005.527344,10.096455,8.622933,9.309904,1.519113
1005.531250,8.605792,16.195178,12.411183,7.751795
1005.535156,4.658740,4.676312,7.447345,6.404303
1005.539062,10.775236,12.876051,10.499413,3.064186
1005.542969,5.756593,-0.988838,4.818827,2.357529
1005.546875,-0.936165,-2.147988,-2.313801,3.378095
1005.550781,-3.962129,-6.973880,-2.275658,-4.247943
1005.554688,2.647356,-5.444750,-4.101817,-4.039479
1005.558594,-5.632361,-4.315493,-1.269093,-1.707320
1005.562500,-7.621493,-13.093140,-0.720101,-6.271092
1005.566406,-17.398825,-11.656456,-4.092159,-11.141264
1005.570312,-12.015559,-5.318332,-8.837012,-11.510192
1005.574219,-1.546077,-13.795362,-11.447279,-13.091541
1005.578125,-7.198681,-6.263990,-13.527199,-8.303210
1005.582031,-6.299819,-9.937812,-8.540684,-14.078406
1005.585938,-9.995558,-7.220781,-11.480104,-4.023663
1005.589844,-9.073549,-6.665700,-7.569602,-2.137851
1005.593750,-0.260080,1.358644,-4.013059,-8.145967
1005.597656,-0.624255,-0.720758,-4.652674,-0.750167
1005.601562,-3.039580,-4.860531,7.051777,-0.657471
1005.605469,-4.618552,4.434918,4.299858,4.068483
1005.609375,6.040722,5.945642,8.158253,0.541452
1005.613281,10.921062,3.829241,8.805696,8.821235
1005.617188,7.503000,7.194077,14.260058,4.851098
1005.621094,6.421106,8.864252,10.750603,11.152594
1005.625000,7.695719,10.808391,13.176681,8.108587
1005.628906,13.643891,5.181287,8.928888,10.123391
1005.632812,12.622623,6.261501,13.718835,3.619953
1005.636719,8.719278,12.352804,9.622821,11.094171
1005.640625,14.084798,3.432531,5.179587,4.371915
1005.644531,-2.163629,3.421148,6.497819,13.428117
1005.648438,0.475711,-3.169947,7.991986,0.888797
1005.652344,1.274274,1.889917,0.202899,4.529167
1005.656250,-8.608560,-5.764234,1.665464,-8.340758
1005.660156,-6.514346,-5.747732,-4.449020,-7.451946
1005.664062,-6.404923,-13.597098,-9.840660,-5.792228
1005.667969,-11.905797,-7.070126,-3.690985,-14.749101
1005.671875,-10.497345,-6.844546,-7.325249,-12.271812
1005.675781,-17.825008,-11.939323,-12.907533,-14.289396
1005.679688,-12.874793,-11.875263,-8.612555,-11.775122
1005.683594,-0.599726,-12.299237,-17.522373,-8.790291
1005.687500,-8.131197,-11.974578,-5.820563,-17.473899
1005.691406,-4.782780,2.255298,0.915717,-3.895442
1005.695312,-3.617195,-4.059117,-0.543827,1.720387
1005.699219,0.049878,-4.996342,-5.392820,-0.990354
1005.703125,2.331245,-3.978664,0.757304,2.520256
1005.707031,4.411320,8.743700,4.730578,3.610279
1005.710938,11.467674,9.612547,9.864340,5.835237
1005.714844,10.298043,4.019985,5.922939,8.347444
1005.718750,8.115621,11.818195,-1.076848,2.484419
1005.722656,7.918221,10.626410,7.065257,14.695367
1005.726562,14.571749,11.513955,9.190366,9.013672
1005.730469,8.618931,12.818972,14.338457,15.687253
1005.734375,16.106011,5.772056,14.960827,8.376060
1005.738281,5.118472,0.488820,4.286666,0.488040
1005.742188,5.057523,4.442431,-1.809320,8.152212
1005.746094,3.278761,-1.070601,8.087514,4.611815
1005.750000,-1.823866,4.803488,6.615394,-3.556544
1005.753906,-5.357463,-2.254702,-3.179064,0.912569
1005.757812,-5.013661,-13.089746,5.197649,-3.947266
1005.761719,-2.462089,-7.127302,-2.911846,-5.800127
1005.765625,-3.839670,-5.018699,-10.092660,-2.352249
1005.769531,-12.555981,-12.388643,-4.141878,-9.542664
1005.773438,-10.953771,-5.071467,-5.903091,-5.228960
1005.777344,-12.521104,-8.640999,-3.524124,-2.601709
1005.781250,-4.570538,-9.224825,-7.183891,-10.251812
1005.785156,0.371148,-4.392215,-11.529080,-6.478058
1005.789062,-3.054069,-1.943359,0.515140,-8.184359
1005.792969,-6.906319,4.509568,-7.626582,3.714039
1005.796875,-2.738447,-0.951139,1.350311,3.445519
1005.800781,-1.248029,3.323175,6.946639,0.227047
1005.804688,2.137092,8.345059,-1.171238,1.851381
1005.808594,9.478009,3.295467,10.521608,10.398979
1005.812500,10.308122,9.928717,10.749736,3.021548
1005.816406,-1.246958,6.039218,6.798001,7.864105
1005.820312,4.477008,20.601855,7.827826,3.695003
1005.824219,8.839387,5.376787,6.711976,8.442901
1005.828125,11.634002,8.447996,5.913072,5.825509
1005.832031,11.499208,13.740379,11.550344,3.522738
1005.835938,4.563084,14.323213,4.579290,10.437138
1005.839844,5.967778,7.150476,2.318095,10.851775
1005.843750,6.534078,6.720952,1.770100,7.584361
1005.847656,-0.895140,-1.793924,4.154618,5.199434
1005.851562,-2.014422,-0.969998,6.206664,1.179296
1005.855469,-4.559426,-2.024525,-2.980933,-1.215659
1005.859375,-2.978122,-2.401621,-2.518054,-6.941421
1005.863281,-16.658153,1.188893,-5.733911,-8.630504
1005.867188,-4.461188,-8.682044,-9.455338,-15.993748
1005.871094,-7.538133,-14.373064,-11.742992,-7.607683
1005.875000,-7.899227,-10.656333,-10.492629,-14.224712
1005.878906,-14.076971,-10.103763,-10.069075,-8.799435
1005.882812,-2.896479,-7.815972,-5.181178,1.653979
1005.886719,-10.450498,1.036502,-11.130364,-8.908805
1005.890625,-4.233437,-4.913629,-4.822363,-3.443053
1005.894531,-7.406206,-1.639102,-1.620369,-3.802292
1005.898438,-4.164954,2.668901,2.011813,-7.252849
1005.902344,-7.602514,-1.561119,-0.683107,5.240826
1005.906250,3.817815,6.681779,-1.499622,5.401934
1005.910156,2.884654,2.191803,4.703563,7.187026
1005.914062,12.014708,15.231726,11.732989,18.727479
1005.917969,11.468566,8.113277,6.707004,12.347109
1005.921875,5.425492,6.693626,8.980434,8.730968
1005.925781,9.274929,16.635238,14.108348,15.916377
1005.929688,8.754011,12.574912,9.653717,25.645894
1005.933594,10.041462,13.063704,10.417268,8.850117
1005.937500,3.186233,6.477746,11.183385,5.981406
1005.941406,2.988991,3.067629,6.603621,5.624990
1005.945312,8.676449,-1.261436,-1.151125,6.458727
1005.949219,-1.631003,2.047479,-0.929670,1.918428
1005.953125,-5.799437,-2.241524,8.295116,0.307523
1005.957031,-7.773227,5.503081,-3.712362,-0.041473
1005.960938,-12.039933,-4.881764,-9.836337,0.490240
1005.964844,-18.614297,-12.988203,-7.526280,-12.582193
1005.968750,-3.890278,-12.679538,-10.222653,-8.362587
1005.972656,-11.736808,-17.169717,-10.533296,-5.910285
1005.976562,-14.793788,-6.093159,-9.977459,-16.109148
1005.980469,-11.684145,-4.296319,-11.006350,-9.485306
1005.984375,-12.186372,-3.350861,-13.503392,-7.892049
1005.988281,-6.301217,-3.882239,-4.738004,-14.982195
1005.992188,4.153235,-8.595764,-9.257299,0.197077
1005.996094,-6.640494,-2.515181,-6.783735,-0.866979
1006.000000,-0.886831,-4.596584,-7.554367,0.301835
1006.003906,-1.196543,-2.111487,-6.370178,6.799774
1006.007812,6.605236,8.417766,5.428196,-0.989767
1006.011719,3.989887,-2.898008,10.432670,8.435858
1006.015625,2.684044,5.527794,5.609938,11.720822
1006.019531,8.148498,14.928035,6.654623,9.495511
1006.023438,10.821587,12.245827,13.829738,11.299735
1006.027344,1.980316,6.065339,13.352948,9.694722
1006.031250,6.397322,11.046905,9.318497,11.647097
1006.035156,5.533947,11.649739,4.434680,12.538940
1006.039062,12.708717,0.359530,6.207374,6.521536
1006.042969,5.457782,4.847127,2.488559,3.874429
1006.046875,4.412224,2.876479,3.503282,3.391849
1006.050781,-6.259307,-5.332402,-0.745833,-6.972928
1006.054688,-0.200123,-5.659740,3.068406,8.329911
1006.058594,-6.021089,-7.281192,-1.763826,-5.221436
1006.062500,-9.780869,-8.738146,-4.346000,-7.840640
1006.066406,-10.008260,-7.413748,-11.545926,-5.023898
1006.070312,-5.332695,-11.879311,-5.957860,-6.464045
1006.074219,-12.779038,-7.557600,-14.246616,-14.369751
1006.078125,-12.015322,-15.372479,-9.692876,-5.581073
1006.082031,-4.164262,-8.773781,-10.199427,-9.567702
1006.085938,-7.797683,-4.119989,-8.388565,-8.491568
1006.089844,-3.436563,-8.015206,-0.937213,-7.732433
1006.093750,-5.256564,0.261921,-1.162965,-8.750164
1006.097656,1.807029,-4.777985,-3.289119,-3.978634
1006.101562,0.512461,2.270289,-1.923488,-3.752001
1006.105469,4.017061,4.199017,8.159306,1.409264
1006.109375,6.062407,6.042430,6.214849,6.344616
1006.113281,6.485453,0.108367,6.334940,12.359584
1006.117188,10.682754,10.284256,-0.663590,9.724436
1006.121094,8.569607,8.448824,8.218209,10.181308
1006.125000,11.088113,3.124013,10.388480,8.021249
1006.128906,1.716225,3.049367,6.972000,13.903666
1006.132812,13.598790,13.200561,18.641182,7.885056
1006.136719,12.300570,9.668827,6.409707,-0.032903
1006.140625,6.384533,2.974431,-0.782566,7.039753
1006.144531,3.999765,7.639311,3.029665,-0.842728
1006.148438,-6.021068,1.004032,-3.834898,3.699191
1006.152344,-3.343387,-6.872989,-0.045345,4.062897
1006.156250,-2.406643,-4.332186,-5.720643,-3.505787
1006.160156,-5.888344,-7.545084,-7.125627,-0.783275
1006.164062,-6.738529,-4.466814,-11.143846,-5.102839
1006.167969,-7.390611,-16.868699,-5.737713,-14.988852
1006.171875,-5.442844,-12.217974,-6.535546,-10.769983
1006.175781,-7.659429,-3.473692,-9.821768,-9.586816
1006.179688,-7.509423,-5.973161,-1.646540,-16.089250
1006.183594,-3.261804,-8.881895,-12.600835,-12.206274
1006.187500,-9.252358,-15.169117,-7.976086,-9.810914
1006.191406,-7.885544,-10.404872,-10.063148,-6.143085
1006.195312,-3.289884,-6.985909,-5.424698,-3.717698
1006.199219,-0.906798,-3.626685,6.986745,1.106257
1006.203125,4.758052,-2.326297,0.939776,0.351606
1006.207031,6.875832,4.183813,8.524053,8.349100
1006.210938,5.193726,0.083949,5.678211,11.683528
1006.214844,13.048694,-1.459154,4.035518,7.244121
1006.218750,1.796085,11.552117,7.194680,9.814012
1006.222656,9.821802,4.011006,9.018450,9.007864
1006.226562,16.685664,14.607076,8.470936,9.119703
1006.230469,15.618380,11.723487,7.417989,12.000181
1006.234375,3.721424,11.307543,11.999668,6.935695
1006.238281,5.749357,8.538314,8.133582,6.790708
1006.242188,7.898597,1.472494,2.675572,8.232443
1006.246094,9.873209,0.312043,1.102674,-1.838947
1006.250000,-0.506854,1.371029,4.561122,1.046900
1006.253906,1.617696,2.746055,-6.106181,-3.596554
1006.257812,3.029428,-3.822792,-2.503123,-3.193918
1006.261719,-2.693956,-10.398500,-9.179209,-3.022436
1006.265625,-13.309452,-11.488801,-11.837525,-9.477847
1006.269531,-4.185379,-8.598542,-7.193061,-12.417689
1006.273438,-5.687882,-9.961480,-8.163745,-5.867057
1006.277344,-11.258588,-9.994010,-15.170303,-18.104519
1006.281250,-8.068249,-15.987961,-8.302865,-0.208352
1006.285156,-15.586170,-4.482344,-5.921437,-8.758171
1006.289062,-8.054419,-9.300458,-7.796066,-5.845156
1006.292969,-11.593562,-7.853126,-7.543407,-3.943657
1006.296875,-1.437183,4.286444,-5.856403,-0.192806
1006.300781,-1.611409,7.017046,-1.565341,0.166552
1006.304688,5.548666,-1.221045,3.516911,7.886669
1006.308594,8.766431,5.090373,5.079096,5.951304
1006.312500,4.900343,8.809731,11.312823,3.903822
1006.316406,7.896744,7.029701,5.066619,4.644116
1006.320312,13.825902,9.009184,16.046776,9.544802
1006.324219,13.466957,7.396643,10.332380,10.834510
1006.328125,8.905448,5.354304,3.426083,15.388442
1006.332031,12.230540,14.717925,4.887319,11.482586
1006.335938,7.925387,14.506282,7.361017,6.134691
1006.339844,7.009660,-0.101503,-0.541665,7.342570
1006.343750,2.082350,1.870677,1.655021,1.347941
1006.347656,4.179001,10.244944,2.796176,3.122993
1006.351562,-7.024087,1.504172,-2.740935,2.306559
1006.355469,-3.717820,-1.772777,-0.455068,-4.967286
1006.359375,-10.370806,2.445524,-4.908093,-0.918778
1006.363281,-14.623266,-8.896240,-5.160869,-9.187335
1006.367188,-11.882859,-13.814214,-7.894124,-13.303185
1006.371094,0.450210,-5.233649,-11.449266,-9.602167
1006.375000,-9.838419,-14.080179,-10.247934,-8.605823
1006.378906,-8.124901,-5.843072,-8.594757,-9.485563
1006.382812,0.094146,-5.643768,-6.316347,-7.428572
1006.386719,-9.128221,-4.659504,-7.102860,-6.518337
1006.390625,-2.366496,-4.144716,-9.668041,-6.656222
1006.394531,15.749308,0.710560,-3.449793,-5.030984
1006.398438,5.451712,0.737975,3.219826,2.565875
1006.402344,2.133996,-5.407253,-4.105637,2.196785
1006.406250,1.895416,2.799951,2.237268,1.725163
1006.410156,3.410726,7.490482,0.908144,8.989006
1006.414062,11.130271,3.070678,7.554792,4.641540
1006.417969,5.582979,13.640508,7.215455,1.887238
1006.421875,3.008804,12.787683,10.217435,7.864006
1006.425781,-0.858469,9.719603,7.580472,7.586854
1006.429688,11.181021,9.182321,13.780721,13.600877
1006.433594,13.810287,16.250883,-1.183485,-0.728030
1006.437500,5.042269,5.119384,8.538072,6.804881
1006.441406,5.665765,5.404315,6.375437,5.718787
1006.445312,-2.120101,2.752190,1.355387,5.768298
1006.449219,-3.321075,1.079957,4.006636,4.595113
1006.453125,1.922746,0.428001,0.149108,-5.101287
1006.457031,-4.791563,-0.956744,-4.457839,2.825519
1006.460938,-5.354631,-14.645612,-6.570157,-8.516012
1006.464844,-2.961360,-11.480107,-7.565515,-13.928922
1006.468750,-15.134752,0.138356,-4.983776,-8.911346
1006.472656,-11.261947,-10.549981,-4.969317,-13.483570
1006.476562,-7.993894,-3.124114,-8.127353,-11.415038
1006.480469,-7.901713,-16.899824,-11.670972,-5.524091
1006.484375,-1.654307,-9.824833,-8.489621,-15.350678
1006.488281,-3.357534,-9.700452,-14.332577,-2.668622
1006.492188,-8.766574,-7.775584,-5.936211,-4.749638
1006.496094,-2.728659,2.304835,4.135974,4.476586
1006.500000,-7.105560,8.310614,0.000665,0.026353
1006.503906,11.110898,0.988894,5.583745,-0.017480
1006.507812,5.908593,10.402344,5.599805,2.396211
1006.511719,5.704272,1.370403,8.503471,9.391914
1006.515625,10.431676,11.610501,7.570004,12.279700
1006.519531,7.043664,8.311614,12.995943,3.659713
1006.523438,12.391829,15.529163,8.618155,8.508449
1006.527344,6.355135,14.229175,15.382982,7.862084
1006.531250,14.384111,13.887226,12.424202,12.926409
1006.535156,10.378701,6.027640,10.041218,6.115781
1006.539062,3.149357,15.519725,6.480257,2.778662
1006.542969,6.830468,2.292548,1.118075,4.430345
1006.546875,3.448565,1.396392,1.630048,-2.977412
1006.550781,-3.589824,-1.657329,1.698610,-2.597532
1006.554688,-6.260632,1.871643,-1.458335,-2.633842
1006.558594,-11.175148,-8.164068,-10.797887,-6.508562
1006.562500,-1.938322,-11.841073,-11.206612,-4.303501
1006.566406,-5.376679,-4.304254,-7.836498,-6.925583
1006.570312,-2.688944,-13.838219,-9.198516,-3.579947
1006.574219,-4.937796,-11.341162,-7.614308,-5.330030
1006.578125,-11.319769,-9.460890,-8.227693,-7.066551
1006.582031,-13.305112,-7.591482,-13.008635,-9.816476
1006.585938,-3.795325,-13.572455,-13.657374,-2.954091
1006.589844,-5.251254,2.228508,-5.165079,-7.719344
1006.593750,-4.768953,-11.235902,-4.745757,-8.337897
1006.597656,-1.478014,-1.657399,-2.085343,-0.615008
1006.601562,2.985074,2.753076,-0.009678,1.124606
1006.605469,7.582499,3.023964,5.664169,7.768520
1006.609375,8.587215,1.709352,8.612168,10.157321
1006.613281,5.044388,9.716460,13.643091,6.028000
1006.617188,8.016128,7.092427,9.453231,8.025825
1006.621094,10.574694,5.102979,14.825303,11.079072
1006.625000,4.866931,9.102670,12.903357,9.784764
1006.628906,10.724555,12.162128,5.431217,2.907747
1006.632812,13.357093,1.508756,9.314132,10.119187
1006.636719,8.324452,8.636036,11.975976,8.476419
1006.640625,7.911615,4.080323,-0.856043,13.273696
1006.644531,7.792618,1.244082,-0.221412,-2.311348
1006.648438,-4.053102,-0.444941,0.366101,-1.926161
1006.652344,-0.622157,-0.188320,-10.317929,0.562098
1006.656250,-2.387746,3.690943,-5.475640,-8.398673
1006.660156,3.361685,-5.384608,-4.172047,-6.313807
1006.664062,-7.180929,-2.248831,-5.683802,-7.164491
1006.667969,-3.314253,-11.577603,-10.652105,-12.315485
1006.671875,-5.969762,-6.689752,-13.623427,-10.608004
1006.675781,-12.006328,-7.308987,-10.276896,-12.330213
1006.679688,-12.552327,-8.426422,-9.116883,-6.099707
1006.683594,-5.992395,-8.537173,-3.424353,-4.196541
1006.687500,-10.911884,-2.148731,-8.259546,-7.734097
1006.691406,-3.758325,-5.176834,-3.722529,-3.752639
1006.695312,-7.657293,-2.915358,-5.367069,-8.072161
1006.699219,-9.208131,3.078407,-4.274646,2.080435
1006.703125,-2.831014,-5.528701,4.912019,5.784197
1006.707031,3.746230,2.881229,1.052953,10.409555
1006.710938,3.527422,9.597951,6.906011,1.521564
1006.714844,7.694074,17.477354,3.245000,5.789108
1006.718750,10.993314,4.999080,9.229772,11.973492
1006.722656,9.096051,8.140208,11.359281,14.336792
1006.726562,9.418389,3.744194,11.869125,6.727378
1006.730469,10.351185,15.991826,6.271818,11.495910
1006.734375,1.398849,3.935274,4.238950,6.485625
1006.738281,3.471744,3.331331,4.779858,6.089895
1006.742188,1.813682,6.608760,6.741005,11.651938
1006.746094,-2.182964,1.725065,2.629756,3.826787
1006.750000,-0.705601,-6.183108,-1.028023,0.723481
1006.753906,-5.592707,-7.565470,-5.243822,-7.123109
1006.757812,-7.572068,-5.577565,-1.279489,-6.339918
1006.761719,-5.234462,-2.756891,-4.181702,-2.813128
1006.765625,-8.920625,-13.187787,-7.618745,-14.209185
1006.769531,-8.005740,-16.360707,-14.729687,-5.102083
1006.773438,-12.384796,-11.307598,-8.576078,-12.775578
1006.777344,-14.504008,-13.427457,-6.688845,-8.392399
1006.781250,-9.456197,-6.149753,-14.728167,-11.537455
1006.785156,-6.404334,-10.400583,-4.495400,-11.947383
1006.789062,-1.590860,-8.352603,-4.496866,-2.846627
1006.792969,-1.930379,-6.855782,-5.371601,-1.057810
1006.796875,0.984029,3.193814,-7.645704,-5.472784
1006.800781,3.261242,4.054341,-0.462763,-0.659538
1006.804688,8.499304,6.042640,-1.921848,1.320385
1006.808594,3.070614,7.652149,9.011867,5.140874
1006.812500,7.700366,9.049197,16.615881,0.654438
1006.816406,16.463092,6.399792,10.422602,14.853689
1006.820312,6.593630,14.055004,8.035449,10.171266
1006.824219,11.018348,14.277049,7.345681,9.629824
1006.828125,9.178820,5.550044,15.471272,12.979755
1006.832031,16.428210,9.420361,8.713413,14.023057
1006.835938,7.988637,8.194319,2.274835,14.976643
1006.839844,4.652179,3.845373,6.999250,2.178818
1006.843750,1.657240,-2.029651,0.680808,1.952729
1006.847656,7.623547,7.612227,-1.022208,0.454337
1006.851562,0.221143,3.065229,-4.030662,-5.014803
1006.855469,-1.772155,1.386218,-2.665216,-5.362973
1006.859375,-9.599519,-8.265450,-6.384406,-4.036743
1006.863281,-6.692132,-5.910868,-8.700371,-7.640879
1006.867188,-12.367801,-2.239967,-12.735666,-6.348348
1006.871094,-15.409792,-10.094297,-8.159682,-4.163538
1006.875000,-13.765345,-10.684329,-3.176351,-6.962134
1006.878906,-12.556475,-8.744737,-6.914081,-14.278842
1006.882812,-19.016715,-10.952029,-13.062724,-10.393573
1006.886719,-7.689500,-12.199938,-13.342319,-9.057127
1006.890625,-0.551211,-8.757695,-1.239173,-11.985120
1006.894531,-6.842707,-7.588297,-8.007544,-10.505583
1006.898438,-2.733753,2.532142,-3.876181,3.959855
1006.902344,-0.673503,1.213340,-2.389667,1.848772
1006.906250,0.451351,7.482351,3.954482,7.210216
1006.910156,12.881336,6.302719,-3.870446,8.028623
1006.914062,12.217951,8.997440,4.755637,9.735676
1006.917969,7.017196,12.925806,6.988657,-1.019436
1006.921875,15.795195,7.820121,14.890462,16.143437
1006.925781,6.621405,7.753303,6.679114,4.479032
1006.929688,8.967387,4.177404,8.718177,4.747376
1006.933594,6.778084,-0.228261,10.809872,9.198088
1006.937500,6.028722,7.971780,4.585895,4.341224
1006.941406,0.829533,4.649240,7.639184,9.264021
1006.945312,-1.349833,8.431168,-0.816753,4.547141
1006.949219,2.313712,-0.218983,2.501770,-2.473558
1006.953125,-2.055126,1.712932,-3.620982,-1.695288
1006.957031,3.736345,-12.589372,-5.095675,-5.195648
1006.960938,-15.337127,-7.007387,-5.638752,-1.763010
1006.964844,-8.916293,-8.345598,-3.254727,-10.051596
1006.968750,-10.140409,-7.284683,-8.295049,-7.942549
1006.972656,-7.275026,-7.709107,-8.216063,-11.773865
1006.976562,-2.807029,-10.033245,-6.825528,-7.336431
1006.980469,-14.539460,-10.287727,-6.435310,-3.470058
1006.984375,-14.533857,-7.421605,-2.165270,-6.938947
1006.988281,-6.410208,-5.398279,-5.599933,-1.486516
1006.992188,-2.929449,1.421597,-1.070013,-3.144330
1006.996094,-1.349904,3.516109,-0.111600,-3.605942
1007.000000,-1.420488,0.705273,-1.332000,-3.772188
1007.003906,4.810203,-0.277558,-0.783303,-1.714422
1007.007812,-5.230127,9.479628,1.933062,-5.669733
1007.011719,5.987267,4.028186,0.714821,5.859846
1007.015625,8.468079,6.966414,7.487500,9.024723
1007.019531,4.985037,10.383639,5.758658,14.752763
1007.023438,7.666129,12.003168,13.196082,10.992712
1007.027344,17.663591,3.867094,9.996893,8.220672
1007.031250,10.167765,12.507973,10.272184,7.159088
1007.035156,13.562533,9.842854,7.109456,7.513151
1007.039062,0.915190,3.815811,-2.506767,2.123722
1007.042969,4.249759,4.322785,5.798929,6.707846
1007.046875,-3.862837,5.079903,1.588556,0.105230
1007.050781,0.359132,0.009462,1.691980,3.793961
1007.054688,-9.339695,-3.829415,-2.035534,-8.058287
1007.058594,-3.123258,-4.791075,-6.360419,-8.377288
1007.062500,0.155785,-3.020656,-7.368778,-9.928652
1007.066406,-4.102755,-14.570670,-3.320906,-5.019649
1007.070312,-7.151041,-5.865640,-12.192465,-4.592819
1007.074219,-9.606961,-11.601381,-10.030727,-8.631773
1007.078125,-12.648228,-9.754033,-12.615608,-8.749569
1007.082031,-11.082873,-12.327624,-7.022646,-8.205744
1007.085938,-9.009372,-0.981382,-10.159136,-9.944538
1007.089844,-10.730239,3.263029,-6.500541,-6.668581
1007.093750,-4.757041,-6.908036,4.251564,1.920822
1007.097656,-2.920014,-3.414096,3.251605,-2.540921
1007.101562,0.976296,5.559495,0.680128,-0.283972
1007.105469,6.188816,2.333984,1.402935,1.829289
1007.109375,0.978197,-0.657687,-1.682849,18.000713
1007.113281,3.234695,7.822173,2.733980,9.246568
1007.117188,6.921069,13.251536,9.404963,17.577125
1007.121094,7.954615,13.067717,19.468982,6.630856
1007.125000,16.485226,7.114244,9.606267,5.332720
1007.128906,4.337392,11.290332,0.444754,4.738127
1007.132812,10.924354,-5.596593,8.170990,13.243162
1007.136719,3.787711,3.995788,6.263684,8.255153
1007.140625,4.350735,6.968745,0.951521,8.032241
1007.144531,10.201959,5.475734,1.898532,2.202104
1007.148438,4.158158,6.477123,-1.106365,-5.990022
1007.152344,5.582516,-5.081827,-3.264346,-4.159588
1007.156250,-1.205206,-6.581468,-8.454570,1.538261
1007.160156,-4.946186,-1.696915,-3.364102,-6.514569
1007.164062,-9.893532,-6.404771,-5.516904,-9.773284
1007.167969,-13.669130,-11.794610,-13.098913,-7.606169
1007.171875,-8.861188,-1.099153,-11.257140,-10.302891
1007.175781,-10.719110,-11.344418,-15.666933,-10.685111
1007.179688,-8.821730,-6.966478,-9.262067,-10.546835
1007.183594,-6.147905,-8.586129,-9.653935,-9.422974
1007.187500,3.786986,-1.235566,0.091123,-4.980814
1007.191406,-9.323943,-4.002756,-0.791635,-8.611036
1007.195312,-2.005998,-2.968118,1.225883,-5.175985
1007.199219,-6.963884,-0.765501,-1.941884,-3.931855
1007.203125,-0.744869,5.844000,-1.318050,-2.422735
1007.207031,-3.546781,-0.185274,0.958034,1.358750
1007.210938,7.729375,2.127063,5.084403,2.421869
1007.214844,5.905733,-1.784263,9.652018,13.082681
1007.218750,12.110935,14.718261,9.042308,13.354035
1007.222656,5.765539,14.293992,1.573758,12.155068
1007.226562,8.538967,17.095715,13.964073,18.242320
1007.230469,8.558771,11.750470,15.475962,4.255418
1007.234375,4.873697,5.416602,1.708448,2.226787
1007.238281,2.542189,10.059936,11.459773,12.393239
1007.242188,7.374360,1.654424,9.943905,8.677705
1007.246094,3.910178,1.439341,7.998399,7.248332
1007.250000,3.086932,0.121154,-4.312134,-8.158457
1007.253906,-4.852416,-4.735561,-6.405120,0.539790
1007.257812,-0.753220,-4.198035,-3.328330,-5.050193
1007.261719,-5.257247,-2.685311,-1.625947,-3.367758
1007.265625,-12.473865,-5.075408,-0.532930,-9.163299
1007.269531,-10.056963,-10.362809,-7.313081,-9.130562
1007.273438,-18.599394,-13.914306,-9.369275,-7.356314
1007.277344,-7.733003,-11.911208,-13.512518,-10.275038
1007.281250,-5.645804,-11.801596,-11.042200,-1.020188
1007.285156,-11.422635,-7.674880,-14.129601,-7.568303
1007.289062,-11.048691,-8.217567,-6.176245,-1.844473
1007.292969,-2.673822,-1.982244,-0.922858,-0.074060
1007.296875,-3.350162,4.566826,0.798742,1.767238
1007.300781,-1.693649,-3.845621,1.602230,4.589916
1007.304688,2.972138,-0.279160,4.367602,2.727404
1007.308594,2.136658,4.938760,4.112644,-1.298726
1007.312500,8.327657,11.288155,4.284960,4.961261
1007.316406,0.926147,8.263906,2.781049,7.987176
1007.320312,12.993240,13.842743,7.062823,13.501045
1007.324219,8.446500,3.171801,10.921177,4.067308
1007.328125,10.978434,15.105859,14.676008,17.829680
1007.332031,10.433879,5.209707,3.369066,11.429556
1007.335938,15.022634,11.181605,5.742410,6.925511
1007.339844,7.733905,5.681584,9.186569,2.384760
1007.343750,0.049606,7.013845,-1.471428,-3.194499
1007.347656,-0.744549,5.292506,3.950542,3.547093
1007.351562,-1.720793,1.775409,-1.051366,1.347017
1007.355469,-4.157750,-7.455702,-1.844860,-0.274580
1007.359375,-6.079322,-1.194072,0.592722,-9.227449
1007.363281,-4.767378,-2.357109,-12.650578,-3.887993
1007.367188,-8.672651,-10.679847,-6.614717,-5.046565
1007.371094,-8.929173,-13.455047,-12.592530,-19.614367
1007.375000,-7.388489,-6.286661,-14.293048,-13.340473
1007.378906,-7.908079,-9.217387,-9.644819,-11.369853
1007.382812,-9.754978,-3.269857,-8.599377,-4.423520
1007.386719,-3.583888,-13.036494,-11.570752,-14.394340
1007.390625,-10.281162,-5.771851,-6.967183,-8.143088
1007.394531,2.761339,-3.744841,-1.630619,-2.051927
1007.398438,2.641976,3.300006,2.336539,-2.189029
1007.402344,-2.813580,7.486148,-3.767354,2.122407
1007.406250,-3.940727,7.906147,7.562335,5.903597
1007.410156,4.293642,11.995439,11.277392,9.619709
1007.414062,7.526263,8.507591,11.676064,10.612743
1007.417969,-3.243724,8.049809,8.919048,-0.033187
1007.421875,4.385035,11.747441,4.239921,7.553071
1007.425781,14.108554,7.029723,9.469872,11.399232
1007.429688,10.316843,7.282644,8.236313,4.933261
1007.433594,6.361947,4.178499,1.402016,16.821395
1007.437500,6.911841,-1.793550,6.440363,2.827360
1007.441406,2.384823,-0.657155,3.831168,5.696770
1007.445312,2.532376,-3.165389,7.606420,4.602900
1007.449219,5.028011,1.601577,-0.773568,6.211685
1007.453125,-0.990746,0.846593,0.729220,5.126004
1007.457031,-4.152513,-8.216432,-3.338105,-9.533768
1007.460938,-14.053086,-5.284634,-13.545782,-0.786117
1007.464844,-10.706328,-11.877377,-13.465620,-7.617718
1007.468750,-1.249490,-3.534094,-8.960241,-7.222727
1007.472656,-10.574128,-9.033460,-7.735632,-6.490477
1007.476562,-8.131238,-12.387735,-0.857846,-9.409502
1007.480469,-2.669951,-8.181812,-9.086725,-8.302763
1007.484375,-1.750059,-5.983204,-18.774311,-18.445059
1007.488281,-13.941783,-6.112074,-7.239176,-3.743656
1007.492188,-5.387475,-2.119760,-7.688026,-7.198900
1007.496094,-1.285073,-2.631082,-3.100336,-5.938506
1007.500000,7.225539,-2.934500,-1.021986,2.149733
1007.503906,-0.424523,3.443766,11.492986,1.421833
1007.507812,7.462483,9.029259,5.509422,2.603492
1007.511719,8.861179,7.866537,7.008438,2.705413
1007.515625,8.205934,11.760497,16.772293,4.909301
1007.519531,11.954053,10.284697,14.489022,5.252697
1007.523438,9.180904,7.022637,15.839962,11.533041
1007.527344,14.945764,12.381362,0.828472,10.313219
1007.531250,6.887491,15.891697,11.176697,11.047392
1007.535156,9.167977,10.252996,9.267664,-3.290741
1007.539062,9.084212,7.691930,3.484016,9.750521
1007.542969,0.482266,0.727133,4.143250,7.998219
1007.546875,6.340067,-1.555973,4.526271,10.978653
1007.550781,7.088555,3.399502,2.143515,-3.948290
1007.554688,-6.929286,-1.700831,-5.485832,0.864978
1007.558594,-8.691508,-3.987237,-10.293809,-4.037417
1007.562500,-6.741307,-7.096782,-7.081150,-1.848019
1007.566406,-6.148088,-8.493060,-7.723124,-3.235155
1007.570312,-8.637132,-11.412967,-6.678909,-12.031726
1007.574219,-14.256240,-7.037199,-13.634838,-8.760270
1007.578125,-9.066839,-9.372569,-18.478472,-8.680215
1007.582031,-11.314272,-16.220835,-8.066866,-6.479934
1007.585938,-8.508987,-4.133150,-7.762374,-6.798697
1007.589844,-10.274171,-11.729207,-1.007915,-12.088986
1007.593750,-6.584463,-7.112749,-8.766642,1.304383
1007.597656,-5.525614,6.207368,-2.572215,-5.619469
1007.601562,-0.549246,-3.751382,6.515354,-4.018584
1007.605469,5.196870,2.211036,1.960895,3.599246
1007.609375,1.150312,5.881676,9.396262,8.532816
1007.613281,10.786054,4.956417,9.572001,12.867890
1007.617188,6.649871,7.116680,6.970313,9.389457
1007.621094,11.346737,3.071304,9.752016,9.666812
1007.625000,13.291555,16.350119,4.251479,5.299656
1007.628906,10.090925,3.447319,12.018126,8.631495
1007.632812,11.711799,9.611583,10.521093,8.738991
1007.636719,9.452256,2.372374,9.419116,11.737096
1007.640625,5.151774,0.819413,7.804291,1.466923
1007.644531,5.064496,1.769216,10.564799,8.431290
1007.648438,1.222011,-1.045994,0.734174,-10.154708
1007.652344,2.601353,-4.543041,-4.190120,-1.116632
1007.656250,-4.922875,-13.165987,-7.329502,-3.508616
1007.660156,-11.850401,-6.734154,-4.349461,-2.117489
1007.664062,-11.896504,-6.196362,-6.329698,-7.647709
1007.667969,-8.273935,-15.092120,-9.200469,-14.147451
1007.671875,-15.199295,-4.656303,-2.693438,-5.850913
1007.675781,-11.851873,-10.452523,-12.093717,-17.636643
1007.679688,-9.753392,-9.774664,-10.000651,-8.413042
1007.683594,-11.516507,-7.400465,-7.238900,-4.332987
1007.687500,-11.367620,-2.838872,-7.778462,-11.141101
1007.691406,-14.756335,-1.806550,-2.525825,-8.512342
1007.695312,-2.790785,-3.309226,-1.125320,3.454425
1007.699219,-3.101923,8.088468,1.437288,-1.185946
1007.703125,5.292410,-1.662114,1.574174,4.416219
1007.707031,7.713611,3.459183,3.174333,2.781793
1007.710938,8.068219,2.801718,11.631643,4.702012
1007.714844,8.464302,-1.198375,7.688923,5.270047
1007.718750,7.047523,1.089082,9.841822,3.252504
1007.722656,2.471893,12.399304,9.023433,6.432297
1007.726562,6.501371,3.746778,6.385086,12.341803
1007.730469,9.499410,10.480365,7.282246,9.973418
1007.734375,5.178165,5.483752,7.406583,9.118657
1007.738281,10.068618,8.951689,11.056881,4.619203
1007.742188,7.511495,-1.086484,7.725822,10.538832
1007.746094,1.541572,3.716788,-1.269064,3.017352
1007.750000,-1.619467,2.713307,11.242434,0.044897
1007.753906,-0.025169,-4.851769,-1.854433,1.449974
1007.757812,-10.148446,0.779757,-5.326840,-2.213114
1007.761719,4.429791,-4.060342,-9.920914,-9.014354
1007.765625,-6.712351,-14.875896,-12.063626,-13.347047
1007.769531,-4.979113,-6.632174,-8.729776,-7.942264
1007.773438,-4.664252,-17.112317,-13.005791,-19.868349
1007.777344,-6.954422,-14.460320,-12.637547,-9.686636
1007.781250,-13.657715,-20.141158,-15.194095,-10.013667
1007.785156,-15.438631,-11.328826,-6.536116,-0.437949
1007.789062,-9.162572,-3.596589,-4.880132,-7.363085
1007.792969,-3.955372,-2.351737,-8.434950,-7.857616
1007.796875,3.682225,3.293799,-4.992686,-6.105773
1007.800781,-4.755536,4.651781,0.668223,4.216237
1007.804688,5.994507,2.139017,10.932380,-2.768597
1007.808594,1.732261,5.588531,3.430391,3.174871
1007.812500,8.195727,7.618945,6.021463,10.790883
1007.816406,7.207658,8.434507,6.459330,13.342786
1007.820312,5.031984,6.103858,8.584786,8.390456
1007.824219,8.795771,9.143658,6.282189,6.317739
1007.828125,-1.217997,13.210804,7.919057,16.189639
1007.832031,9.273911,10.000052,10.238049,15.924104
1007.835938,2.710741,2.310640,3.594841,3.346231
1007.839844,9.483816,2.811036,3.544788,7.603487
1007.843750,1.420195,9.169611,5.316200,7.116426
1007.847656,2.827855,-0.457885,0.755112,4.276856
1007.851562,1.229323,-7.440813,-6.075432,-2.352599
1007.855469,2.036528,2.677963,0.222695,6.735305
1007.859375,-4.923656,-3.052484,-2.519773,-7.733333
1007.863281,-10.936273,-11.738249,-11.896409,-7.451528
1007.867188,-9.244571,-7.002549,-12.819335,-7.447396
1007.871094,-7.141770,-7.727591,-0.808677,-3.338014
1007.875000,-0.568543,-11.793005,-13.494821,-8.864137
1007.878906,-8.061361,-9.198867,-9.441460,-4.093516
1007.882812,-10.420813,-8.779429,-9.903298,-4.843304
1007.886719,-9.439636,2.352933,-5.864152,-5.869941
1007.890625,-7.878298,-4.817354,-2.347170,-9.470627
1007.894531,-5.412995,-8.277721,-3.214969,-6.800893
1007.898438,-0.130481,1.239479,-6.640355,9.495328
1007.902344,-4.135924,-4.091835,0.649493,-3.271159
1007.906250,-3.481396,10.972176,4.502550,0.493516
1007.910156,6.605333,7.771299,11.482676,1.877882
1007.914062,1.259329,10.620469,0.997392,8.781572
1007.917969,9.066467,10.281334,7.306878,16.992381
1007.921875,15.947941,4.802468,17.888555,12.770732
1007.925781,9.304674,13.132959,8.862390,11.535072
1007.929688,11.756904,11.908100,6.739836,13.073563
1007.933594,14.797262,0.065632,6.814190,8.918925
1007.937500,6.597812,3.840125,1.860071,5.981465
1007.941406,4.076926,3.577917,11.093831,14.982520
1007.945312,5.763014,2.349697,5.506700,-0.974053
1007.949219,5.945812,-0.738172,5.385515,-3.874093
1007.953125,4.503253,-8.398148,1.875122,-0.169336
1007.957031,-2.061137,-3.083366,-7.343210,-7.723339
1007.960938,-5.384815,-5.999608,-9.044569,-5.869135
1007.964844,-8.835874,-8.570145,-13.331554,-14.579923
1007.968750,-11.954135,-10.963384,-11.150691,-9.875777
1007.972656,-12.987215,-10.412111,-2.648909,-14.193200
1007.976562,-5.023884,-10.246100,-7.851040,-8.981089
1007.980469,-14.581589,-7.012937,-11.066006,-9.047232
1007.984375,-8.706487,-7.098316,-3.050705,-3.325050
1007.988281,-0.071195,-4.784991,-0.805698,-7.546966
1007.992188,-7.301910,-7.384493,-8.081753,-3.540160
1007.996094,-0.145221,-2.856581,0.604925,0.069100
1008.000000,2.908017,0.872597,2.227440,2.424076
1008.003906,-6.222236,-0.522469,9.167042,2.385005
1008.007812,7.979710,3.671426,7.560758,-4.747438
1008.011719,6.235519,11.596834,13.765848,7.375155
1008.015625,13.559003,4.733471,9.758468,3.876383
1008.019531,4.346936,14.938660,7.311827,13.554500
1008.023438,9.086778,9.486993,7.447109,12.610234
1008.027344,4.301289,10.967380,17.325827,12.402913
1008.031250,13.312348,18.490048,10.137448,10.155846
1008.035156,4.454477,11.036410,12.293596,14.246625
1008.039062,4.175218,3.495472,7.147464,9.953723
1008.042969,10.213066,6.442169,4.611796,3.738259
1008.046875,-4.480832,1.723870,6.425965,2.706100
1008.050781,3.554160,-0.202349,4.914868,3.338900
1008.054688,-3.771849,-2.999813,-2.559836,-4.673377
1008.058594,-2.951760,-3.234470,-11.312578,-8.732456
1008.062500,-10.586070,-6.019501,-4.753598,-9.324838
1008.066406,-17.648607,-4.262032,-5.098392,-13.368959
1008.070312,-10.776266,-12.546811,-12.418322,-9.034101
1008.074219,-6.351810,-9.113873,-9.118155,-10.990595
1008.078125,-4.786411,-2.729734,-6.696895,-14.889401
1008.082031,-5.247067,-3.189270,-8.499602,-6.442854
1008.085938,-11.972810,-8.774444,-12.992168,-2.889119
1008.089844,-4.991999,5.303525,-10.777118,-3.087774
1008.093750,-8.756985,3.330733,0.854804,-6.944190
1008.097656,6.778781,-2.802129,1.993974,-3.618799
1008.101562,0.891258,6.771533,-0.371278,0.270346
1008.105469,3.687905,2.579200,9.342609,-1.214891
1008.109375,4.642474,4.927067,4.705790,4.638234
1008.113281,10.143803,7.726512,11.085221,7.480327
1008.117188,10.223136,9.700857,15.641397,10.151895
1008.121094,14.426569,11.037112,4.211595,6.661015
1008.125000,14.155909,14.263184,4.086283,8.582137
1008.128906,12.031098,6.724617,10.739611,13.067690
1008.132812,9.603578,22.699667,7.790758,9.372663
1008.136719,11.041769,2.729671,8.550842,1.261200
1008.140625,6.968021,9.821790,3.606964,8.538986
1008.144531,3.157249,1.439269,4.974956,0.479233
1008.148438,-3.974294,4.099082,4.587844,-0.663526
1008.152344,-1.131350,-8.415196,-2.061575,-8.624765
1008.156250,-5.303078,-3.310988,-3.559310,-11.524256
1008.160156,-4.005406,-8.773481,-4.897531,-0.022033
1008.164062,-15.897310,-3.038415,-7.970753,-4.837118
1008.167969,-8.794023,-9.254651,-2.707798,-4.154457
1008.171875,-12.725813,-5.616831,-9.526648,-7.210861
1008.175781,-12.161327,-15.834423,-10.613021,-7.003036
1008.179688,-8.633365,-5.171078,-5.395664,-9.419914
1008.183594,-5.873315,-8.823829,-2.395727,-1.941055
1008.187500,-7.400489,-6.375937,-7.720596,-5.952994
1008.191406,-6.806764,-6.236882,-0.565788,2.025691
1008.195312,-5.034457,-3.363579,-1.278907,0.584145
1008.199219,-2.969086,-4.080749,1.995851,4.197155
1008.203125,5.112553,5.518060,3.914058,2.414411
1008.207031,8.486232,4.855956,0.347271,7.496107
1008.210938,5.186551,8.908424,7.117465,10.459899
1008.214844,7.765699,4.199606,9.597664,9.081375
1008.218750,16.581710,15.381039,10.528215,11.543386
1008.222656,9.360023,8.897329,4.977448,12.499361
1008.226562,7.377029,11.255632,16.701721,9.160660
1008.230469,9.517438,4.988721,7.352917,9.407074
1008.234375,10.815099,11.806861,8.989796,4.384868
1008.238281,-4.015107,1.449081,11.293590,9.596452
1008.242188,3.000865,4.951666,-1.019311,0.926383
1008.246094,2.812464,2.420506,4.695081,12.558315
1008.250000,1.905229,-0.811460,-0.841889,-0.506927
1008.253906,-3.900296,-8.891153,-6.242078,-3.919008
1008.257812,-8.505038,-11.072590,1.366923,-6.236638
1008.261719,-2.806124,-8.592128,-7.298525,-3.379466
1008.265625,-9.585837,-10.072003,-8.092326,-5.268999
1008.269531,-5.419870,-7.235390,-9.987340,-7.101263
1008.273438,-9.423178,-22.028680,-13.150845,-7.136004
1008.277344,-17.780923,-10.710142,-3.380323,-8.898501
1008.281250,-7.738668,5.639274,-10.689312,-3.256438
1008.285156,-3.789087,-16.015518,-9.837910,-10.325943
1008.289062,-15.827265,-5.736187,0.720606,-12.482492
1008.292969,-5.634630,-5.380294,-6.593820,-5.105389
1008.296875,-5.327952,1.354713,-5.459528,2.134817
1008.300781,4.353501,-4.915217,3.613445,4.245838
1008.304688,4.547160,-0.220790,2.277264,1.466976
1008.308594,1.206444,6.925434,8.730557,2.214566
1008.312500,9.704304,4.274018,3.861090,3.572375
1008.316406,12.083873,11.018564,10.504577,11.142197
1008.320312,10.561090,9.393804,5.071256,10.706929
1008.324219,8.859412,3.597317,7.667148,17.583826
1008.328125,12.679044,2.996189,7.553475,11.342595
1008.332031,9.682125,3.380495,6.744048,7.214947
1008.335938,12.859339,11.812383,12.877135,10.982672
1008.339844,-3.990276,12.204386,12.108759,-0.887559
1008.343750,4.123272,4.231295,3.814944,6.994737
1008.347656,-0.785853,0.665374,1.842279,1.510946
1008.351562,-2.364686,-1.938027,-3.521843,-4.157696
1008.355469,-4.621874,-2.753460,-4.489226,-3.122902
1008.359375,-4.997478,-3.702907,-5.852765,-10.911872
1008.363281,-6.044410,-8.919193,-5.027200,-3.059570
1008.367188,-10.162775,-6.567326,-11.241049,-8.438112
1008.371094,-4.192556,-8.085405,-8.920442,-15.430352
1008.375000,-3.138529,-12.720823,-6.296643,-10.727035
1008.378906,-6.351433,-5.728914,-14.847319,-7.716802
1008.382812,-13.285017,-3.049722,-12.031365,-8.852613
1008.386719,-9.433746,-10.495868,-3.614379,-9.107344
1008.390625,-7.803828,-2.009976,-8.440097,-8.145123
1008.394531,-6.416993,-5.409235,2.153364,-2.682041
1008.398438,-5.079241,-3.221217,-7.793544,-3.099104
1008.402344,1.135790,4.930515,-2.414927,-2.612708
1008.406250,-0.986089,5.013606,5.431982,-5.135529
1008.410156,0.368084,5.113903,0.508807,-5.408192
1008.414062,3.025531,0.844504,7.769845,11.020004
1008.417969,3.034697,8.973898,6.217594,13.985168
1008.421875,9.596717,8.659784,17.003122,12.873694
1008.425781,16.485300,11.061150,7.156056,3.177808
1008.429688,8.186800,10.175474,4.050165,8.728451
1008.433594,7.671070,10.564140,9.702358,3.369780
1008.437500,6.963125,12.107402,3.817068,2.585499
1008.441406,-6.006134,10.259136,10.603075,0.282971
1008.445312,6.820912,0.404424,3.813410,10.674681
1008.449219,0.675063,4.871209,2.610682,-8.660535
1008.453125,1.962993,-1.336484,-2.101364,-1.323672
1008.457031,-3.684756,4.606063,-7.800615,-5.223975
1008.460938,-11.304776,-1.784856,-11.690381,-9.239143
1008.464844,-6.049109,-7.820167,-11.331708,-6.565618
1008.468750,-16.173041,-10.501171,-8.161980,-15.429997
1008.472656,-9.384339,-2.707968,-12.472259,-9.220199
1008.476562,-9.585454,-6.995780,-12.212397,-6.844796
1008.480469,-4.486501,-12.005113,-4.506193,-13.599521
1008.484375,-16.178704,-12.092850,-6.358094,-10.658697
1008.488281,-4.461634,-3.519239,-14.227530,-8.761468
1008.492188,-2.468781,-8.369135,-2.824773,-4.083902
1008.496094,1.102297,-0.419035,-4.214631,-2.594072
1008.500000,-3.300614,2.772991,5.011182,-3.295962
1008.503906,1.583737,2.404235,1.225237,1.785346
1008.507812,0.957516,1.259973,5.518340,10.053080
1008.511719,10.060371,0.133183,-0.371729,6.158000
1008.515625,11.762344,3.931386,12.327220,13.855553
1008.519531,3.325882,11.513735,6.968325,9.095387
1008.523438,11.342881,14.752811,12.201394,12.893360
1008.527344,9.577621,7.050849,7.233241,9.486159
1008.531250,8.826096,5.982061,14.299457,9.707527
1008.535156,0.073277,9.291449,11.398308,3.003621
1008.539062,4.644842,5.717933,3.849489,2.056423
1008.542969,1.755331,3.487528,3.736083,10.948977
1008.546875,-0.463216,1.689342,6.749073,-1.117979
1008.550781,3.307988,3.067433,-2.929048,0.617656
1008.554688,-9.787175,-2.873979,-0.420957,0.308710
1008.558594,-1.657426,-7.746036,-2.260024,5.652732
1008.562500,1.973162,-4.101862,-7.430840,-7.165215
1008.566406,-5.173327,-17.727657,-12.561406,-8.448373
1008.570312,-6.980871,-9.790321,-7.439848,-12.310570
1008.574219,-11.757769,-9.874349,-7.513975,-6.408252
1008.578125,-10.861299,-13.099900,-14.734613,-11.901680
1008.582031,-11.035875,-7.228990,-9.858483,-3.999942
1008.585938,-2.809263,-10.083651,-6.722544,-11.435259
1008.589844,-4.179049,-7.950336,-10.033483,-5.170525
1008.593750,-7.856950,-5.497343,-5.378523,1.956159
1008.597656,3.484709,0.053217,0.314245,-0.373047
1008.601562,-4.664137,4.524377,1.137687,-1.848828
1008.605469,-2.274382,-1.245315,8.376901,6.030730
1008.609375,9.623356,-2.652967,3.401365,4.262944
1008.613281,13.848717,5.715017,10.161649,14.230085
1008.617188,11.810406,-4.432631,14.327425,8.517402
1008.621094,7.145457,6.994920,3.436079,7.720910
1008.625000,15.358060,4.869170,15.537749,6.103773
1008.628906,4.309830,4.487777,12.700062,11.653626
1008.632812,5.619937,5.926389,13.567194,10.484285
1008.636719,6.402885,11.102804,5.439305,2.284628
1008.640625,4.658570,-1.631464,11.174861,5.978646
1008.644531,1.616819,7.887497,1.569253,-3.024730
1008.648438,6.200154,1.225244,-1.513016,5.301332
1008.652344,-2.187092,-4.998278,-4.626106,1.484564
1008.656250,5.039065,-9.571237,-3.324886,-7.364855
1008.660156,-0.790298,-6.661316,-8.310631,-8.803711
1008.664062,-6.669694,-7.204810,-5.239089,-10.646018
1008.667969,-14.390545,-8.818535,-8.743868,-9.852359
1008.671875,-10.161819,-4.316853,-11.522394,-9.193101
1008.675781,-6.576942,-10.919951,-8.577076,-11.001594
1008.679688,-11.747244,-13.887634,-7.207296,-13.190207
1008.683594,-12.961696,0.385493,-8.678591,-3.473099
1008.687500,-9.836207,-6.829398,1.360634,-11.696436
1008.691406,-2.202376,-7.512953,-4.874104,1.880853
1008.695312,-1.193424,-7.192847,5.050411,-0.997846
1008.699219,5.968782,8.500907,2.588454,4.798907
1008.703125,-2.840738,-3.046786,3.175543,-2.860079
1008.707031,5.353969,3.210591,2.141336,-5.368681
1008.710938,12.555485,8.043466,4.613540,12.323415
1008.714844,11.356984,12.558030,6.720846,7.239841
1008.718750,8.760708,13.730812,10.114180,12.656906
1008.722656,11.443932,14.822831,11.811994,7.691309
1008.726562,2.610259,10.139710,12.102565,12.979134
1008.730469,8.738321,15.426780,8.794645,6.158977
1008.734375,11.075393,9.898122,7.716954,9.241103
1008.738281,8.738659,5.115907,9.820723,4.393013
1008.742188,8.129759,11.999767,6.606340,1.647613
1008.746094,1.677091,1.525711,2.798963,11.322241
1008.750000,0.466211,-3.136657,-3.559675,8.231168
1008.753906,-3.868433,-2.944419,-7.881555,9.789338
1008.757812,-6.532756,-6.620706,-9.959032,-5.567717
1008.761719,-8.166747,-8.855423,-11.324889,-9.956179
1008.765625,-12.953693,-12.651394,-2.532294,-6.354303
1008.769531,-8.452637,-14.126415,-13.471755,-20.349873
1008.773438,-11.329521,-4.059229,-4.586820,-16.324727
1008.777344,-13.229170,-15.990177,-12.807816,-10.920361
1008.781250,-6.993147,-2.705683,-10.809329,-8.287306
1008.785156,-2.118079,-12.507480,-8.336717,-1.664700
1008.789062,-11.690953,-5.914587,-6.556320,-5.051089
1008.792969,-7.092727,-6.978671,2.203383,-2.787635
1008.796875,-1.558499,-1.227414,-1.240345,2.660390
1008.800781,2.216739,1.758394,-6.471903,2.904550
1008.804688,8.333344,2.008277,3.054979,-5.568528
1008.808594,4.009825,9.940569,4.747592,-1.378076
1008.812500,7.110700,10.126135,11.465330,-1.639005
1008.816406,12.093144,7.831661,4.636365,4.132858
1008.820312,7.530538,10.180525,9.886893,2.949950
1008.824219,9.580881,13.470439,10.091234,11.393957
1008.828125,13.836783,11.678258,12.991472,1.562248
1008.832031,6.567397,13.266591,1.314942,7.339872
1008.835938,8.191627,6.183003,9.838984,7.500538
1008.839844,9.385013,3.877996,0.469159,5.254628
1008.843750,-1.162569,4.507509,9.073571,9.800002
1008.847656,-0.454981,4.391983,5.449477,15.085085
1008.851562,2.880285,-2.255958,1.673581,6.273087
1008.855469,2.928646,-9.517239,-7.231659,-0.861442
1008.859375,-4.035010,1.544399,7.379417,-11.447249
1008.863281,-10.089459,-1.799567,-6.477903,-1.768295
1008.867188,-6.767009,-9.483337,-2.743099,-12.164166
1008.871094,-9.574884,-13.678706,-11.174093,-6.188334
1008.875000,-8.279794,-11.967732,-4.056838,-15.310137
1008.878906,-5.956937,-4.118887,-8.775787,-12.898665
1008.882812,-18.794520,-15.627998,-6.375270,-10.407105
1008.886719,-5.046234,-7.012551,-5.842564,-4.383896
1008.890625,-9.057974,-8.092957,-1.785804,-3.644773
1008.894531,-3.314887,-13.601838,-0.949824,0.329641
1008.898438,-3.348722,3.059331,-0.160450,1.721796
1008.902344,1.993345,5.013585,8.484598,2.804049
1008.906250,3.005127,2.284951,13.628327,3.931832
1008.910156,-0.879965,10.372201,1.000435,5.450510
1008.914062,11.074938,11.213943,-0.305489,10.495694
1008.917969,0.306349,14.584387,12.760908,6.759384
1008.921875,12.047047,11.702207,11.966131,22.810999
1008.925781,2.426904,10.467028,8.760805,15.538502
1008.929688,8.497864,5.880938,2.984308,18.925477
1008.933594,7.636505,10.449032,14.515265,11.768392
1008.937500,7.112982,8.485337,11.563773,4.924932
1008.941406,0.695551,2.732914,4.210766,4.780736
1008.945312,2.555756,5.049804,2.572361,1.969174
1008.949219,0.644109,2.517659,1.093476,2.323227
1008.953125,-5.435188,1.574856,4.972250,-10.386322
1008.957031,3.012488,1.119240,-2.459173,-4.829193
1008.960938,-11.583213,-11.146411,-5.553296,-7.168569
1008.964844,-10.478764,-7.070471,-11.888487,-19.642808
1008.968750,-9.224104,-13.256254,-13.951726,-4.102132
1008.972656,-6.518937,0.247563,-12.263215,-7.953725
1008.976562,-7.389511,-5.836752,-17.415810,-7.415945
1008.980469,-6.944541,-6.901686,-10.246485,-6.705434
1008.984375,-7.106881,-6.948546,-8.252125,-7.698248
1008.988281,-6.958622,-5.703843,-8.571601,-11.493592
1008.992188,-8.074482,-0.192593,-9.000570,-8.963522
1008.996094,-2.528389,-6.279966,1.453303,0.299557
1009.000000,-0.039947,-3.911102,-1.656922,-1.662304
1009.003906,-0.298458,4.022907,-0.073740,1.728831
1009.007812,1.154591,4.207006,9.865460,7.788278
1009.011719,10.531782,5.958332,7.031853,2.419720
1009.015625,6.896642,9.969066,-0.819356,10.650469
1009.019531,17.495243,5.710869,9.223381,13.908124
1009.023438,1.911322,9.904399,15.007299,14.798316
1009.027344,13.933650,6.766371,9.366722,8.438187
1009.031250,8.065502,13.002678,11.266249,7.767934
1009.035156,5.789580,8.899350,14.703049,10.276880
1009.039062,7.886430,13.220685,9.253758,12.510884
1009.042969,1.440422,7.197589,8.633578,5.351308
1009.046875,2.202513,0.019989,1.831980,11.660705
1009.050781,-5.028900,-1.804460,-4.278645,1.541164
1009.054688,0.754867,-0.397425,-4.908737,3.756751
1009.058594,-9.274291,-7.821860,-5.624130,-5.172694
1009.062500,-10.045860,-8.513658,-4.090481,-8.721259
1009.066406,-2.364493,4.793208,-5.018027,-9.097512
1009.070312,-2.453835,-4.474260,-7.806863,-9.614592
1009.074219,-7.394591,-3.420559,-7.530015,2.632696
1009.078125,-8.096281,-5.899829,-19.289440,-3.051900
1009.082031,-10.063287,-8.964195,-15.939794,-11.980360
1009.085938,-19.332712,0.243586,-8.137607,-15.689050
1009.089844,-1.854623,-3.201238,-6.038126,-4.714431
1009.093750,-6.558910,-13.516212,-3.251899,-3.275400
1009.097656,-0.979944,0.342215,0.515457,4.740476
1009.101562,8.910029,-0.997811,6.839462,-2.109525
1009.105469,0.158815,7.299640,-0.638277,-1.624902
1009.109375,1.849756,4.935697,-0.825798,8.777784
1009.113281,9.189952,7.448782,10.995887,0.051912
1009.117188,1.250334,8.530337,13.855442,4.413191
1009.121094,9.601397,8.372307,19.279799,9.639011
1009.125000,18.150409,7.529412,15.723112,11.755355
1009.128906,9.043153,2.947198,11.664772,6.198705
1009.132812,15.061967,9.707068,11.408048,10.313152
1009.136719,5.765991,7.021634,3.132128,13.292759
1009.140625,9.904696,5.047450,2.306699,10.015156
1009.144531,9.542648,5.303782,-0.656825,2.403072
1009.148438,-3.875415,-6.613737,5.009341,-2.315966
1009.152344,-4.870448,-2.839033,2.782632,-2.966590
1009.156250,-7.667770,-11.186808,-5.115427,1.981133
1009.160156,-13.767250,-1.629041,-1.368411,-10.584137
1009.164062,-6.702743,-11.321145,-2.654460,-10.021733
1009.167969,-9.983702,-8.329958,-12.085941,-7.093253
1009.171875,-5.734410,-13.654277,-14.130708,-11.059324
1009.175781,-18.490484,-8.411847,-6.286279,-10.113709
1009.179688,-10.857189,-12.517210,-8.658510,-12.260085
1009.183594,-5.831428,-7.212115,-11.808259,-13.306000
1009.187500,-3.524971,-5.465711,-0.875478,-2.718323
1009.191406,-6.881976,-13.839921,-12.284446,-1.109119
1009.195312,0.168620,-3.329129,-10.937980,0.331717
