timestamp,TP9,AF7,AF8,TP10
1000.000000,-0.314254,2.678154,-0.609728,-3.666547
1000.003906,2.798309,3.082902,8.919934,6.346471
1000.007812,3.793078,-0.265330,4.031772,5.266148
1000.011719,5.653041,8.373526,1.146190,11.021788
1000.015625,11.465317,13.423218,10.909503,8.797992
1000.019531,10.214076,6.870052,14.911425,10.099988
1000.023438,11.229531,13.306842,12.114856,9.887767
1000.027344,9.100194,9.214545,5.070026,5.536556
1000.031250,5.888888,6.290481,5.526269,14.434559
1000.035156,9.795595,5.488083,7.150886,11.970352
1000.039062,2.260736,11.093617,2.458791,0.726017
1000.042969,4.380875,9.141128,7.891969,8.424232
1000.046875,0.815759,3.641548,3.470852,1.395529
1000.050781,-4.594854,-1.769468,-8.387083,-12.108480
1000.054688,-5.806316,-2.369160,-3.903593,-1.588244
1000.058594,-6.180604,2.182025,-7.476856,-9.971910
1000.062500,-10.359009,0.045564,-9.759305,-10.760534
1000.066406,-7.434040,-13.841541,-13.976749,-16.349992
1000.070312,-9.000213,-3.870928,-9.255461,-9.197752
1000.074219,-12.156358,-5.330761,-3.299301,-7.900886
1000.078125,-11.121494,-4.978393,-6.590769,-12.676591
1000.082031,-9.575301,-8.584874,-7.061728,-5.086980
1000.085938,-11.062683,-11.374275,-8.060265,-5.126338
1000.089844,-9.166446,-4.497762,-4.657914,-0.177418
1000.093750,-5.750469,-8.996368,-5.749916,1.132111
1000.097656,1.125974,-7.404496,-7.598694,0.211094
1000.101562,-2.202892,0.980190,7.082342,2.022731
1000.105469,1.261479,1.855931,6.455746,-5.042889
1000.109375,0.074843,8.859558,15.296571,4.243965
1000.113281,8.916285,8.547697,4.103013,13.011390
1000.117188,15.607542,5.228387,7.151472,12.557653
1000.121094,7.178748,8.303069,7.850714,9.670182
1000.125000,9.643178,3.683870,7.834020,17.074604
1000.128906,7.076234,7.312475,9.687029,3.657510
1000.132812,6.474619,3.727359,17.334009,11.154423
1000.136719,7.120661,10.941614,6.385129,14.404597
1000.140625,14.868199,7.961616,1.030742,-0.665480
1000.144531,13.324528,5.811697,2.754845,5.531795
1000.148438,1.467552,7.970657,-0.540663,0.468147
1000.152344,-4.713235,-5.982097,-0.613876,-5.438849
1000.156250,-5.247035,-5.435540,-2.911839,-0.211730
1000.160156,-8.679901,-1.936902,-9.352992,-4.609010
1000.164062,-12.342593,-5.745343,-5.582126,-2.162004
1000.167969,-1.670242,-2.370589,0.271207,-4.030709
1000.171875,-14.491554,-9.293990,-0.673969,-10.340355
1000.175781,-11.969290,-14.181215,-2.773898,-10.365819
1000.179688,-6.610203,-9.615427,-11.872432,-5.692155
1000.183594,-6.168972,-8.405129,-12.243783,-13.987542
1000.187500,-6.938352,-5.250349,-6.897006,-7.197533
1000.191406,-3.591561,-0.406846,-6.339387,0.226111
1000.195312,2.416602,-4.855546,-6.226506,-0.525713
1000.199219,2.960488,1.032684,4.089287,8.883328
1000.203125,-7.690266,2.219259,-2.123118,0.875690
1000.207031,7.072336,-5.427592,-0.435028,7.192943
1000.210938,4.697582,1.526220,4.926243,1.869534
1000.214844,10.680610,10.041257,9.849900,8.365824
1000.218750,12.709367,8.004384,7.242248,11.715065
1000.222656,8.830178,13.753935,10.548039,-6.022651
1000.226562,11.288667,9.025340,12.040306,16.126939
1000.230469,9.485855,4.815247,13.441371,9.225429
1000.234375,6.456824,10.032126,7.735918,7.135098
1000.238281,13.588566,5.272424,14.256557,10.224677
1000.242188,5.612312,3.092594,5.838664,9.624217
1000.246094,7.295424,0.672322,6.470247,-5.536754
1000.250000,-3.826341,-0.949667,-0.143687,1.781787
1000.253906,4.840742,-3.947558,-11.588514,0.311915
1000.257812,-6.938128,-0.571208,-4.003488,-6.623921
1000.261719,-4.080705,-2.228904,-5.757886,-4.815600
1000.265625,-13.862762,-11.211691,-4.280897,-12.374155
1000.269531,-5.172299,-8.572934,-8.553848,-8.489292
1000.273438,-10.788235,-12.434112,-5.157269,-12.585022
1000.277344,-14.169990,-7.142872,-13.252180,-12.290942
1000.281250,-9.398763,-16.069128,-6.047073,-10.652408
1000.285156,-2.765987,-13.577158,-3.838204,-15.112785
1000.289062,-3.870636,-6.038032,-3.547182,-5.343885
1000.292969,-5.824898,-7.749108,-7.623838,-11.215720
1000.296875,-5.721694,-5.372904,-0.087978,-4.346371
1000.300781,-3.239331,-0.984135,5.126241,2.882875
1000.304688,1.802117,1.142897,4.264469,-1.463975
1000.308594,3.857399,7.621529,1.749631,-2.869338
1000.312500,8.709708,15.241533,7.509287,6.918671
1000.316406,8.421831,8.511419,10.569646,8.592208
1000.320312,14.307414,2.683226,15.487200,6.769509
1000.324219,5.404916,8.455698,8.138130,16.441880
1000.328125,9.676069,21.316564,20.276894,8.907848
1000.332031,7.664896,9.617778,9.586688,7.748154
1000.335938,19.321742,16.710324,4.766638,4.962202
1000.339844,0.331205,4.934923,2.984307,8.257896
1000.343750,3.456486,2.582767,-0.112597,6.511959
1000.347656,6.549834,0.549370,0.824356,4.556459
1000.351562,1.628536,-7.332489,1.149945,0.674927
1000.355469,-3.773181,-6.993466,-0.874993,1.157192
1000.359375,1.062391,-10.608508,-4.193918,-1.376196
1000.363281,-12.017214,-8.689267,-2.859963,-5.853392
1000.367188,-9.441075,-9.371987,-13.000167,-1.268743
1000.371094,-9.366189,-11.940967,-3.542118,-3.722725
1000.375000,-7.970821,-6.799599,-6.152015,-1.986420
1000.378906,-10.921460,-21.661472,-10.730750,-15.004127
1000.382812,-5.651072,-11.584393,-6.616809,-12.499241
1000.386719,-3.883399,-7.262914,-10.943613,-9.046288
1000.390625,7.832498,-11.294328,-1.155786,-0.997921
1000.394531,-1.891402,-6.616369,-1.952919,-7.653985
1000.398438,-6.556742,2.089164,-7.503107,7.705344
1000.402344,-0.867256,-4.727337,4.779259,5.601407
1000.406250,4.154843,10.419154,9.916315,8.695193
1000.410156,5.776409,2.961732,7.078824,7.074894
1000.414062,8.750904,12.037676,6.692324,7.200590
1000.417969,4.627192,6.117336,9.282315,7.252799
1000.421875,9.867562,14.066581,13.137432,4.536897
1000.425781,11.425839,11.608652,6.191329,9.424539
1000.429688,10.534225,10.164060,7.790567,9.727570
1000.433594,7.186079,14.119874,9.149189,9.847331
1000.437500,6.694289,10.483933,1.859820,5.213634
1000.441406,7.281071,-1.839369,4.456907,8.258563
1000.445312,-5.939642,10.258057,6.007071,-0.806586
1000.449219,3.808868,-1.936878,1.474047,5.608928
1000.453125,-1.421425,-5.582618,-2.138303,1.279601
1000.457031,-3.302781,-8.640780,-4.712059,-7.876133
1000.460938,3.256119,-1.454905,-7.226250,-6.735524
1000.464844,-7.939597,-6.002834,-8.729654,-12.082567
1000.468750,-4.186220,-9.270857,-11.752938,-13.715765
1000.472656,-12.761176,-13.396152,-12.236713,-7.468569
1000.476562,-12.147023,-7.464143,-8.274554,-11.064119
1000.480469,-7.824391,-5.736838,-11.318085,-13.277931
1000.484375,-7.695461,-2.411338,-9.227249,-4.327047
1000.488281,-0.657362,-15.122770,-4.983373,-4.533009
1000.492188,-5.332034,0.264870,-10.527335,2.456505
1000.496094,-3.716313,1.751143,1.254996,-2.640745
1000.500000,-2.521543,-5.003059,-10.939439,2.806139
1000.503906,3.793241,5.210840,-0.035912,5.778037
1000.507812,9.225762,6.738166,3.376116,9.063199
1000.511719,8.441158,7.772112,10.092403,3.774202
1000.515625,6.503855,8.657237,13.454543,8.255578
1000.519531,16.721495,15.676754,14.313274,4.587280
1000.523438,6.894020,10.698564,3.915056,21.778438
1000.527344,9.919663,9.209673,13.972036,15.903222
1000.531250,2.519955,6.450532,16.996491,8.268680
1000.535156,2.338274,10.840842,5.990528,0.623775
1000.539062,8.605355,4.504940,10.652482,10.038755
1000.542969,6.130921,-2.306145,2.684208,9.110607
1000.546875,8.304328,6.032974,-1.003345,-0.816193
1000.550781,1.807681,5.412409,-3.281617,3.543058
1000.554688,-6.215510,-7.970093,-0.412314,-7.010391
1000.558594,-10.041371,0.439354,-2.380998,-6.464089
1000.562500,-10.303163,-8.604540,-6.401427,-14.624927
1000.566406,-7.847021,-18.092734,-5.848641,-3.348519
1000.570312,-4.129398,-11.449837,-6.640083,-13.012246
1000.574219,-7.656670,-16.235620,-9.431547,-12.427807
1000.578125,-6.911071,-9.912240,-12.209021,-10.417723
1000.582031,-4.044717,-15.256960,-12.292259,-12.368249
1000.585938,-12.338026,-7.756857,-7.457891,-10.552086
1000.589844,-6.201545,-7.687870,-13.351549,-1.009590
1000.593750,-2.300630,-7.452421,-1.125436,2.624487
1000.597656,-3.506100,5.067552,-3.802352,0.599879
1000.601562,-0.077226,-4.943812,4.758631,3.993798
1000.605469,-0.010100,-2.178869,8.437100,2.984681
1000.609375,5.535850,7.893232,6.890413,7.429734
1000.613281,14.041738,0.334447,2.166809,4.274440
1000.617188,14.518966,2.193952,9.283357,10.663287
1000.621094,9.561381,5.110290,8.664761,11.037767
1000.625000,0.332798,17.529051,14.458446,3.692125
1000.628906,1.267511,4.741829,9.814022,1.242468
1000.632812,4.887784,10.486987,11.157831,5.688986
1000.636719,8.035496,4.154936,7.961097,1.694788
1000.640625,5.719519,0.321450,3.195577,6.824740
1000.644531,7.557860,1.067764,0.611188,6.947110
1000.648438,-2.194900,-3.675227,-1.353674,3.052842
1000.652344,-3.372293,-7.851927,0.314568,-5.190011
1000.656250,-8.468756,-1.149608,2.492029,3.629369
1000.660156,-4.631583,-2.669991,-3.601196,-12.308016
1000.664062,-10.838981,-3.201153,-10.381296,-8.470439
1000.667969,-6.181693,-7.102904,-11.440460,-6.609515
1000.671875,-9.518236,-17.322476,-7.166100,-16.493467
1000.675781,-10.091019,-10.656486,-7.430949,-8.461844
1000.679688,-9.383309,-6.841363,-7.783277,-12.652952
1000.683594,-15.254081,-4.458799,-4.699609,-5.464792
1000.687500,-10.120381,-5.646082,-6.566734,-5.601610
1000.691406,-4.005257,1.023160,-7.195808,0.445858
1000.695312,-6.367570,-3.555556,-7.686636,0.277513
1000.699219,-10.440757,1.884229,4.627950,-2.369034
1000.703125,-0.428943,-7.428763,6.369692,6.997731
1000.707031,6.280080,7.281496,0.203061,7.461640
1000.710938,8.802918,18.068430,9.313141,0.381351
1000.714844,5.445716,6.510029,4.819117,11.433236
1000.718750,5.366619,14.435274,10.075424,16.557474
1000.722656,9.423261,13.031010,1.775483,11.059238
1000.726562,10.715397,3.085138,8.475655,6.749232
1000.730469,3.781983,7.223115,9.404147,12.342337
1000.734375,8.251944,18.631715,10.500584,7.024734
1000.738281,7.439040,4.103544,3.070136,3.073381
1000.742188,-2.923145,9.763968,-0.556891,7.945915
1000.746094,1.606064,1.633167,1.998414,3.659798
1000.750000,0.768598,-3.534082,-0.518104,3.699989
1000.753906,-2.830224,-3.657617,-0.801780,-1.983080
1000.757812,-5.333603,-3.649661,-5.741278,-7.566983
1000.761719,-9.162709,-4.961815,-7.417818,0.345829
1000.765625,-9.282913,-5.032999,-7.452148,-6.078418
1000.769531,-10.167038,-4.748213,-12.664393,-7.089939
1000.773438,-9.695650,-9.386928,-16.319600,-8.888105
1000.777344,-10.186227,-15.373325,-3.521752,-11.550254
1000.781250,-12.750521,-13.437059,-11.044352,-3.202310
1000.785156,-7.530932,-12.723188,-10.426528,-15.250650
1000.789062,-3.914027,-7.668250,-5.257943,-15.511286
1000.792969,-3.389887,-5.128129,-5.679106,-8.645283
1000.796875,-5.553218,2.546919,-5.983607,-10.090022
1000.800781,-4.107868,3.351360,8.842682,3.489781
1000.804688,2.997645,6.204456,5.899478,1.461824
1000.808594,15.690280,8.894108,2.778655,4.938246
1000.812500,5.365299,5.469237,9.297691,13.309317
1000.816406,8.432403,5.334253,14.825990,7.430579
1000.820312,7.624330,4.457468,13.002604,7.733873
1000.824219,12.407147,8.609133,9.527948,16.098633
1000.828125,9.295472,6.398926,11.957603,4.086745
1000.832031,6.706820,10.154088,10.918112,6.398516
1000.835938,8.267142,8.462846,10.986359,10.169793
1000.839844,8.956065,7.303127,5.213225,1.214765
1000.843750,3.261329,5.539786,8.101822,5.251425
1000.847656,4.782456,-2.004471,-2.887281,2.479986
1000.851562,9.715546,1.445065,1.017494,-6.307340
1000.855469,-6.046619,-5.493205,-0.981027,-1.628643
1000.859375,-7.649531,-6.216106,-14.495976,-13.230961
1000.863281,-8.360389,-4.620075,-7.253685,-6.722558
1000.867188,-5.264807,-6.520126,-8.010364,0.826502
1000.871094,-5.522759,-4.677153,-19.343668,-11.856571
1000.875000,-6.344437,-18.338140,-12.481374,-11.241460
1000.878906,-15.653917,-12.292215,-6.129087,-13.708275
1000.882812,-7.534892,-7.001945,0.970535,-9.326172
1000.886719,-10.405545,-8.767521,-3.707827,-8.336016
1000.890625,-8.738559,-12.724084,-7.486358,-8.078118
1000.894531,-4.607912,-0.714486,-0.266445,-9.555792
1000.898438,-4.676946,-8.074105,-0.735700,-4.312016
1000.902344,0.915112,0.960577,0.644851,1.128735
1000.906250,3.079862,7.619684,1.995537,5.820591
1000.910156,10.245805,2.321801,5.293335,6.073415
1000.914062,4.424140,12.533991,10.972674,5.088129
1000.917969,11.056928,6.393211,9.784937,12.566113
1000.921875,10.249735,13.712513,9.478423,8.822010
1000.925781,10.597759,8.648760,13.634392,3.992745
1000.929688,3.588637,9.909681,12.366492,10.924755
1000.933594,0.924226,6.868107,9.207755,7.338687
1000.937500,11.147089,7.263557,3.871928,1.769591
1000.941406,9.218068,7.801132,2.886934,0.872541
1000.945312,9.695472,5.181520,4.816800,4.717054
1000.949219,6.827097,4.249640,-4.488721,1.624838
1000.953125,-1.964441,2.634733,-5.810959,-6.713623
1000.957031,-5.772540,-7.262048,2.110409,-4.800127
1000.960938,-8.253113,-9.547426,-4.898286,-10.032302
1000.964844,-7.643232,-5.322342,-8.404851,-14.431900
1000.968750,-16.757891,-10.804485,-12.238398,-10.347113
1000.972656,-5.283784,-12.219081,-9.161256,-2.971539
1000.976562,-7.746840,-11.537096,-12.337101,-7.684409
1000.980469,-15.395720,-14.870007,-13.756897,-11.476267
1000.984375,-13.446613,-1.656331,-11.175536,-5.626232
1000.988281,-4.963554,-1.806720,-5.171283,-14.159298
1000.992188,-5.288382,-0.554746,-10.943012,-2.628515
1000.996094,-0.829240,2.058960,-1.107986,-5.777022
1001.000000,-5.187579,-0.679045,-5.088245,6.214419
1001.003906,4.680979,4.739259,-1.957121,4.578921
1001.007812,5.690622,13.098036,-3.247546,1.130673
1001.011719,3.710951,11.191801,11.176164,10.249945
1001.015625,0.796414,10.685091,7.134636,19.493947
1001.019531,8.224403,10.517117,8.457184,6.944070
1001.023438,11.258973,12.353006,12.706297,8.546419
1001.027344,11.610393,8.534507,11.994480,9.875491
1001.031250,9.903187,8.584477,9.626492,3.484492
1001.035156,14.807924,6.225750,16.235722,5.614711
1001.039062,8.012294,13.430743,4.344750,2.906823
1001.042969,0.823201,-0.747015,0.784499,5.253340
1001.046875,4.466440,0.351724,0.515358,-1.793160
1001.050781,-4.506998,10.702567,3.321117,-4.395877
1001.054688,-0.343517,-9.333932,-1.211515,-10.466892
1001.058594,-1.672704,-8.979606,-10.032627,-7.389990
1001.062500,-5.988812,-6.309594,-2.754047,-5.361900
1001.066406,-4.325660,-6.834972,-11.029915,-4.846456
1001.070312,-10.455008,-5.707832,-4.286720,-9.174575
1001.074219,-8.376473,-11.433015,-8.001607,-10.694490
1001.078125,-11.322253,-10.489846,-16.106268,-11.655674
1001.082031,-3.410392,-12.929102,-5.069102,-11.125865
1001.085938,-7.305656,-10.353300,-7.308784,-6.816066
1001.089844,-3.807070,-5.433869,-3.218564,-5.385102
1001.093750,-7.802976,-12.204318,-1.305925,-8.772100
1001.097656,-3.005288,-4.932691,-1.931369,-2.098778
1001.101562,-1.305724,9.792945,2.007325,3.277373
1001.105469,4.197272,6.968245,3.842159,6.758998
1001.109375,-0.466136,6.160595,-1.139650,3.241964
1001.113281,8.200219,7.674704,6.693375,12.445787
1001.117188,5.184928,13.514692,12.439769,11.433802
1001.121094,16.139056,14.026997,5.475838,9.656208
1001.125000,4.521894,12.503327,9.785858,15.780837
1001.128906,6.308129,7.936524,7.726234,0.197165
1001.132812,11.429861,11.151844,15.556126,9.233282
1001.136719,8.478848,-0.443577,9.233114,5.178088
1001.140625,12.216966,1.041385,4.690938,5.888554
1001.144531,12.153213,2.225335,1.956737,5.496018
1001.148438,2.538443,6.142525,8.280714,-6.475549
1001.152344,3.642879,0.063959,-2.746933,-3.732224
1001.156250,-10.297393,-7.622699,-0.937049,-4.793152
1001.160156,-6.435579,-5.925560,-1.612085,-3.518130
1001.164062,-7.618933,-7.791166,-5.700720,-12.452623
1001.167969,-18.766621,-6.562264,-3.929606,-9.800376
1001.171875,-12.515548,-15.065913,-14.639043,-6.120869
1001.175781,-10.140634,-8.914877,-10.429233,-11.772096
1001.179688,-13.391869,-6.774858,-10.311234,-13.038780
1001.183594,-9.128130,-3.629599,-5.705183,-10.349223
1001.187500,-0.656890,-5.782095,0.429033,-7.401257
1001.191406,-6.001687,-9.545251,-8.141128,-2.482563
1001.195312,-3.843528,-4.528356,-5.512617,2.704476
1001.199219,-4.258779,-1.338311,-3.121986,-2.593454
1001.203125,5.739874,5.239683,-0.205197,5.459354
1001.207031,3.944800,4.397567,7.574932,4.953442
1001.210938,0.396684,2.273684,16.684468,3.017355
1001.214844,6.864100,11.118487,5.389234,5.557057
1001.218750,9.701865,10.485337,2.382653,1.933278
1001.222656,15.654657,4.569288,9.349320,6.417369
1001.226562,10.123972,10.279867,8.018901,9.168064
1001.230469,15.829853,9.309790,6.367579,7.454126
1001.234375,4.166678,13.096633,11.216320,12.567607
1001.238281,12.028225,8.356913,6.929092,0.840175
1001.242188,2.979243,-4.408986,-3.166577,1.035734
1001.246094,3.308702,2.843892,4.079030,1.872658
1001.250000,-5.924459,2.987523,-0.092196,2.801061
1001.253906,0.352612,-1.810412,-3.497324,-2.781576
1001.257812,-0.235010,-1.346167,-1.290919,-6.593944
1001.261719,-4.128082,-6.913492,-13.461347,-6.120781
1001.265625,-4.800987,-7.841112,-8.933604,-8.434682
1001.269531,-14.632413,-4.519814,-7.988826,-8.135563
1001.273438,-13.102699,-18.928893,-19.002658,-11.437438
1001.277344,-3.205257,-12.363741,-16.183721,-11.796901
1001.281250,-8.490225,-6.290898,-6.858278,-13.596383
1001.285156,-10.625455,-7.793376,-9.444545,1.990878
1001.289062,-5.308432,-9.220283,-9.228110,-8.325090
1001.292969,-7.729299,-7.314851,-0.226243,-7.880901
1001.296875,-3.649555,-0.871416,-1.980274,-1.812380
1001.300781,-0.509627,2.084002,5.581388,-3.186807
1001.304688,-4.417422,-10.419912,7.882973,1.641507
1001.308594,4.733789,8.435676,2.877610,15.456003
1001.312500,14.007925,7.694155,10.344299,9.430590
1001.316406,7.636504,4.243568,6.131671,12.185098
1001.320312,5.616274,11.469258,6.199061,11.061880
1001.324219,6.190432,5.715302,6.975589,11.353183
1001.328125,5.076604,5.245646,16.494990,18.493343
1001.332031,5.121658,3.905554,13.356009,10.347326
1001.335938,5.141302,11.987833,14.176046,7.968430
1001.339844,5.065558,9.620915,-2.014580,4.993432
1001.343750,-0.751348,1.505569,-0.630903,-5.484759
1001.347656,-0.816884,2.786649,4.028808,-1.162939
1001.351562,5.552191,-5.346085,-3.299963,2.083276
1001.355469,5.031736,-8.119202,-7.795530,-4.219201
1001.359375,-10.286481,-11.886050,1.121366,-6.101196
1001.363281,-15.335063,-5.081167,-11.369469,-4.359727
1001.367188,-8.310836,-8.395366,-8.673601,-12.982107
1001.371094,-4.941392,-7.594177,-9.365068,-14.977721
1001.375000,-12.354523,-6.257725,-4.382305,-8.959789
1001.378906,-13.525546,-10.380013,-11.743259,-6.959959
1001.382812,-1.628470,-13.996928,-10.141651,-8.709047
1001.386719,-7.205000,-7.013742,-6.348885,-7.773416
1001.390625,-4.469002,-3.770903,-7.355042,-8.489953
1001.394531,-6.957628,-1.094746,-10.024733,-4.865201
1001.398438,4.214603,-6.121855,8.251483,-0.145890
1001.402344,-0.819210,12.926864,-6.008340,3.518426
1001.406250,8.379094,5.426023,1.231297,3.884937
1001.410156,3.589243,6.217218,3.262082,9.190303
1001.414062,5.581255,5.663222,13.513188,4.164995
1001.417969,-1.492966,4.420410,5.697900,4.601610
1001.421875,4.831377,6.779521,8.212190,5.961951
1001.425781,10.665661,3.231336,12.402842,7.201515
1001.429688,12.268832,12.751749,9.339397,11.759424
1001.433594,16.974680,7.045646,11.898888,5.137105
1001.437500,1.601027,17.154578,2.542528,7.006919
1001.441406,6.415128,5.774377,11.868975,1.456261
1001.445312,-0.018023,3.450555,1.876020,3.631989
1001.449219,12.695821,-2.072005,8.167725,-1.630674
1001.453125,-0.143759,-9.256527,-1.841364,-0.345900
1001.457031,-2.812577,-0.196125,-5.973218,-0.875440
1001.460938,-5.452503,-7.014577,-4.699286,-4.169776
1001.464844,-6.607487,-6.589668,-5.187437,-3.710965
1001.468750,-11.667270,-10.112347,-12.223665,-15.980705
1001.472656,-10.614100,-6.936122,-9.820747,-12.090844
1001.476562,-15.475153,-6.822771,-13.216796,-11.266523
1001.480469,-9.258046,-9.554633,-8.261965,-6.517280
1001.484375,-13.373654,-9.894579,-5.514326,-12.464673
1001.488281,-12.001061,-2.817570,-11.342783,-9.647394
1001.492188,-3.629246,-8.595850,-2.275621,-3.792866
1001.496094,-4.879557,-1.616971,-5.409559,1.151109
1001.500000,6.242699,-2.116321,-9.319212,-0.484405
1001.503906,2.035303,3.192451,7.438361,-1.817414
1001.507812,6.343613,0.795953,10.127840,1.696547
1001.511719,3.653373,2.515231,-1.661377,11.103280
1001.515625,2.768161,-0.024054,9.972599,12.841972
1001.519531,6.353771,4.959035,8.742944,14.255504
1001.523438,5.177772,13.834287,5.030103,11.040900
1001.527344,11.117075,9.296453,16.684509,10.343264
1001.531250,9.869441,12.579577,13.047480,9.054554
1001.535156,9.907319,11.032437,7.409571,5.146537
1001.539062,9.890132,0.456595,-1.972508,7.184205
1001.542969,7.768333,10.176503,5.615291,6.342510
1001.546875,1.944670,4.849613,2.845860,-1.845690
1001.550781,3.469548,-1.434286,-6.788463,2.938665
1001.554688,10.927442,-8.276634,3.828112,8.963904
1001.558594,1.702580,-0.524811,-6.717762,-1.379898
1001.562500,-1.503907,-11.048316,-8.381447,-4.334614
1001.566406,-6.785842,-9.449358,-15.761436,-6.828742
1001.570312,-14.712818,-8.561548,-6.250812,-0.429313
1001.574219,-16.506834,-8.381817,-10.069795,-15.538904
1001.578125,-11.798442,-15.452238,-3.303774,-18.264266
1001.582031,-13.314656,-8.148575,-8.925116,-13.625389
1001.585938,-7.115502,-8.212873,-12.142433,-8.166869
1001.589844,-4.367417,-6.856478,-12.174969,-2.835343
1001.593750,-0.314247,-0.730962,-5.317160,-7.719697
1001.597656,3.337899,-1.376245,4.489914,3.365352
1001.601562,5.076493,5.554967,7.585932,1.903057
1001.605469,-0.268342,-2.983895,-4.481788,8.282311
1001.609375,6.593757,-0.368436,10.110441,-1.884049
1001.613281,2.712925,7.472758,7.758728,9.185090
1001.617188,9.433620,6.412142,1.377043,14.654485
1001.621094,4.241097,5.647353,9.582425,10.446346
1001.625000,9.702440,9.332575,2.146860,16.711179
1001.628906,8.506972,8.801492,12.748782,8.817488
1001.632812,6.582506,6.864405,7.380602,7.491459
1001.636719,8.088495,0.856946,14.987069,6.616025
1001.640625,5.271384,4.840306,-1.127417,-2.651642
1001.644531,-0.610868,4.435956,9.163554,-2.633978
1001.648438,0.975877,4.779105,-5.236704,-7.382846
1001.652344,-2.086580,-5.648645,1.843695,8.852293
1001.656250,-4.014710,-4.742022,-1.754065,-3.030060
1001.660156,-6.131140,-8.645171,1.004699,-5.295841
1001.664062,-14.525104,-8.085715,-7.838942,-5.381985
1001.667969,-16.502581,-12.662551,-5.090567,-9.306445
1001.671875,-9.582022,-4.389804,-13.054888,-6.501278
1001.675781,-8.793378,-13.192169,-3.095218,-11.928230
1001.679688,-18.959960,-9.348516,-9.639560,-20.216854
1001.683594,-12.573603,-7.880060,-9.834115,-21.812639
1001.687500,-1.636876,-9.025216,3.613516,-6.668576
1001.691406,-5.225071,-12.094615,-7.651311,-8.799052
1001.695312,0.117222,-1.830522,-7.649237,0.978277
1001.699219,2.975985,-3.742353,1.452759,-0.902205
1001.703125,4.721733,0.728839,3.089278,2.129306
1001.707031,2.859838,7.005707,-2.465714,1.572821
1001.710938,7.970656,7.137022,4.288184,6.158424
1001.714844,7.601395,12.240122,7.804704,3.028859
1001.718750,7.146295,5.059914,7.715935,5.391378
1001.722656,7.195161,2.860998,4.338321,15.087165
1001.726562,11.140593,17.151014,17.674613,11.071496
1001.730469,12.124423,7.527839,9.478143,4.071240
1001.734375,5.593524,9.155228,13.388213,12.474762
1001.738281,10.779130,7.790682,10.562879,3.516842
1001.742188,6.314992,3.299996,2.403836,11.703815
1001.746094,1.227747,-3.952463,7.200118,0.606502
1001.750000,8.546754,1.256613,1.361171,0.070332
1001.753906,-8.261770,-0.677054,5.109831,-1.311675
1001.757812,-5.898352,-1.914722,-10.116698,-2.388373
1001.761719,-4.026493,-2.654889,-8.440619,-13.579166
1001.765625,-11.084531,-6.469737,-14.261425,-1.067481
1001.769531,-11.438839,-2.805311,-1.591633,-4.117369
1001.773438,-13.668347,-12.415375,-7.127685,-5.101295
1001.777344,-12.146241,-12.055701,-3.848146,-13.176584
1001.781250,-6.358546,-8.527651,-5.754443,-9.259267
1001.785156,-8.157543,-5.738359,-9.871117,-10.611152
1001.789062,-5.387179,-4.558864,-7.553262,-9.350664
1001.792969,-1.425892,-4.866788,-3.810900,-8.442205
1001.796875,-0.208804,-7.277267,-8.757820,-2.089942
1001.800781,5.420458,-8.985598,1.374241,-2.374599
1001.804688,1.002927,8.027201,-0.493764,6.448356
1001.808594,5.460796,-2.893878,4.762135,4.180954
1001.812500,4.224462,5.856962,6.958088,11.083049
1001.816406,9.032273,9.073776,10.394434,10.351291
1001.820312,9.861330,-0.054962,11.380774,14.778169
1001.824219,6.219661,16.611047,16.820789,9.541652
1001.828125,3.286078,2.995501,6.937993,6.094707
1001.832031,6.482479,3.691003,11.397693,7.469311
1001.835938,12.054360,6.445814,9.340560,13.221684
1001.839844,14.639896,3.474967,7.967535,-1.636825
1001.843750,-0.211268,-0.005432,0.955444,6.108728
1001.847656,3.242865,-5.232745,3.996040,2.204424
1001.851562,3.229585,-0.756089,-1.715952,-2.072399
1001.855469,-8.328067,-8.421060,-4.215848,-3.012182
1001.859375,-4.516037,-3.800551,-12.717417,-9.258046
1001.863281,-5.291986,-3.950303,-14.164508,-3.772427
1001.867188,-16.351327,-15.216481,-8.089235,-10.596167
1001.871094,-7.199491,-4.021004,-11.673630,-9.583653
1001.875000,-11.860498,-8.431140,-5.735258,-10.491392
1001.878906,-10.042835,-8.379651,-13.885068,-14.469498
1001.882812,-5.220821,-6.876958,-9.315345,-6.869055
1001.886719,-5.690001,-4.717917,-8.501797,-11.036718
1001.890625,-6.468705,-7.834074,-1.390212,-7.677924
1001.894531,2.300876,-0.168363,-4.997375,-4.046043
1001.898438,3.349107,4.242346,-4.922765,-2.853136
1001.902344,-5.153980,-0.963148,5.411720,-0.554410
1001.906250,7.980245,5.935078,8.412700,1.338159
1001.910156,9.525437,4.107824,9.484923,10.655021
1001.914062,11.881328,10.298862,7.909023,10.815577
1001.917969,1.903277,10.588105,6.574939,2.084934
1001.921875,13.782546,7.203416,13.801309,8.974398
1001.925781,8.691643,13.994783,8.093599,10.269014
1001.929688,9.236909,13.749881,14.883996,12.789041
1001.933594,0.330205,0.742395,7.087545,0.265355
1001.937500,9.271587,9.965404,16.808131,12.969935
1001.941406,-1.755437,-0.402074,13.267834,12.331946
1001.945312,4.022090,5.134629,2.241728,7.610869
1001.949219,6.255715,-4.648034,1.783531,3.310909
1001.953125,5.610781,4.964897,-1.452453,-5.345213
1001.957031,-2.556599,1.375935,-10.101821,3.900536
1001.960938,-9.492008,-8.102314,-15.333967,-1.039207
1001.964844,-11.590757,-8.951924,-7.337500,-9.736589
1001.968750,-11.786124,0.447863,-15.209310,-7.743228
1001.972656,-10.163765,-11.531113,-12.033512,-7.357982
1001.976562,-8.506861,-12.642972,-5.604676,-3.970318
1001.980469,-3.927860,-7.239079,-2.846274,-11.343831
1001.984375,-6.003998,-0.643949,-4.401876,-7.759470
1001.988281,6.376688,-9.693627,-7.354549,-6.598092
1001.992188,0.411530,-2.453840,-4.287433,0.361816
1001.996094,3.674763,-0.074984,4.469062,1.391451
1002.000000,0.220189,3.196279,-7.063612,2.063376
1002.003906,-1.452178,7.170927,0.613390,4.921534
1002.007812,7.401804,-3.985778,-6.485242,10.549211
1002.011719,9.819888,5.982144,1.488647,3.665956
1002.015625,15.641959,5.716279,5.816797,10.900118
1002.019531,16.608300,4.903871,9.724201,7.946868
1002.023438,16.938935,9.691445,10.763214,5.993341
1002.027344,7.746352,12.685330,16.640463,2.419663
1002.031250,12.877812,8.333676,4.093882,10.507047
1002.035156,9.756768,3.845791,6.584295,11.767949
1002.039062,6.412976,11.611897,5.893177,3.291560
1002.042969,10.665250,1.915615,6.881844,5.113301
1002.046875,2.033281,4.944852,-3.884492,4.321594
1002.050781,-0.445763,5.146495,5.476277,-4.826958
1002.054688,-3.344866,-1.866016,-1.058529,-1.866849
1002.058594,-8.437340,-3.381708,-5.013303,-5.476089
1002.062500,-1.245393,-14.099287,-0.026810,-3.801409
1002.066406,-12.255397,-7.067151,-7.957392,-13.394195
1002.070312,-7.578115,-8.100776,-13.570565,-14.143687
1002.074219,-6.293239,-3.608465,-6.783851,-8.381257
1002.078125,-10.883379,-17.345355,-10.998622,-9.038235
1002.082031,-6.223591,-8.426932,-7.033697,-14.157129
1002.085938,-21.822202,-10.988430,-9.467795,-2.697077
1002.089844,-7.567024,-7.302699,-15.879970,-2.082144
1002.093750,-1.949059,-6.494913,-3.772287,-7.434295
1002.097656,-5.617120,0.246090,-4.959924,0.916999
1002.101562,7.949490,-1.191786,-2.276734,5.666808
1002.105469,4.500077,1.889765,6.237643,0.389239
1002.109375,6.288475,11.006961,7.246754,5.661719
1002.113281,4.535156,7.831724,9.139848,7.400311
1002.117188,7.422843,13.197069,4.809656,5.235409
1002.121094,11.227758,8.492322,11.384578,8.177354
1002.125000,9.859612,12.480741,11.679083,7.652205
1002.128906,6.252079,8.264585,7.403510,10.442057
1002.132812,7.324840,7.741659,7.637899,9.228287
1002.136719,10.035103,9.065791,4.351633,9.635106
1002.140625,4.097313,5.389724,10.443733,7.577746
1002.144531,8.320847,-1.640579,-5.281765,7.051843
1002.148438,-6.369220,0.760362,-2.975931,-3.485186
1002.152344,1.647302,-0.906319,-3.480738,1.316249
1002.156250,-6.210530,1.680918,0.735001,-1.357446
1002.160156,-4.427060,-4.069983,-9.690885,-3.995491
1002.164062,-13.368196,-6.291466,-8.519475,-4.695307
1002.167969,-6.837192,-18.001077,-9.079908,-9.782228
1002.171875,-7.240853,-8.485984,-8.070659,-5.325201
1002.175781,-15.500915,-7.100450,-14.523753,-16.587171
1002.179688,-9.577378,-10.844604,-7.304277,-9.889366
1002.183594,-19.404930,-6.982905,-5.467677,-12.625761
1002.187500,-8.961132,-6.942736,-1.570785,-4.806457
1002.191406,-5.471029,-5.765879,1.518529,-0.564369
1002.195312,5.249130,-1.209613,-2.550354,-0.951174
1002.199219,-8.616618,12.179923,-4.143190,-0.977183
1002.203125,-2.320488,-3.090759,-4.639511,3.658059
1002.207031,3.517978,5.868228,3.528143,8.172040
1002.210938,3.194352,10.126112,2.882378,7.005570
1002.214844,3.096224,8.510493,16.569261,7.676432
1002.218750,6.591824,7.977760,8.313379,4.667273
1002.222656,13.337177,0.922614,8.240873,4.287053
1002.226562,9.513357,4.124886,10.760757,8.766975
1002.230469,10.825610,11.332428,10.193647,10.208149
1002.234375,13.086795,8.962312,11.171238,13.369898
1002.238281,0.671037,-0.877011,2.556647,4.437506
1002.242188,-1.095058,6.610098,-3.344374,-6.813442
1002.246094,3.599195,3.402721,2.691273,1.029250
1002.250000,-4.561325,-7.103367,-4.192012,-0.598291
1002.253906,0.190140,-0.115212,-0.994965,0.338246
1002.257812,-2.415932,2.640572,-4.219009,-3.451276
1002.261719,-2.963252,-7.569050,-4.042231,-12.512455
1002.265625,-6.375592,-6.229409,-7.783588,-15.435229
1002.269531,-12.619445,-8.301675,-5.948871,-10.370580
1002.273438,-9.187696,-5.736231,-9.172939,-8.305731
1002.277344,-7.871875,-17.265996,-11.171236,-12.537997
1002.281250,-12.358305,-12.395842,-12.130300,-8.795500
1002.285156,-7.703058,-13.616368,-2.945022,-8.519059
1002.289062,-5.017864,-0.862259,-8.308471,-5.537147
1002.292969,-7.584232,0.470496,0.639755,-1.052535
1002.296875,-2.433160,-4.803813,1.719696,-12.098572
1002.300781,-3.729730,2.599937,9.903809,1.442108
1002.304688,-0.492571,8.266014,1.996609,6.037127
1002.308594,3.084500,6.611698,6.307301,6.887571
1002.312500,9.156238,6.704062,3.195355,4.875085
1002.316406,5.432167,7.302024,6.638779,10.177666
1002.320312,11.356203,15.811534,10.313538,11.650144
1002.324219,2.995719,23.368026,12.737150,-0.539194
1002.328125,10.342937,15.381664,10.771855,13.260934
1002.332031,11.729853,10.841024,1.295441,11.895399
1002.335938,9.667882,13.149280,5.172491,14.406084
1002.339844,7.685375,3.799076,2.324669,4.307806
1002.343750,7.232513,3.348311,-3.398583,4.746416
1002.347656,-4.858538,-1.083864,4.032263,2.649076
1002.351562,2.249413,-1.942765,-0.264838,-0.616873
1002.355469,-4.835523,3.830258,1.088559,0.924619
1002.359375,-8.060866,-12.250233,-0.583697,-3.972623
1002.363281,-0.339925,-5.044605,-11.965666,-8.296740
1002.367188,-13.140813,-13.370356,-10.578077,-9.272231
1002.371094,-17.342847,-9.569908,-9.609601,-9.413436
1002.375000,-4.224274,-7.307581,-7.603621,-5.993143
1002.378906,-11.726626,-5.547640,-7.316182,-14.060002
1002.382812,-11.478861,-13.991775,-6.600331,-10.247773
1002.386719,-5.505673,-6.563261,-15.901996,-14.038137
1002.390625,-9.850119,-4.602584,-7.602908,-6.829307
1002.394531,-4.291125,-2.174053,-2.930532,-9.519340
1002.398438,-2.201241,3.058027,-2.168189,0.603814
1002.402344,0.526176,-2.292581,2.893083,-0.960919
1002.406250,3.654522,5.633165,-4.605860,2.891585
1002.410156,8.383175,11.383629,2.537675,7.175453
1002.414062,3.077374,6.122464,1.405589,5.034092
1002.417969,8.874206,3.855352,12.320459,13.359430
1002.421875,6.232474,5.230247,12.405087,10.122431
1002.425781,15.528343,16.346978,11.044133,6.884900
1002.429688,8.700581,8.888354,13.777322,14.059602
1002.433594,8.286964,6.225498,10.910274,3.712816
1002.437500,8.700715,8.870906,6.035491,2.963816
1002.441406,6.976620,0.909820,9.177188,6.431555
1002.445312,6.093183,0.798145,2.258725,4.755673
1002.449219,-2.292295,7.956919,-1.137706,-0.389068
1002.453125,2.984195,-3.734322,-4.958433,-1.636166
1002.457031,-5.391358,-6.818285,-9.091505,-1.448885
1002.460938,-10.550364,-3.668539,-8.418699,-9.815487
1002.464844,-6.868928,-6.309849,-11.403444,-8.222590
1002.468750,-4.048208,-11.869520,-4.656058,-6.165201
1002.472656,-17.450878,-13.812126,-5.984970,-15.140153
1002.476562,-9.360030,-10.599806,-8.593179,-16.434522
1002.480469,-2.423465,-4.209095,-11.023799,-11.653801
1002.484375,-7.121625,-9.089869,-11.606260,-7.499268
1002.488281,-4.779179,-8.711636,-5.425393,-5.355312
1002.492188,-5.987188,-0.442095,-4.342260,-5.325682
1002.496094,2.619642,-5.975277,-4.070665,2.078602
1002.500000,-0.315271,3.433592,0.436634,-4.735354
1002.503906,-4.073835,-2.723188,-6.423017,1.472083
1002.507812,8.777795,9.699821,6.919888,6.243559
1002.511719,3.004387,4.104209,10.985331,5.485355
1002.515625,16.822542,10.000761,6.903078,3.617812
1002.519531,12.704579,8.322145,9.415184,12.038873
1002.523438,1.532398,11.376163,9.973739,10.544488
1002.527344,11.506935,6.528274,11.496482,7.533517
1002.531250,10.018937,6.228074,13.072619,5.750256
1002.535156,10.677063,5.515906,13.027761,6.489694
1002.539062,3.892315,8.493728,10.076016,4.077842
1002.542969,11.215060,8.648603,1.393821,0.254158
1002.546875,7.327107,1.157901,-0.188649,5.671744
1002.550781,-6.606220,-1.329731,0.070223,4.756692
1002.554688,3.243428,1.328720,-8.956154,-4.120467
1002.558594,-7.425227,-1.652444,-1.053620,-10.927132
1002.562500,-2.570623,-8.260072,-11.490882,-6.203631
1002.566406,-12.412796,-5.305186,-9.254595,-13.815189
1002.570312,-11.648341,-11.106825,-8.327712,-2.749664
1002.574219,-12.453112,-8.267852,-4.980095,-12.463119
1002.578125,-8.512281,-4.701331,-7.456929,-13.382697
1002.582031,-8.279961,-13.605458,-7.852129,-11.159738
1002.585938,-6.349750,-9.892321,-9.126983,-0.836924
1002.589844,-4.447273,-6.516461,-6.087223,-6.264794
1002.593750,-3.825576,-0.638574,-6.070246,-4.394298
1002.597656,-0.050728,-5.847199,-0.277694,4.164544
1002.601562,4.663398,-1.362181,5.645858,-3.330680
1002.605469,4.536872,4.993992,-2.134870,9.108903
1002.609375,7.832543,4.036957,3.593176,9.335143
1002.613281,13.696970,12.474924,7.252079,11.123963
1002.617188,4.395496,11.367990,9.703949,19.841936
1002.621094,17.570359,6.176737,10.559790,12.930133
1002.625000,11.097738,13.851868,15.660919,7.562934
1002.628906,1.986729,11.629255,10.886688,14.649046
1002.632812,14.922753,7.525515,7.991691,8.980708
1002.636719,9.947647,9.907466,2.692032,4.490039
1002.640625,1.487334,7.741195,7.815801,6.220327
1002.644531,4.255325,6.244326,3.899646,5.197822
1002.648438,2.238432,-0.739821,-1.277814,4.967469
1002.652344,-3.063455,-9.735231,-4.800742,-4.600418
1002.656250,-1.453150,-7.634355,0.376248,-8.019584
1002.660156,-6.622826,-8.246096,-3.703906,-9.892632
1002.664062,-4.939142,-4.866585,-10.661195,-7.748260
1002.667969,-12.139121,-8.615714,-4.293824,-9.931418
1002.671875,-17.282707,-7.470239,-13.814775,-9.433127
1002.675781,-5.680200,-9.667822,-3.911884,-7.282742
1002.679688,-0.824252,-11.695311,-8.915342,-3.876355
1002.683594,-9.855974,-1.567144,-4.890129,-8.869400
1002.687500,-8.227508,-7.134589,-17.255870,-8.746832
1002.691406,-7.334936,-8.703931,-7.081474,-11.954855
1002.695312,2.245076,-0.086945,-4.862192,-3.188678
1002.699219,5.945278,-3.421894,0.127291,-5.039160
1002.703125,6.060847,2.025957,4.867688,6.698398
1002.707031,4.433220,10.199684,7.618167,6.156492
1002.710938,5.177047,9.839076,1.574836,11.182825
1002.714844,8.607740,8.667966,12.161886,7.597268
1002.718750,16.560970,10.751811,5.986405,11.216539
1002.722656,9.777602,6.681723,13.667095,8.430725
1002.726562,15.826301,10.905993,5.369187,19.086673
1002.730469,5.707341,6.416207,9.523918,5.040596
1002.734375,13.018882,10.552695,5.376782,13.017144
1002.738281,5.780212,1.470626,1.214951,10.012530
1002.742188,4.374645,6.320634,2.065131,7.945981
1002.746094,-0.780259,5.995711,7.327396,-1.661316
1002.750000,-2.573295,-1.899210,-4.771624,-0.146756
1002.753906,2.396349,-7.080317,0.666093,-6.868467
1002.757812,-6.612858,-2.648439,-9.017449,-1.061573
1002.761719,-3.151263,-5.403478,-3.760422,-4.037745
1002.765625,-4.016022,-10.211858,-5.935532,-11.701080
1002.769531,-10.615095,-9.738496,-7.681141,-3.762561
1002.773438,-2.736000,-8.749037,-5.956425,-14.280686
1002.777344,-8.499430,-3.396304,-2.914155,-2.012765
1002.781250,-16.106465,-13.698462,-9.788856,-7.413158
1002.785156,-11.863545,-7.374825,-7.812669,-10.047796
1002.789062,-3.335004,-4.552108,-3.330704,-5.831409
1002.792969,-7.706286,-6.777066,0.559064,-2.592596
1002.796875,0.753380,0.792887,-0.230219,-2.743610
1002.800781,-4.527715,-2.658576,-0.166112,-4.995207
1002.804688,3.964014,7.496649,4.347566,-4.871517
1002.808594,2.959090,2.296055,7.032237,6.559349
1002.812500,10.000255,6.000000,2.989613,3.556897
1002.816406,17.217388,5.963046,14.051114,11.419085
1002.820312,13.880150,-2.527513,12.503341,7.144953
1002.824219,14.236091,8.140949,14.725390,15.040837
1002.828125,0.980886,11.245343,11.903803,10.108294
1002.832031,13.275514,4.919989,10.812931,16.443574
1002.835938,4.276733,10.261081,10.025073,7.427909
1002.839844,6.039040,-2.016505,5.701399,10.693796
1002.843750,0.491480,1.450723,1.357143,2.913095
1002.847656,4.556551,2.936063,1.403085,2.691882
1002.851562,-2.660265,1.786114,4.204983,-1.162407
1002.855469,-7.855830,-6.978853,-3.312339,-3.395797
1002.859375,-5.312805,-1.087344,-6.568281,-8.791581
1002.863281,1.191426,-7.848451,-5.445944,-12.353348
1002.867188,-8.661576,-9.318648,-8.227934,-9.249755
1002.871094,-15.307656,-19.691034,-7.727082,-8.171133
1002.875000,-12.943097,-11.855881,-10.784022,-5.370917
1002.878906,-4.312849,-9.888025,-8.544216,-6.411602
1002.882812,-9.895094,-3.784025,-14.762832,-15.989608
1002.886719,-12.342393,-9.208671,-10.591555,-10.996090
1002.890625,-11.715621,-0.995170,-5.628897,-5.912526
1002.894531,-5.232983,0.903631,-8.488932,-3.747355
1002.898438,-0.269041,-5.056943,6.345749,-0.320043
1002.902344,-4.055377,1.104758,0.186066,-1.185905
1002.906250,-0.337557,3.203189,7.797183,6.446459
1002.910156,9.608965,6.742949,5.437718,8.487985
1002.914062,3.228068,5.773111,4.431938,6.171065
1002.917969,5.875569,4.589770,14.444920,11.909413
1002.921875,9.201344,9.413608,13.822231,4.157936
1002.925781,8.526978,18.304808,15.373116,14.498127
1002.929688,7.229801,12.677902,20.499940,11.019314
1002.933594,3.720252,12.132426,1.107481,12.060567
1002.937500,4.036976,2.430237,12.940545,10.704091
1002.941406,12.786622,10.378633,6.008603,2.763093
1002.945312,-1.728357,0.094905,2.130697,3.173961
1002.949219,-1.616970,5.495530,10.117348,7.091610
1002.953125,-3.348256,1.979723,-5.976796,-0.988184
1002.957031,-3.301723,-0.393845,1.257937,-4.394976
1002.960938,-16.106919,0.437026,-4.993927,-9.632483
1002.964844,-7.592668,-7.752436,-5.460594,-9.119855
1002.968750,-9.252759,-7.975484,-4.745940,-13.499530
1002.972656,-9.700023,-9.775698,-10.266556,-13.726926
1002.976562,-11.101226,-11.115576,-8.168343,-16.191457
1002.980469,-17.012984,-3.839119,-7.672254,-7.717534
1002.984375,-6.807853,-14.958372,-2.711900,-6.184072
1002.988281,-8.070159,-11.381044,-17.736633,-14.831039
1002.992188,-8.152227,-1.997397,0.229319,-3.823078
1002.996094,-3.543620,-5.120596,-1.959311,-10.619482
1003.000000,-1.005102,-0.616850,0.972407,-0.304765
1003.003906,13.392736,-1.866473,-1.971687,1.225352
1003.007812,12.004486,1.932556,1.637813,3.231096
1003.011719,8.426960,13.497678,3.580638,8.359472
1003.015625,6.798576,10.036464,7.425342,10.484418
1003.019531,9.570807,4.580493,5.877539,5.315133
1003.023438,12.918137,-1.548953,12.163026,9.850420
1003.027344,4.614123,11.725585,2.285072,16.286640
1003.031250,14.733154,12.557980,3.833891,8.102443
1003.035156,12.985866,0.072442,11.423929,6.282361
1003.039062,5.376620,4.380849,3.979245,-0.519106
1003.042969,5.112005,3.885377,4.149000,4.286219
1003.046875,6.740143,-0.151366,-3.872143,1.392146
1003.050781,-0.537460,-8.918373,-8.246484,-4.579529
1003.054688,-3.355109,3.067523,-0.706102,-0.723109
1003.058594,-8.082746,-7.497763,-3.928493,-3.411233
1003.062500,-3.694806,-3.483350,-8.452262,-10.671611
1003.066406,-11.562111,-8.299539,-12.184672,-0.897116
1003.070312,-5.370037,-5.856073,-9.591983,-7.846436
1003.074219,-4.369255,-12.399725,-8.213586,-6.732823
1003.078125,-10.635822,-12.039632,-11.057023,-11.684866
1003.082031,-4.361119,-14.237410,-6.617927,-12.369890
1003.085938,-14.215952,-11.156732,-5.817342,-8.389754
1003.089844,-5.555411,-5.181888,-7.486044,-0.353414
1003.093750,-2.445262,-3.420625,-10.383070,-13.002657
1003.097656,-8.426599,-7.292903,2.864027,7.894927
1003.101562,-3.573864,2.833419,0.285081,1.155460
1003.105469,-0.811017,3.351139,0.119898,4.996526
1003.109375,3.932510,7.355840,0.251342,10.425172
1003.113281,12.033853,10.865843,5.695877,-1.026373
1003.117188,11.819582,4.868490,11.781404,8.708096
1003.121094,5.574552,9.639674,12.895377,8.672699
1003.125000,12.307701,12.350066,8.040886,11.343023
1003.128906,7.331302,12.325445,8.171535,5.715928
1003.132812,13.885112,8.214973,12.093181,11.774085
1003.136719,5.745603,8.950013,7.055532,9.821977
1003.140625,4.099390,-1.510837,17.004675,-0.374676
1003.144531,7.825725,1.604339,7.715159,1.872301
1003.148438,-4.727259,2.760106,3.447345,7.069364
1003.152344,-0.303452,-0.054926,4.598911,-6.767897
1003.156250,-4.930021,0.311573,-3.871619,-0.312314
1003.160156,-2.913177,-5.356645,-3.019115,-6.772271
1003.164062,-13.544984,-6.728831,-13.393442,-11.340616
1003.167969,-0.018975,-15.335411,-4.358690,-10.087801
1003.171875,-16.433475,-12.222403,-16.948698,-11.120831
1003.175781,-10.238514,-4.036970,-18.594944,-7.740518
1003.179688,-14.140812,-9.556072,-11.316520,-7.466128
1003.183594,-6.366716,-8.038593,-9.066089,-12.738378
1003.187500,-12.714584,-5.591892,-6.570563,-6.834039
1003.191406,-6.955490,-2.742670,-17.709579,-6.077818
1003.195312,-4.101260,-4.066076,-3.980390,-0.120806
1003.199219,1.551890,2.507647,-4.964609,6.667347
1003.203125,8.080718,5.018635,4.988646,-0.788450
1003.207031,1.640708,4.864903,-0.210639,8.324807
1003.210938,10.876339,6.602354,4.340754,5.513076
1003.214844,1.946976,0.840269,13.619207,0.875313
1003.218750,7.398319,4.400039,11.487673,6.706845
1003.222656,7.281367,15.010809,13.591426,13.089140
1003.226562,15.613275,0.739812,11.771607,11.218533
1003.230469,7.803231,7.559413,12.829345,3.250417
1003.234375,6.841340,10.253478,5.533913,13.364934
1003.238281,-0.450074,6.174162,3.393968,7.893997
1003.242188,5.288194,5.429555,5.117036,8.162534
1003.246094,-3.476732,3.267082,7.317471,0.268472
1003.250000,-0.158480,-4.841975,-0.679975,-4.729263
1003.253906,-6.331734,-6.202029,-4.640437,0.592723
1003.257812,-8.306010,-2.934677,-2.354363,-3.770323
1003.261719,-12.490170,-14.044154,-15.562408,-4.789305
1003.265625,-3.562875,-4.701640,-18.739925,-6.441292
1003.269531,-13.961804,-11.086542,0.035142,-4.572896
1003.273438,-12.740661,-9.149105,-17.656393,-9.505010
1003.277344,-9.927965,-14.973895,-9.265162,-11.862770
1003.281250,-12.936501,-7.009603,-13.397911,-5.980475
1003.285156,-7.873297,-15.948282,-5.962499,-10.811685
1003.289062,-2.624922,-12.293067,-1.849233,-10.478996
1003.292969,-4.160773,-0.508406,-6.586161,-4.194474
1003.296875,-3.855238,3.717606,2.668174,-8.833323
1003.300781,-9.858825,-1.966250,-3.451943,4.830455
1003.304688,1.086396,1.313695,3.479038,4.391312
1003.308594,5.325005,6.854469,8.184561,2.697501
1003.312500,3.732769,9.307745,2.902803,-0.600483
1003.316406,10.117381,5.788138,4.635735,11.262298
1003.320312,6.614417,9.851814,12.378417,2.788548
1003.324219,15.993137,12.368242,4.874136,11.516447
1003.328125,8.646013,10.519436,3.045745,7.963889
1003.332031,6.108149,12.045877,6.549255,10.358668
1003.335938,12.540985,10.529341,10.328407,2.535340
1003.339844,1.250206,1.449725,7.909964,10.922212
1003.343750,10.241048,3.557766,3.891532,2.927279
1003.347656,0.195844,-1.565560,0.277337,-0.293913
1003.351562,-8.054387,-2.399937,0.126862,-3.928444
1003.355469,-3.668311,-5.109230,-6.085543,-6.564267
1003.359375,-8.767283,-11.450292,4.066017,-7.966434
1003.363281,-7.106612,0.282723,-8.275073,-7.441962
1003.367188,-9.315678,-8.920077,-14.080234,-7.145635
1003.371094,-8.141262,-17.762352,-13.760649,-9.400584
1003.375000,-7.620639,-4.175400,-11.315616,-11.211153
1003.378906,-11.433498,-7.135957,-10.692926,-10.356347
1003.382812,-4.159841,-15.617105,-17.915985,-6.361697
1003.386719,-8.941929,-8.910256,-8.113384,-8.074490
1003.390625,-4.964206,-8.353859,-9.323517,-12.280413
1003.394531,-1.851083,-2.804812,-3.499221,0.816766
1003.398438,-4.723063,-2.453203,1.175505,2.641757
1003.402344,5.625066,-0.104166,4.368801,3.051427
1003.406250,8.996505,2.059870,3.455654,3.976277
1003.410156,9.482624,6.378131,5.760031,3.040513
1003.414062,7.056082,9.765800,10.068259,6.468846
1003.417969,15.667894,17.005155,6.498815,11.793903
1003.421875,9.022071,1.242542,15.133335,3.509109
1003.425781,5.104006,15.921447,6.554893,1.949966
1003.429688,11.549596,7.691724,9.599483,11.849800
1003.433594,9.748775,4.181626,9.105755,3.627016
1003.437500,4.849149,10.486482,14.220378,8.341572
1003.441406,5.175903,3.376895,2.102029,5.024703
1003.445312,0.388717,5.085514,-0.776959,3.908434
1003.449219,5.031404,-2.350874,-0.609028,1.812382
1003.453125,2.159114,-4.938938,-0.822828,2.673369
1003.457031,-7.620833,-0.129559,-8.997215,0.606584
1003.460938,-12.374761,-13.489346,-5.629127,-8.031421
1003.464844,-7.769144,-12.196759,-4.696642,-0.359894
1003.468750,-13.859729,-12.074434,-2.116979,-11.542736
1003.472656,-12.872234,-9.765314,-7.633996,-9.000952
1003.476562,-15.539466,-11.861511,-12.165420,-11.271567
1003.480469,-0.339757,-7.785746,-4.980400,-15.527539
1003.484375,-10.523934,-7.892785,-9.472646,-0.618810
1003.488281,-3.588431,-3.961703,-7.950880,-11.926331
1003.492188,-10.158687,1.847586,-12.574217,-5.531862
1003.496094,-6.734241,2.186369,-1.045077,2.587689
1003.500000,1.256173,-1.768447,6.769878,-1.672067
1003.503906,4.817059,-3.157188,4.999905,2.337309
1003.507812,0.115830,7.689489,5.846913,8.327415
1003.511719,5.295249,0.596179,7.458419,5.851914
1003.515625,10.509237,5.965193,13.344595,1.739319
1003.519531,8.217743,7.134741,10.262217,8.616252
1003.523438,9.439503,19.815447,6.379268,9.586709
1003.527344,14.248887,9.645597,9.874744,14.093392
1003.531250,11.913280,16.277831,10.260209,7.193516
1003.535156,2.149133,7.789240,2.315056,7.125537
1003.539062,-0.215647,-2.358654,8.247767,8.869588
1003.542969,6.961674,6.836344,3.217985,0.922755
1003.546875,6.603356,7.722409,7.406302,4.702572
1003.550781,-1.710225,0.033091,-2.812661,5.696201
1003.554688,-3.360591,-0.136842,-6.052127,-4.497548
1003.558594,-2.858777,-12.023422,-6.947574,-3.850004
1003.562500,-11.777232,-4.918541,-7.573076,-7.195022
1003.566406,-2.106100,-14.547899,-10.386801,-12.680652
1003.570312,-7.203335,-9.445076,-5.690392,-15.582558
1003.574219,-15.957320,-4.865207,-9.792377,-12.525363
1003.578125,-6.068065,-11.024660,-5.888152,-7.598702
1003.582031,-13.657626,-4.732079,-9.377396,-9.345438
1003.585938,-7.403672,-3.478824,-5.140155,-13.834627
1003.589844,-11.815807,-9.079568,-4.076891,-0.091623
1003.593750,-9.136621,-4.297095,-3.784755,-9.373524
1003.597656,-13.010822,-3.166718,-0.675063,-10.157672
1003.601562,3.651114,0.855090,1.551154,15.959016
1003.605469,2.003634,5.247662,1.296627,1.599767
1003.609375,7.169775,2.118213,3.359864,5.939467
1003.613281,2.526459,12.400215,3.366698,11.880591
1003.617188,5.962612,5.401256,4.888344,8.020625
1003.621094,11.179772,10.666862,8.332036,20.874861
1003.625000,14.442008,6.850561,11.120164,11.070214
1003.628906,14.667607,11.410777,9.309144,16.044726
1003.632812,4.782118,11.660161,11.510242,6.359716
1003.636719,4.897284,10.676062,6.022707,5.658687
1003.640625,10.833328,6.066487,3.660463,8.557994
1003.644531,12.966368,9.799238,2.059916,5.603271
1003.648438,3.055349,9.601332,-0.590930,-2.776282
1003.652344,-4.447251,-1.446351,3.838042,-0.641168
1003.656250,-3.741745,-3.629477,-4.152567,-3.978657
1003.660156,-7.663412,2.491097,-3.279269,-1.187954
1003.664062,-6.326796,-9.078647,-11.639546,-5.922853
1003.667969,-12.121168,-11.740817,-9.047623,-9.196967
1003.671875,-5.902391,-6.322521,-13.422707,-9.248956
1003.675781,-6.935082,-13.717960,-7.911589,-15.567232
1003.679688,-11.294798,-1.825163,-6.163717,-17.538721
1003.683594,1.637555,-11.509161,-13.469519,-11.340691
1003.687500,-5.549412,-7.671109,-2.769068,-5.247971
1003.691406,-2.095981,-0.444523,-4.330429,-5.910119
1003.695312,-8.949892,1.620274,-1.818983,0.175575
1003.699219,1.646775,-2.049963,2.035482,-4.117655
1003.703125,3.203788,3.563706,3.607212,2.906652
1003.707031,3.766145,3.997937,10.979347,4.164142
1003.710938,13.844750,7.509736,2.060391,5.529022
1003.714844,12.959486,18.356903,8.770765,8.480665
1003.718750,7.574766,8.950238,7.110521,7.305668
1003.722656,8.182051,12.931924,4.084906,16.357552
1003.726562,10.226359,9.795867,8.061994,6.602744
1003.730469,11.143813,3.595048,6.506430,8.535558
1003.734375,7.783712,9.787360,9.433192,10.988207
1003.738281,14.178651,1.158166,6.124820,9.453055
1003.742188,4.120644,8.593185,-1.712261,1.638000
1003.746094,-2.011524,-0.164295,7.245349,6.538903
1003.750000,-1.087226,-0.686973,-5.397839,-1.949568
1003.753906,5.243049,-0.853079,-8.169566,-7.042320
1003.757812,-5.641907,0.049493,-3.849537,-12.527841
1003.761719,-7.260881,-7.830791,-9.477267,-10.821322
1003.765625,-6.389079,-6.980044,-11.420934,-13.286108
1003.769531,-6.988072,-12.051476,-8.825554,-10.100221
1003.773438,-10.563811,-8.366238,-11.209810,-13.611500
1003.777344,-7.227062,-12.240051,-16.560213,-7.012860
1003.781250,-10.053769,-10.707630,-5.936741,-7.046323
1003.785156,-18.435701,-3.199426,-14.098210,-13.648231
1003.789062,-6.534804,-16.575384,-3.310431,-9.515370
1003.792969,-8.228941,-4.720278,-0.402307,-3.750629
1003.796875,4.213064,6.459158,-1.472351,2.388289
1003.800781,1.173809,-4.071798,5.748289,11.179187
1003.804688,7.042308,3.354156,2.218955,7.172756
1003.808594,2.542460,4.482918,3.994977,8.132229
1003.812500,4.278109,2.305215,4.384150,3.961222
1003.816406,7.697479,8.048030,9.370448,12.101921
1003.820312,16.841014,3.956012,10.153806,14.183119
1003.824219,7.483896,10.031701,4.643442,3.309632
1003.828125,10.213932,11.638177,11.595529,15.462070
1003.832031,-0.510360,10.048471,3.572852,4.984359
1003.835938,9.466190,17.458973,5.644091,2.254880
1003.839844,8.273346,10.027579,2.744405,1.835539
1003.843750,6.429351,2.647786,4.976942,-4.115019
1003.847656,8.867853,1.824231,4.962910,1.872375
1003.851562,6.258062,-4.345299,2.991223,4.499865
1003.855469,-4.086716,2.833404,4.231304,-1.024184
1003.859375,-7.450941,-8.093595,-1.879417,-0.014484
1003.863281,-5.708968,1.035806,-3.492053,-3.557060
1003.867188,-12.342506,-13.376161,-11.248230,-5.848055
1003.871094,-3.753308,-15.510702,-9.206357,-10.455321
1003.875000,-8.679983,-18.996193,-16.160507,-11.236631
1003.878906,-4.615948,-8.871712,-10.846114,-10.765978
1003.882812,-12.002775,-8.916895,-10.795990,-9.035225
1003.886719,-6.329711,-15.705587,-10.611569,-4.895836
1003.890625,-6.441301,-0.982747,-8.749039,-6.065505
1003.894531,-3.426900,-10.960246,-6.169504,-7.558325
1003.898438,-2.092876,2.197088,3.557498,5.678619
1003.902344,5.409098,5.792431,0.293044,5.089416
1003.906250,4.748736,4.113826,0.895301,3.222126
1003.910156,4.437582,-1.435335,12.415491,10.070728
1003.914062,10.903686,13.464191,0.753752,7.666138
1003.917969,6.377006,10.851464,4.343406,9.266185
1003.921875,8.054689,10.242972,10.650313,7.077516
1003.925781,9.916898,11.224709,17.663968,12.607820
1003.929688,8.447520,8.255276,5.611426,13.921833
1003.933594,8.793064,8.096210,8.787603,9.687505
1003.937500,5.722819,3.251559,3.026848,5.888596
1003.941406,5.972186,8.183025,-2.584006,3.314663
1003.945312,5.543795,1.947856,2.727505,4.321119
1003.949219,-4.446175,-5.736478,0.007835,0.230424
1003.953125,-0.027879,1.631210,-5.225792,-2.561511
1003.957031,3.585688,-3.061397,-6.782906,-1.514691
1003.960938,-5.321612,1.417902,-2.930981,-5.299959
1003.964844,-3.050907,-8.216024,-11.861391,-0.465916
1003.968750,-10.894739,-6.642994,-16.683890,-8.052805
1003.972656,-7.112420,-12.337921,-9.865695,-17.821852
1003.976562,-17.759594,-7.220991,-3.307121,-11.339955
1003.980469,-4.894814,-3.510943,-0.692979,-7.094033
1003.984375,-6.953663,-10.327523,-12.699000,-14.606989
1003.988281,-7.574775,-4.811505,-11.773644,-4.791722
1003.992188,-5.655374,-4.331307,-11.942053,-5.629297
1003.996094,0.810456,2.265519,-5.614720,-3.651366
1004.000000,-1.470081,8.832338,4.292203,-0.965130
1004.003906,2.394545,2.285555,5.554292,-0.036606
1004.007812,4.397459,5.102495,10.558019,2.584772
1004.011719,1.632926,9.803804,6.406863,5.356612
1004.015625,6.524805,5.337540,9.240967,2.698651
1004.019531,8.795525,12.912324,8.423163,9.996948
1004.023438,4.575811,9.908195,8.041248,13.671140
1004.027344,9.413311,5.407708,14.621331,15.458662
1004.031250,8.881812,13.383237,7.076834,11.229281
1004.035156,4.718541,7.671120,9.091687,1.912936
1004.039062,3.177342,1.690250,11.603063,5.606927
1004.042969,-1.266665,4.172862,5.713681,6.234957
1004.046875,6.025990,0.253151,-0.324811,5.176511
1004.050781,-0.031171,1.074380,4.370831,-0.304481
1004.054688,-2.573442,2.377661,-9.233629,-3.643332
1004.058594,-8.344996,-2.786361,-8.155729,-0.999806
1004.062500,-11.583215,-8.925981,-12.728348,-0.596669
1004.066406,-8.297534,-7.294773,-8.462200,-1.865335
1004.070312,-12.757364,0.417933,-16.434690,-6.362020
1004.074219,-3.372961,-5.334108,-13.452844,-5.862805
1004.078125,-7.485948,-12.887707,-4.513581,-9.865665
1004.082031,-8.561040,-10.671582,-18.023910,-11.807860
1004.085938,-5.666888,-8.532309,-10.127386,-15.423252
1004.089844,-7.630634,0.839963,-1.130870,-5.348869
1004.093750,-6.339138,0.003828,-6.616704,-5.680304
1004.097656,2.650333,4.342707,-4.039812,-2.799188
1004.101562,-1.072561,-1.968427,-2.428339,-3.789868
1004.105469,3.716037,4.034374,-0.635442,8.931464
1004.109375,8.999108,10.343467,5.502241,10.167848
1004.113281,8.202342,9.627233,3.348298,10.653873
1004.117188,10.502774,9.970150,5.712734,7.461110
1004.121094,8.515963,7.380252,16.002228,7.938019
1004.125000,4.159367,16.451345,2.529582,13.036379
1004.128906,3.223623,9.948573,10.912866,6.380694
1004.132812,11.433534,5.585309,6.433692,12.040354
1004.136719,6.608604,15.820812,11.373670,4.174710
1004.140625,15.444989,6.238117,2.049751,2.831715
1004.144531,0.769742,6.283817,8.287174,8.764790
1004.148438,-8.055411,-6.539451,2.888799,-2.610872
1004.152344,2.041935,0.638019,-3.491977,-2.253820
1004.156250,0.166747,-4.080427,-5.096741,2.025331
1004.160156,-0.153625,-2.952287,-8.245181,-11.848343
1004.164062,-7.666352,-8.086148,-8.294898,-7.591883
1004.167969,-14.501289,-7.625081,-7.233675,-3.998852
1004.171875,-10.356144,-7.309176,-3.803787,-15.205772
1004.175781,-12.781919,-12.048226,-10.111841,-11.722140
1004.179688,-17.102140,-9.778972,-16.155061,-10.493707
1004.183594,-7.873460,-16.488408,-8.849884,-6.372706
1004.187500,-3.312443,-0.188319,-11.224456,-2.622105
1004.191406,-3.499944,-6.951269,-1.346730,0.297309
1004.195312,2.958582,-6.390426,1.764959,1.762444
1004.199219,5.422647,-0.945766,2.510257,-1.200219
1004.203125,-2.231996,4.009778,2.355567,7.467445
1004.207031,4.490573,1.240256,17.168675,12.323818
1004.210938,7.991704,1.101392,4.212394,2.127855
1004.214844,9.316918,9.812491,11.341355,8.331342
1004.218750,10.015705,10.056981,12.350580,13.331215
1004.222656,7.609012,-0.607488,7.136721,13.263212
1004.226562,13.223994,9.886146,2.905716,12.059315
1004.230469,12.582380,6.408987,11.964035,5.625408
1004.234375,3.751639,1.220925,1.695584,0.667807
1004.238281,6.555231,4.649276,10.088722,11.211545
1004.242188,-1.343916,9.592776,-0.315408,1.397596
1004.246094,-5.017482,4.102086,6.296257,7.815344
1004.250000,4.904977,-4.233998,0.431145,2.035792
1004.253906,0.079774,-7.367775,-8.372491,-3.369754
1004.257812,-1.211190,-11.896361,-7.660942,-6.751998
1004.261719,-5.229001,-2.123225,-8.547644,-8.610996
1004.265625,-7.233851,-6.124116,-3.930575,-10.449039
1004.269531,-3.699061,-7.623139,-13.505250,-10.565842
1004.273438,-8.499889,-7.769566,-12.723855,-6.280201
1004.277344,-12.443159,-7.146380,-11.415324,-5.218448
1004.281250,-12.283395,-8.688644,-11.761295,-4.085548
1004.285156,1.085449,-6.566745,-10.256760,0.643481
1004.289062,-9.424706,-7.230719,-4.158897,-8.232963
1004.292969,-9.182680,-3.909492,2.814797,2.750394
1004.296875,-1.733237,-9.018618,-4.277319,-7.738330
1004.300781,-6.032021,3.472367,-1.707270,-8.407359
1004.304688,6.170215,3.541782,7.152300,3.897222
1004.308594,0.744290,10.777602,2.672897,3.672809
1004.312500,17.910969,8.777581,3.917341,4.598764
1004.316406,10.124943,12.052302,9.784456,12.518086
1004.320312,9.160413,14.706104,11.821929,7.530980
1004.324219,10.415865,9.632551,18.192628,8.086745
1004.328125,11.060880,11.993431,9.717953,9.991029
1004.332031,10.049946,10.055994,4.199125,12.041286
1004.335938,3.936436,14.377932,12.057085,13.668277
1004.339844,12.330368,12.817220,5.872682,5.769410
1004.343750,5.292096,2.556746,6.713345,5.136779
1004.347656,4.619052,2.904008,4.737429,2.266334
1004.351562,-7.576927,3.397401,-2.146936,-0.895841
1004.355469,2.024715,-9.245468,-0.952965,-2.184315
1004.359375,-12.422687,-8.039686,-7.515096,-3.739669
1004.363281,-14.369997,-3.915693,-9.399056,-9.654511
1004.367188,-9.013133,-12.732005,-10.255514,-9.169022
1004.371094,-15.434683,-12.658422,-13.931515,-14.942540
1004.375000,-13.518278,-11.316227,-12.243223,-13.190539
1004.378906,-10.734700,-11.222108,-15.279867,-3.780198
1004.382812,-13.344484,-8.246117,-12.598375,-17.598400
1004.386719,-10.088818,-3.771054,-3.050585,-7.741535
1004.390625,-4.932515,-11.212795,-8.632300,-5.072681
1004.394531,-5.662498,-3.363072,-1.255374,-2.590287
1004.398438,1.091176,4.657806,3.867290,5.439440
1004.402344,0.637547,0.887941,-4.774395,0.988444
1004.406250,0.061960,-5.744559,-4.379929,-2.374370
1004.410156,9.351852,6.250824,6.606309,11.207388
1004.414062,12.988490,7.804237,3.319216,5.426357
1004.417969,5.092315,9.558576,13.023704,17.005937
1004.421875,17.287423,7.108266,9.627295,8.747941
1004.425781,7.588683,10.287508,14.403141,7.643844
1004.429688,8.747902,14.951581,10.922026,7.166356
1004.433594,10.127632,7.558443,10.290555,9.157499
1004.437500,3.346033,8.847296,9.770374,18.537037
1004.441406,-3.514812,4.101730,5.126861,-2.486521
1004.445312,5.931642,2.844114,3.917897,-1.949399
1004.449219,0.535836,-3.586727,-0.087924,-2.337242
1004.453125,1.669035,-6.919310,-5.154117,-0.054482
1004.457031,-8.111048,-5.311345,3.452686,-4.989252
1004.460938,-9.612999,-6.585236,-5.955437,-4.001096
1004.464844,-5.550841,-3.318951,-0.931465,-6.645265
1004.468750,-11.570228,-3.679972,-6.992275,-8.573919
1004.472656,-11.574527,-18.837085,-16.593764,-16.948903
1004.476562,-8.795339,-7.967196,-15.290418,-9.641268
1004.480469,-12.768991,-6.021223,-14.580480,-10.863424
1004.484375,-7.824554,4.343942,-6.888415,-13.881646
1004.488281,-8.949234,-10.666869,-4.144524,-3.027647
1004.492188,-6.063980,-9.279987,-5.154122,-0.962460
1004.496094,-7.051359,-6.931981,-8.376228,-6.214508
1004.500000,4.218746,-1.185073,-6.373644,6.418402
1004.503906,1.841510,-1.062117,-3.963627,1.152399
1004.507812,0.999194,-0.076031,8.172479,-1.034922
1004.511719,2.052496,4.218552,11.599902,9.402547
1004.515625,9.259868,6.217535,10.632469,8.304113
1004.519531,11.295948,10.481215,13.272330,7.795323
1004.523438,19.046161,10.421209,17.989742,9.304343
1004.527344,4.287413,6.546304,13.712163,10.367412
1004.531250,9.019229,6.934020,17.719033,12.291850
1004.535156,-3.020006,10.704990,4.349305,8.271881
1004.539062,9.722631,8.772935,7.570502,4.950080
1004.542969,5.525652,4.937405,-6.288931,8.423432
1004.546875,4.578937,-1.857435,-1.580456,4.503196
1004.550781,-2.603723,0.110796,-9.538448,-2.406164
1004.554688,-7.747225,-4.207881,-10.324470,4.939007
1004.558594,-3.638430,-0.035516,-8.011818,-6.495102
1004.562500,-11.578293,-10.681065,-5.027681,-9.820991
1004.566406,-8.808223,-10.240720,-11.672540,-8.784310
1004.570312,-8.295984,-18.940093,-8.909797,-14.507010
1004.574219,-22.995539,-8.586911,-10.717334,-8.578771
1004.578125,-6.707174,-10.310487,-8.580576,-9.372171
1004.582031,-11.086456,-6.435029,-9.499129,-10.808306
1004.585938,-5.646724,-10.751040,-5.289481,-12.471879
1004.589844,-5.276181,-2.814455,-10.744122,-8.683145
1004.593750,-5.627670,-3.900076,-4.489270,-2.418041
1004.597656,-0.118415,0.691546,-0.452323,-5.218861
1004.601562,-0.691877,-4.247822,6.202099,-2.407709
1004.605469,-6.045091,3.099358,7.820343,2.776524
1004.609375,-0.707954,3.176979,5.463842,6.642132
1004.613281,12.426155,9.314927,3.548306,12.107699
1004.617188,5.633183,3.614363,5.583211,8.975429
1004.621094,5.165257,9.141477,11.378901,15.654153
1004.625000,15.527111,11.256936,5.773131,11.369912
1004.628906,5.777615,5.153737,10.169582,14.985285
1004.632812,-0.692803,8.415775,8.615242,10.742213
1004.636719,8.838427,4.496788,11.254259,8.801763
1004.640625,-2.354428,4.041632,4.369715,2.729212
1004.644531,11.791138,3.489624,5.403766,0.952723
1004.648438,-1.678978,4.216182,0.174168,-4.156592
1004.652344,-3.103260,-0.630736,-2.768588,3.980074
1004.656250,-4.767091,-11.285611,-9.735142,-9.108686
1004.660156,-4.311701,-7.212682,-6.617079,-6.189153
1004.664062,-5.072663,-9.965034,-2.492023,-11.008250
1004.667969,-6.277182,-4.819917,-16.314781,-7.698449
1004.671875,-10.895230,-8.564048,-13.449699,-9.278591
1004.675781,-13.288323,-9.679090,-11.357226,-7.655650
1004.679688,-4.841201,-6.933999,-4.673234,-8.230073
1004.683594,-9.935871,-8.422581,-10.902007,-12.321892
1004.687500,-10.934654,-12.566971,-6.234910,-5.536340
1004.691406,-4.098068,-0.140321,-2.289808,0.620082
1004.695312,-5.390302,-4.956634,1.337677,1.648487
1004.699219,-10.016852,-0.644873,-0.242119,8.372242
1004.703125,8.672001,6.523426,2.948674,7.547829
1004.707031,0.442398,9.306923,8.287869,6.351539
1004.710938,2.911355,3.469218,7.522571,6.600909
1004.714844,9.333962,14.467504,9.138492,6.342850
1004.718750,15.887475,8.433387,8.956345,7.904054
1004.722656,5.250321,6.151725,13.132635,15.273233
1004.726562,12.810582,3.985557,6.329487,11.054998
1004.730469,5.442625,6.098116,13.925461,4.920536
1004.734375,11.655073,12.607742,9.654463,7.321191
1004.738281,14.322851,4.848705,4.702448,-0.644583
1004.742188,-0.627429,5.548480,-2.807678,0.124387
1004.746094,4.306348,5.698162,4.122791,3.199196
1004.750000,-0.945004,0.789924,-2.076168,-3.761219
1004.753906,-1.456523,-10.736090,-2.376316,-0.221821
1004.757812,-2.351790,-1.513131,-8.501593,2.237992
1004.761719,-10.481503,-7.154437,-6.625339,-9.293051
1004.765625,-10.263648,-5.830643,-4.335490,-3.010689
1004.769531,-2.445408,-5.321974,-10.950620,-11.295534
1004.773438,-14.733547,-7.457525,-10.235160,-10.992503
1004.777344,-9.961123,-15.228156,-9.779827,-16.111435
1004.781250,-11.085179,-8.000478,-9.339687,-12.102283
1004.785156,-6.249399,-12.131866,-12.473839,-11.493837
1004.789062,-8.990577,5.767783,-8.075905,-4.566456
1004.792969,-2.294032,-7.940866,-3.911617,-1.368556
1004.796875,-5.521425,-5.271109,-0.975557,-5.214584
1004.800781,4.423125,3.007306,0.472903,-5.604301
1004.804688,3.417174,-0.397377,5.810641,-0.654464
1004.808594,5.279081,5.151498,2.866934,6.765531
1004.812500,15.924607,3.350605,12.563919,11.112364
1004.816406,6.057490,6.759501,2.065846,8.715008
1004.820312,9.894939,7.960011,12.306252,8.389845
1004.824219,6.888967,11.965159,6.435451,12.248508
1004.828125,10.011125,7.080305,8.556262,8.364164
1004.832031,4.654604,11.666839,7.748207,13.978846
1004.835938,10.253290,0.521004,9.489065,8.422247
1004.839844,9.696451,11.081086,2.543993,4.391781
1004.843750,7.109376,6.649888,11.774925,5.973062
1004.847656,3.272635,1.820684,-2.518125,1.452993
1004.851562,-0.121145,-8.547019,0.137819,0.928350
1004.855469,-4.357340,-6.952196,-6.125518,-0.801208
1004.859375,-2.457114,-3.164324,-6.388374,-12.436363
1004.863281,-6.678632,-7.360348,-6.225238,-8.172606
1004.867188,-10.114150,-5.072713,-11.819813,-8.015696
1004.871094,-13.957879,-2.118594,-10.652585,1.416131
1004.875000,-12.579147,-12.778178,-10.351258,-12.987454
1004.878906,-10.527816,-6.468738,-6.392588,-7.374224
1004.882812,-7.702684,-12.474164,-9.619179,-10.794919
1004.886719,-15.259556,-7.178550,-5.953934,-8.402761
1004.890625,-9.065025,-7.183191,-3.317539,-1.490217
1004.894531,-7.654992,-3.173941,-5.380578,-1.940112
1004.898438,-6.445589,0.964513,-2.430348,0.410908
1004.902344,4.904761,1.457412,6.205671,1.479430
1004.906250,5.631139,6.737697,1.598509,-0.245041
1004.910156,-0.244154,5.727539,3.029174,9.605011
1004.914062,1.928898,6.807341,10.024784,13.898358
1004.917969,7.500277,11.062625,14.158135,3.817341
1004.921875,8.944296,0.582721,3.553234,2.813112
1004.925781,5.352090,14.599059,9.490224,14.654983
1004.929688,4.997995,13.242061,11.374994,10.914975
1004.933594,5.785142,3.319175,3.611217,8.780957
1004.937500,8.421075,13.632861,4.640465,10.634054
1004.941406,7.095230,9.029668,3.583491,7.186999
1004.945312,-0.522673,1.557262,1.727489,0.403583
1004.949219,7.960958,-6.220334,-0.216618,4.153101
1004.953125,-5.358056,-5.252875,3.453341,-4.414724
1004.957031,-12.580798,-12.076770,-5.679042,-1.150757
1004.960938,-5.405619,-6.991565,-3.406856,-9.083326
1004.964844,-9.120902,-10.878274,-6.389443,-3.034203
1004.968750,-11.860035,-12.447476,-17.243162,-7.305824
1004.972656,-10.920526,-14.011725,-9.929750,-9.681562
1004.976562,-17.045705,-11.787839,-8.450116,-10.192560
1004.980469,-16.281529,2.828431,-12.624117,-5.101216
1004.984375,-2.425786,-1.324927,-3.387885,-10.888520
1004.988281,-2.224747,-4.690728,-4.424758,-7.574396
1004.992188,-9.420065,-10.286434,-3.008786,-2.758338
1004.996094,-4.605607,-2.899742,-4.989695,7.295398
1005.000000,1.369304,-2.829548,-14.526209,6.420163
1005.003906,-0.116554,2.766246,-4.574154,3.843472
1005.007812,2.437882,9.692593,8.647497,4.809915
1005.011719,5.696458,4.103218,5.193424,2.291359
1005.015625,10.337851,14.698780,12.119895,2.088491
1005.019531,9.020388,5.512746,9.675397,10.072140
1005.023438,13.550702,13.066044,8.812431,7.191752
1005.027344,5.882664,14.336584,13.300952,15.524524
1005.031250,10.509563,6.050322,5.707471,11.232792
1005.035156,13.004143,14.166855,5.435412,8.475380
1005.039062,7.340590,3.728686,-1.637364,-4.667323
1005.042969,5.644369,10.381463,2.589158,8.371412
1005.046875,4.008970,1.714611,1.238676,6.186014
1005.050781,-0.004977,2.025846,0.660630,-0.655252
1005.054688,-8.446919,-1.047855,0.272944,-5.241147
1005.058594,-1.277850,-3.037572,-3.081109,-3.197592
1005.062500,-1.433013,-6.948621,-8.223146,-9.209620
1005.066406,-11.060356,-8.747469,-11.914818,-13.194078
1005.070312,-10.956874,-6.518177,-14.249299,-11.245801
1005.074219,-14.236156,-10.986886,-11.857938,-16.440972
1005.078125,-6.646401,-8.074388,-11.745208,-12.772579
1005.082031,0.984833,-3.579500,-6.991134,-3.714878
1005.085938,-10.511445,-7.458870,-11.433022,-7.437128
1005.089844,-6.008871,-5.220882,-3.607270,-9.489011
1005.093750,1.695247,-2.386282,-6.125834,0.277284
1005.097656,-2.917061,0.092675,-0.066912,2.836889
1005.101562,4.418035,-1.247206,-3.252830,-5.423274
1005.105469,5.991952,0.573851,4.933014,2.858906
1005.109375,2.209419,8.123501,2.521682,10.203365
1005.113281,4.528512,4.749850,10.100100,9.611911
1005.117188,8.021553,9.479107,7.333560,5.224440
1005.121094,9.873098,8.252735,15.657279,12.414749
1005.125000,11.628521,11.409151,5.968626,12.535811
1005.128906,5.633862,7.456202,6.873699,11.636944
1005.132812,14.296972,10.284109,9.504001,12.640390
1005.136719,11.879391,13.140690,3.989431,6.783146
1005.140625,4.689327,-1.217818,3.380536,12.054084
1005.144531,8.606807,-2.890158,2.401535,13.581872
1005.148438,11.369670,-3.853648,-1.069757,2.603590
1005.152344,-5.886964,-2.263597,-0.792402,1.996732
1005.156250,-6.892501,-1.188466,-0.436535,-7.314757
1005.160156,-1.045123,-2.811063,-8.049338,-7.303866
1005.164062,-12.190398,-8.718490,-12.992547,-12.960150
1005.167969,-10.616578,-5.334711,-12.230287,-8.235253
1005.171875,-11.952529,-11.410866,-13.386836,-6.462346
1005.175781,-16.834901,-8.420037,-17.089677,-5.181771
1005.179688,-9.399192,-13.067108,-8.078620,-9.239971
1005.183594,-5.552550,-9.835703,-7.302145,-3.095072
1005.187500,-12.403345,-2.655453,-7.474343,-6.424290
1005.191406,-7.787677,-3.248302,-5.549080,-14.044313
1005.195312,-3.770965,4.730786,-6.199651,1.648817
1005.199219,5.791404,6.480136,6.424688,8.759412
1005.203125,1.542417,6.511692,1.440507,-3.826274
1005.207031,4.500927,7.938658,8.947500,5.533939
1005.210938,8.219355,6.314465,6.889532,9.542451
1005.214844,6.374181,0.478348,5.635641,5.781411
1005.218750,5.444772,16.458846,10.357477,9.536849
1005.222656,9.491689,8.583563,11.305124,10.268000
1005.226562,7.216458,7.409663,4.642797,14.699542
1005.230469,1.609218,11.319634,9.507177,3.534230
1005.234375,8.721746,14.107451,15.298438,4.968512
1005.238281,5.779934,5.282053,12.554478,5.575648
1005.242188,4.168714,5.346905,6.418086,11.078932
1005.246094,5.140635,-0.926965,8.925749,0.425585
1005.250000,2.656003,5.434272,-2.211247,-5.806973
1005.253906,-6.432935,-5.201937,-1.551397,-6.001917
1005.257812,-9.933047,-5.038619,-4.771573,-6.217836
1005.261719,-4.534006,-8.507105,-8.538928,-3.339467
1005.265625,-10.546302,-7.796149,-11.293110,-11.382611
1005.269531,-5.169455,-7.112519,-13.205237,-13.110827
1005.273438,-8.920498,-12.229218,-3.478875,-9.440112
1005.277344,-11.440293,-13.445017,-8.365357,-2.441500
1005.281250,-5.046071,-6.821918,-7.565626,-10.054998
1005.285156,-7.441820,-12.232652,-9.527072,-8.813002
1005.289062,-14.914606,-1.674446,-10.165926,-1.246820
1005.292969,1.841968,1.590347,-10.637910,-7.516889
1005.296875,-0.861856,-5.179957,-3.103219,2.907824
1005.300781,1.885439,4.499751,-2.189847,-4.416693
1005.304688,0.234655,6.425940,-0.550061,7.003529
1005.308594,14.804822,2.357768,0.271828,10.048105
1005.312500,8.019031,0.339219,0.763573,3.432066
1005.316406,8.070311,15.991461,10.322764,7.276704
1005.320312,19.887477,13.250034,10.887577,12.801804
1005.324219,8.819028,9.431511,8.427877,11.443724
1005.328125,7.464121,8.685962,5.021176,11.878333
1005.332031,16.763189,13.931202,9.842520,6.000346
1005.335938,5.388219,11.245380,5.752674,6.187714
1005.339844,3.273515,8.718265,-1.348699,9.833773
1005.343750,4.197514,9.392395,6.632936,2.146010
1005.347656,-4.134251,5.411158,6.593668,-3.307708
1005.351562,3.714248,1.398256,-2.422135,1.665481
1005.355469,6.621481,1.670712,-3.830030,-4.441096
1005.359375,-6.613239,-4.332479,-5.576365,-6.568249
1005.363281,-10.002602,-6.801712,-10.493935,-10.359582
1005.367188,-7.322382,-14.428768,-8.170593,-11.539242
1005.371094,-9.704522,-7.286063,-7.051643,-9.900142
1005.375000,-5.738669,-15.517108,-6.580016,-12.592509
1005.378906,-8.548279,-8.462068,-7.355117,-6.417963
1005.382812,-5.305323,-12.664451,-12.495511,-5.817189
1005.386719,-2.173358,-11.763131,-11.088474,-11.751831
1005.390625,-6.927472,-2.886388,-5.632606,-6.813794
1005.394531,-2.396625,-7.452275,1.135855,-1.384538
1005.398438,-0.175348,-6.301566,1.330728,-3.933679
1005.402344,0.424060,-3.188467,-5.570688,3.106659
1005.406250,1.831216,4.038753,0.461918,1.052454
1005.410156,-0.081987,1.955842,7.107548,-2.674625
1005.414062,9.214572,9.669493,8.279029,17.158182
1005.417969,5.599069,9.541481,10.109066,7.684602
1005.421875,12.523969,7.678700,12.610691,5.216504
1005.425781,10.456362,9.929089,13.201119,11.174281
1005.429688,15.158512,3.178616,4.903593,7.373367
1005.433594,9.192871,19.863384,7.009259,9.488754
1005.437500,11.333850,10.267410,8.360350,14.377863
1005.441406,4.686613,7.359547,5.607686,11.876577
1005.445312,11.004488,5.130180,-2.480565,1.074191
1005.449219,-1.963073,2.866980,-8.893698,-6.207642
1005.453125,0.314366,-7.285466,-5.868371,-0.843187
1005.457031,-10.719553,-16.390575,5.126671,-9.218529
1005.460938,-0.641498,-8.515501,-5.481886,-7.978665
1005.464844,-5.764015,-4.003190,-5.154589,-2.739461
1005.468750,-8.261323,-8.352554,-8.632112,-15.492184
1005.472656,-14.920567,-9.386338,-16.665842,-15.806190
1005.476562,-6.354077,-2.804950,-13.541024,-11.022310
1005.480469,-10.250714,-15.796256,-12.124827,-7.743337
1005.484375,-8.754388,-9.332662,-4.784276,-18.010642
1005.488281,-5.524010,-3.886119,-6.733012,-11.565041
1005.492188,-5.271961,-6.062502,-8.011385,-4.921240
1005.496094,-4.713307,-2.220978,-8.201062,1.162572
1005.500000,8.330052,-5.093964,2.636122,13.065204
1005.503906,4.547855,7.930783,-4.889503,7.203441
1005.507812,6.198927,3.085700,4.769081,3.343896
1005.511719,3.864973,7.172346,13.475744,2.815661
1005.515625,10.832493,2.404918,4.679064,1.296496
1005.519531,11.926458,6.605613,6.975795,8.593806
1005.523438,-5.470654,10.601946,3.293177,13.725533
1005.527344,4.627002,10.150829,8.319495,13.361130
1005.531250,8.213382,10.136204,10.642092,4.505716
1005.535156,4.543595,8.186764,10.409248,11.503949
1005.539062,5.856624,12.758049,12.600687,6.088768
1005.542969,8.636900,7.271258,-1.260849,3.787124
1005.546875,2.365577,2.632178,0.121479,8.145371
1005.550781,-3.406535,0.520920,-3.905883,1.281566
1005.554688,4.520011,-7.200169,-6.736961,3.340887
1005.558594,-12.401146,-6.934333,-3.709870,-4.682606
1005.562500,-8.280721,-9.049844,-4.097004,-8.233542
1005.566406,-7.755907,-5.803154,-9.926862,-13.224422
1005.570312,-16.850815,-8.087568,-8.908763,-11.083541
1005.574219,-11.182656,-5.427652,-5.534274,-1.970163
1005.578125,-1.925815,-10.682910,-6.213519,-6.237729
1005.582031,-7.241284,-5.329197,-9.419269,-7.363121
1005.585938,-0.050189,-10.850003,-4.920217,-11.376772
1005.589844,-8.481133,-5.550552,-7.327290,-7.686731
1005.593750,-3.743022,-5.636960,-8.463462,-6.792282
1005.597656,-6.139463,3.193669,1.805005,-2.904991
1005.601562,7.177870,8.033403,1.617309,0.116042
1005.605469,5.163123,3.676287,-0.453876,-1.717099
1005.609375,4.367452,2.160955,5.868980,3.796211
1005.613281,5.673476,0.641905,6.483186,-4.227866
1005.617188,8.576863,7.935489,15.275599,10.862684
1005.621094,3.294246,12.422707,3.682833,6.240545
1005.625000,7.990701,10.353936,7.925118,5.226732
1005.628906,13.521437,7.085004,8.406305,10.123914
1005.632812,9.539825,12.607410,9.781156,12.356571
1005.636719,8.903540,12.242704,7.070787,4.376978
1005.640625,-2.251345,8.753919,8.194623,3.692291
1005.644531,8.577259,3.508754,7.942417,-3.828192
1005.648438,1.162204,-2.727577,4.684518,5.131514
1005.652344,-3.617637,-0.838926,-8.220750,-0.751667
1005.656250,-4.216570,0.334230,-7.941487,-2.041979
1005.660156,-9.610193,-8.105108,-6.066991,-1.108549
1005.664062,-5.302600,-8.211404,-1.184208,-10.578553
1005.667969,-10.670099,-4.891364,-12.710768,-6.082893
1005.671875,-5.887283,-8.707556,-10.050741,-7.976690
1005.675781,-11.898713,-5.476158,-16.547541,-8.841238
1005.679688,-14.669209,-6.492135,-6.510492,-7.035010
1005.683594,-3.794495,-8.082214,1.747122,-2.621968
1005.687500,-8.185787,-4.404878,-9.312659,-7.936368
1005.691406,-7.288055,-4.527566,-5.485418,-1.141159
1005.695312,0.934087,3.477346,0.612695,-6.521423
1005.699219,0.273549,2.581958,-1.486915,-6.174009
1005.703125,2.449097,0.222366,-4.177420,-1.971739
1005.707031,7.101809,3.568438,1.976230,5.861709
1005.710938,9.681298,12.183282,4.563943,8.881803
1005.714844,5.783975,14.955794,1.054795,8.784439
1005.718750,5.905300,2.954443,10.220989,2.437379
1005.722656,9.526213,1.481892,11.043304,5.362395
1005.726562,11.890067,11.570897,8.847413,8.437006
1005.730469,5.676237,7.973330,1.499791,16.564668
1005.734375,2.882960,8.726698,18.784779,9.749740
1005.738281,6.770727,-2.453146,3.975210,5.898688
1005.742188,9.316139,-0.990715,7.729528,7.125395
1005.746094,-5.754739,-3.638904,0.563580,-1.115415
1005.750000,-2.135446,1.746872,-1.608220,1.251926
1005.753906,-7.605056,0.338088,-4.075478,-4.930438
1005.757812,-5.362324,-10.866660,-2.821052,-9.808346
1005.761719,-8.192564,-2.010431,-7.300581,-6.903475
1005.765625,-12.497494,-10.102048,-9.690476,-6.648109
1005.769531,-6.786839,-9.965328,-9.386936,-8.045649
1005.773438,-10.901360,-3.655758,-17.669501,-13.137522
1005.777344,-13.985682,-12.293342,-9.850215,-7.991494
1005.781250,-10.440826,-7.031153,-10.038598,-10.854455
1005.785156,-6.938491,-7.676569,-8.188601,-6.798596
1005.789062,-12.393381,-10.018829,-4.749451,-10.925076
1005.792969,-7.911381,-6.998870,-2.938024,-8.071843
1005.796875,-8.236442,-10.024170,-2.958756,-4.263178
1005.800781,-2.351202,3.200096,7.690389,2.531954
1005.804688,7.097313,1.630410,0.317968,4.088699
1005.808594,-0.921469,6.856436,13.263125,-0.543342
1005.812500,9.608879,10.348954,9.350993,16.786264
1005.816406,10.569262,10.295313,11.146269,10.951639
1005.820312,15.463284,3.512388,10.889632,4.472460
1005.824219,11.365489,8.792816,9.685695,13.167653
1005.828125,10.590992,16.574602,3.821394,0.762540
1005.832031,6.293824,5.283996,2.696750,6.901424
1005.835938,6.480084,4.290891,2.232882,10.517238
1005.839844,3.116836,12.455158,7.338215,-0.259652
1005.843750,1.279237,1.400966,9.501686,5.083816
1005.847656,7.720367,-0.894071,-2.204175,5.375134
1005.851562,1.598957,3.417349,-3.239663,1.116081
1005.855469,-6.724069,-6.062745,-1.154350,-7.382946
1005.859375,-5.123958,-6.171296,-7.057556,-7.834093
1005.863281,-12.627698,-5.801498,-5.105814,-14.519467
1005.867188,-3.878365,-8.111642,-9.854943,-3.929288
1005.871094,-11.978973,-6.343061,-7.717189,-16.332547
1005.875000,-14.711502,-13.473323,-12.374750,-12.263143
1005.878906,-19.775791,-11.880072,-12.762071,-13.620234
1005.882812,-1.855785,-3.540335,-6.542923,-5.351730
1005.886719,-3.492801,-6.447495,-8.807009,-4.789527
1005.890625,-3.948809,-9.518802,-6.030669,-5.149655
1005.894531,-6.510360,-1.121256,-0.923865,-2.017019
1005.898438,-7.145917,0.482341,3.019340,3.212944
1005.902344,2.700863,3.562789,0.843392,2.882998
1005.906250,3.079817,3.351229,0.782381,9.116930
1005.910156,5.645782,2.614710,4.845924,7.481958
1005.914062,11.877489,3.750439,12.874681,5.306783
1005.917969,15.596061,7.117178,10.599685,15.819569
1005.921875,13.449679,11.113322,10.177638,10.742703
1005.925781,14.136857,12.579735,14.652853,7.432355
1005.929688,14.527943,17.501836,12.086737,12.930019
1005.933594,6.156396,11.814965,6.262488,13.935171
1005.937500,6.512561,8.876404,4.684196,9.980842
1005.941406,2.894592,5.527377,-1.127741,8.559648
1005.945312,5.306415,6.915021,3.099838,-4.076608
1005.949219,-1.785384,2.053699,0.787535,3.577344
1005.953125,-9.854633,-0.101227,-1.147580,2.717459
1005.957031,-9.933036,-6.276620,-0.569112,-5.919497
1005.960938,-11.744049,-15.921013,-1.225934,-7.449514
1005.964844,-6.029210,-6.667824,-8.568028,-7.601275
1005.968750,-2.459665,-15.120566,-11.382847,-11.295046
1005.972656,-7.346246,-8.183842,-8.752424,-2.538250
1005.976562,-8.841534,-7.843216,-8.405172,-15.541081
1005.980469,-5.759317,-6.703943,-15.031915,-5.903718
1005.984375,-11.305932,-10.370695,-9.784937,-6.989804
1005.988281,-4.431471,-4.023618,-6.747079,-10.552341
1005.992188,-2.876141,-6.745113,-5.632127,-7.565295
1005.996094,0.924193,-5.889668,-2.850607,-4.087191
1006.000000,-4.801577,0.307502,-1.318306,1.473422
1006.003906,-3.809598,9.646847,-1.905012,-0.046913
1006.007812,1.807758,-4.878331,-1.167855,10.040471
1006.011719,5.049954,10.213900,3.668375,3.372871
1006.015625,8.075125,12.044084,6.685007,7.051226
1006.019531,15.325078,11.100698,9.969968,13.476629
1006.023438,4.847101,9.457282,17.711518,13.500241
1006.027344,4.906908,10.695117,12.863823,15.182729
1006.031250,13.184420,5.048165,15.320074,2.386375
1006.035156,6.123763,12.595076,4.943441,0.031016
1006.039062,10.362787,8.223535,7.803510,1.086746
1006.042969,4.184996,8.593924,-0.650459,7.556329
1006.046875,0.911951,3.034966,-4.068853,8.235949
1006.050781,3.996243,-7.369715,-0.966859,-3.247489
1006.054688,-0.651460,1.716241,-9.048787,-4.270201
1006.058594,-12.024118,-1.849250,-4.125652,-10.356067
1006.062500,-11.055933,-2.845851,-11.135838,-3.579685
1006.066406,-16.944502,-3.155502,-8.918065,-8.935031
1006.070312,-4.601393,-3.669141,-16.828050,-13.254377
1006.074219,-16.015881,-8.369644,-10.198866,-7.336716
1006.078125,-8.381118,-13.528810,-5.314852,-9.722544
1006.082031,-5.737615,-6.827923,-13.834766,-12.469298
1006.085938,-12.263692,-14.231237,-8.980142,-5.384574
1006.089844,-1.348351,-0.790580,-9.528598,-5.291444
1006.093750,-2.016926,1.412446,-11.939570,-3.151119
1006.097656,0.912319,-2.372207,-4.181676,-3.260324
1006.101562,-3.763582,2.753023,0.822879,1.865489
1006.105469,1.414038,6.636143,7.933482,1.624725
1006.109375,6.112778,9.863557,5.785686,6.411432
1006.113281,6.644880,7.984662,7.044863,6.806524
1006.117188,5.131663,8.282217,9.695868,8.396509
1006.121094,6.301267,7.862869,4.679945,11.447913
1006.125000,13.234485,8.451086,15.449864,7.831195
1006.128906,12.983546,13.960939,9.212429,6.749380
1006.132812,8.273169,10.469053,7.698534,6.450603
1006.136719,10.716890,7.918434,14.132444,3.015275
1006.140625,8.405626,12.210985,7.909178,2.323003
1006.144531,0.265225,0.912314,7.205221,4.323841
1006.148438,1.397996,3.405079,1.077000,-3.555879
1006.152344,1.688395,-4.499045,-5.554538,-0.908564
1006.156250,-5.369581,-4.009432,-6.680719,-0.145132
1006.160156,-0.700211,-10.611333,1.183017,-6.277987
1006.164062,-10.979919,-7.970149,-8.545453,-13.535055
1006.167969,-16.479925,-8.221364,-7.772376,-10.399165
1006.171875,-15.061991,-9.870661,-7.624815,-13.401541
1006.175781,-5.571681,-10.198807,-7.974322,-11.575307
1006.179688,-12.629783,-18.817298,-9.828509,-21.643434
1006.183594,-4.841104,-5.674675,-3.610172,-8.976921
1006.187500,-6.823671,-7.476064,-10.479494,-2.606648
1006.191406,-2.263176,-3.804706,-8.950748,-8.243433
1006.195312,-7.345683,1.031052,-7.878381,-0.829032
1006.199219,0.135714,0.041346,-4.677210,3.507437
1006.203125,2.231406,1.374122,1.245536,4.034552
1006.207031,1.294844,-0.575742,6.410015,8.858817
1006.210938,5.955420,5.909414,4.536086,2.121415
1006.214844,4.926135,9.387015,2.958657,2.043856
1006.218750,2.476688,13.748860,4.237117,9.973261
1006.222656,17.936151,14.805191,8.773108,12.142186
1006.226562,9.104856,9.552050,6.036639,0.008701
1006.230469,5.779990,10.787582,13.661189,5.179361
1006.234375,4.341396,8.405466,6.956673,9.316033
1006.238281,5.115261,9.573019,6.569459,4.902618
1006.242188,6.316923,11.244799,7.257274,2.455102
1006.246094,4.032010,7.605584,6.565667,2.183482
1006.250000,-8.873041,0.673128,-4.987599,0.209850
1006.253906,-4.295272,-2.800858,-6.180340,2.298025
1006.257812,-13.995386,-7.825798,-1.976764,-3.849634
1006.261719,-11.092247,-9.164704,-4.993150,-11.262257
1006.265625,-7.384581,-7.041689,-9.372333,-9.443196
1006.269531,-3.962387,-11.748371,-5.402959,-5.886062
1006.273438,-7.817625,-4.877219,-12.704409,-13.619262
1006.277344,-12.093813,-5.763555,-6.005590,-5.396714
1006.281250,-9.983823,-13.211030,-11.820315,1.205798
1006.285156,-6.014930,-11.828182,-9.306037,-3.450861
1006.289062,-5.756130,-7.391577,-0.749160,-2.583859
1006.292969,2.301522,-7.031310,-3.087484,0.101922
1006.296875,-0.856658,2.384856,4.197678,1.985754
1006.300781,-5.507523,-2.345299,-3.747150,-0.435390
1006.304688,4.902160,-4.492583,5.115558,2.523751
1006.308594,-1.965178,6.744630,6.923746,0.675480
1006.312500,4.921298,3.150728,4.524363,3.280872
1006.316406,3.994525,7.799428,4.402273,4.965439
1006.320312,5.389581,3.426976,8.048211,14.442608
1006.324219,13.051948,11.516331,9.853389,10.203300
1006.328125,13.157359,9.665965,6.800433,12.087967
1006.332031,8.487549,13.225249,8.276855,2.583810
1006.335938,6.455037,-1.638520,7.025986,2.846819
1006.339844,4.138189,-1.535298,2.339001,3.159179
1006.343750,-2.837042,8.324848,-0.279689,1.503974
1006.347656,2.237416,-1.354100,-4.082504,4.239748
1006.351562,3.674263,-0.534716,1.170229,3.509865
1006.355469,-3.926502,3.356846,-2.210543,-4.027746
1006.359375,-4.170241,-1.828925,-9.672324,-3.702879
1006.363281,-5.459220,-7.140257,-6.956345,-5.634568
1006.367188,-10.500221,-9.195956,-11.484501,-8.021724
1006.371094,-9.956450,-11.915271,-4.138888,-14.831257
1006.375000,-13.494008,-12.678803,-7.549371,-10.448345
1006.378906,-11.322737,-7.754405,-4.292881,-9.810836
1006.382812,-4.665099,-6.442158,-18.197356,-8.162792
1006.386719,-9.779723,-11.661919,-7.745629,-9.678663
1006.390625,0.050896,-9.965926,-7.062865,-2.613868
1006.394531,-4.238538,-0.768483,-1.031849,-3.254702
1006.398438,-4.890269,-0.734692,4.841424,-2.421273
1006.402344,-0.149347,-1.696983,1.703297,5.758183
1006.406250,5.852892,9.218348,1.151796,3.826307
1006.410156,5.685234,7.505661,3.376155,4.102236
1006.414062,8.722487,3.038353,9.836907,8.833075
1006.417969,4.132490,9.247667,7.193310,11.284693
1006.421875,8.235825,5.324571,14.527088,7.401100
1006.425781,10.099470,9.979159,6.342876,16.754940
1006.429688,6.928107,15.681740,9.533791,1.814410
1006.433594,6.444808,12.856766,4.500664,14.079644
1006.437500,11.681747,7.620028,4.127304,11.814601
1006.441406,6.883579,1.156990,0.876841,3.468155
1006.445312,1.503416,8.636808,0.152366,7.350687
1006.449219,-2.218973,-0.134788,1.849342,-5.241081
1006.453125,-6.695374,-0.502019,1.011493,-6.458685
1006.457031,-4.751678,-4.418624,-8.369963,-3.426452
1006.460938,-6.176605,-7.580073,-2.507282,-0.936831
1006.464844,-11.510515,-2.883716,-2.084755,-16.161996
1006.468750,-17.302602,-6.051653,-11.846215,-10.939709
1006.472656,-11.351740,-12.178409,-14.136131,-12.785094
1006.476562,-12.374325,-7.049368,-5.095666,-9.785401
1006.480469,-9.133564,-17.161453,-8.156132,-11.993437
1006.484375,-11.645601,-9.973767,-9.917153,-7.478914
1006.488281,-9.136539,-8.912636,-13.507919,-8.673315
1006.492188,-2.847324,-8.733650,-10.022453,0.641109
1006.496094,-2.307881,0.118338,-3.077498,-6.858606
1006.500000,-3.768390,-0.956766,1.824223,0.608005
1006.503906,4.897862,0.449940,0.785640,7.220894
1006.507812,9.650501,-1.606546,-1.978938,7.659921
1006.511719,4.941169,9.007662,11.362963,11.173521
1006.515625,9.329235,9.157088,6.938637,7.069227
1006.519531,5.052872,8.028739,17.529119,9.618596
1006.523438,4.382837,12.246513,3.938360,15.380687
1006.527344,14.186798,11.871409,7.066766,13.114017
1006.531250,9.680864,7.895529,12.857597,10.228501
1006.535156,7.443351,9.823146,15.143671,2.245239
1006.539062,10.681960,2.806656,1.163922,5.856013
1006.542969,2.643007,-2.473366,4.171012,-1.668482
1006.546875,-1.402272,0.593651,0.616210,8.284155
1006.550781,-0.418694,0.756949,7.590315,-2.167737
1006.554688,-5.196765,3.813017,-1.597082,-2.165690
1006.558594,-3.421839,-7.930364,-9.003331,-3.679133
1006.562500,-11.182872,-7.652352,-0.193541,-3.337163
1006.566406,-7.629944,-9.584651,-7.017369,-9.922639
1006.570312,-11.176711,-14.646084,-7.719900,-11.353128
1006.574219,-11.024932,-11.271848,-9.801285,-10.551041
1006.578125,-3.673749,-9.447922,-8.377548,-22.476285
1006.582031,-2.053800,-8.711014,-7.337630,-15.865651
1006.585938,-6.131735,-17.931855,-4.266064,-13.097163
1006.589844,-11.138014,-8.742659,-10.916333,-12.328878
1006.593750,-3.409931,-15.604786,-2.563794,-4.796508
1006.597656,-2.435336,-0.453997,-1.127262,-0.196758
1006.601562,-9.677342,4.928877,2.153678,2.080843
1006.605469,-1.386317,2.841937,1.522316,1.186088
1006.609375,2.518030,7.236741,7.975267,7.505843
1006.613281,8.506581,9.876223,5.108753,8.883901
1006.617188,10.909861,12.532195,20.673251,14.767705
1006.621094,8.559927,16.595107,12.390542,5.571965
1006.625000,7.299366,8.525131,12.228184,2.550059
1006.628906,12.154955,5.211369,7.756665,9.043982
1006.632812,10.683208,10.336140,8.181710,1.315745
1006.636719,-0.007113,10.304153,3.010476,4.497664
1006.640625,4.205931,6.398486,4.952560,3.342741
1006.644531,6.232919,3.145034,5.682354,2.191796
1006.648438,-0.895267,5.635748,-1.831054,0.817558
1006.652344,-5.745091,-13.043029,-5.965207,-3.070337
1006.656250,-5.941865,-1.233850,-5.364553,3.226608
1006.660156,-0.743043,-4.051625,-8.567148,-4.742127
1006.664062,-7.943636,-2.363179,-5.996760,-5.155952
1006.667969,-7.227267,-9.620662,-16.216145,-7.795031
1006.671875,-13.544017,-6.606964,-9.792070,-12.054599
1006.675781,-8.078226,-10.448803,-9.777818,-16.464033
1006.679688,-10.726482,-9.787875,-8.377737,-10.194780
1006.683594,-7.695450,-7.696908,-5.169058,-0.108756
1006.687500,-3.977661,-5.736101,-7.759743,0.215523
1006.691406,-10.011711,-5.075773,-8.467891,-6.862786
1006.695312,3.427000,-3.501494,-5.555561,1.254138
1006.699219,4.021466,2.854939,1.214415,1.895696
1006.703125,-2.511342,5.543918,2.690627,5.511938
1006.707031,7.499415,4.286401,9.165854,0.786890
1006.710938,1.011368,5.393726,8.662282,2.383865
1006.714844,9.127120,10.239709,9.560183,12.416200
1006.718750,3.839216,13.996467,7.611113,13.117631
1006.722656,11.306149,11.065661,8.360793,13.352957
1006.726562,7.522387,14.321560,17.483979,14.394619
1006.730469,12.259563,7.681279,11.478128,8.150364
1006.734375,9.510447,6.797054,12.003455,10.067422
1006.738281,2.367674,2.209397,6.944340,6.424303
1006.742188,7.659468,4.564694,10.616180,5.221197
1006.746094,6.393860,1.724150,-1.861429,-1.914478
1006.750000,-9.919763,7.511028,-2.389371,-0.340169
1006.753906,-5.822051,-3.201398,5.582639,-4.703003
1006.757812,-6.087446,-6.277114,-0.943715,-3.268418
1006.761719,-4.309794,-3.692018,-11.541335,-4.898426
1006.765625,-15.117742,-8.292132,-2.533822,-9.432535
1006.769531,-10.219693,-6.148403,-7.197981,-3.765847
1006.773438,-5.534653,-15.724619,-10.174873,-14.237291
1006.777344,-10.083293,-3.197439,-7.340790,-9.516424
1006.781250,-8.100933,-8.994428,-13.308571,-10.707870
1006.785156,-8.408310,-8.696139,-4.632455,-14.363241
1006.789062,-2.864690,-2.410191,-5.073844,-2.717501
1006.792969,-8.043029,-1.279008,-8.255449,-3.372537
1006.796875,-2.821824,0.633536,-0.541828,-0.580988
1006.800781,1.838917,-1.568541,-4.605174,-0.423048
1006.804688,-0.611538,0.549176,-2.768265,2.429652
1006.808594,9.503239,8.059541,8.129401,5.696151
1006.812500,-0.878739,4.706180,2.784714,12.647302
1006.816406,8.004058,10.476233,15.245255,11.486760
1006.820312,12.598942,11.230608,9.617157,4.121240
1006.824219,7.958810,8.658604,9.626079,2.695909
1006.828125,11.421145,13.592300,5.423015,13.442829
1006.832031,17.832100,1.698030,9.905839,13.844173
1006.835938,10.876588,3.764434,2.608950,2.516396
1006.839844,4.453941,3.426748,1.289542,2.863432
1006.843750,3.563625,14.979498,0.814296,-4.247684
1006.847656,4.660634,2.710844,-0.026515,5.788372
1006.851562,2.584309,2.527061,-3.285525,-3.023600
1006.855469,-4.113984,-0.750839,-4.612620,-8.699158
1006.859375,-7.462686,-11.800679,-12.151603,-14.203268
1006.863281,-5.024401,-3.471934,-5.211360,-7.766868
1006.867188,-8.462830,-14.386411,-8.155498,-5.980372
1006.871094,-3.814555,-15.628631,-4.530039,-6.148036
1006.875000,-17.163058,-7.599453,-13.347993,-4.029432
1006.878906,-16.073807,-14.500279,-3.447907,-13.281859
1006.882812,-10.304606,-10.980963,-1.618647,-4.845138
1006.886719,4.205167,-14.810236,-9.124156,-3.565310
1006.890625,-6.374058,-1.097850,-11.716052,-5.166242
1006.894531,-10.667312,-10.561232,-11.957291,-5.726116
1006.898438,-0.730863,0.584709,-4.649210,0.231318
1006.902344,7.875961,1.362721,-0.704463,-2.830124
1006.906250,6.480041,2.677690,4.032024,11.921430
1006.910156,9.301266,4.747329,15.926671,2.683478
1006.914062,5.791336,5.228353,5.522414,12.075745
1006.917969,2.927787,11.341120,8.217697,-2.626039
1006.921875,8.599396,5.099906,12.074847,8.945609
1006.925781,12.352299,5.506374,7.681631,14.520877
1006.929688,13.952441,15.358737,10.949045,8.926624
1006.933594,14.878805,9.445854,10.156749,8.020519
1006.937500,6.928227,9.719951,12.849238,4.333564
1006.941406,-1.750787,5.613865,7.712972,0.279808
1006.945312,2.471654,-6.218962,7.684849,2.861969
1006.949219,-2.300994,3.509326,-0.467744,-3.616331
1006.953125,-1.587662,-2.616130,0.427841,-8.526680
1006.957031,1.132973,0.602062,-7.981336,-4.404253
1006.960938,-4.310874,-4.155048,1.571169,-7.415780
1006.964844,-8.995038,-13.724840,-7.829350,-9.018691
1006.968750,-7.465759,-6.230743,-9.600273,-13.800196
1006.972656,-16.456752,-7.344502,-5.931765,-9.732180
1006.976562,-11.216510,-9.494532,-17.965133,-12.131594
1006.980469,-11.742901,-11.565102,-8.803260,-7.858125
1006.984375,-8.771856,-14.583184,-15.249059,-5.641694
1006.988281,-15.446354,0.079100,-1.863148,-4.667841
1006.992188,-1.659889,-3.783369,-5.477001,-2.615159
1006.996094,-14.042797,-4.832190,-10.241067,-6.818020
1007.000000,1.435216,2.364957,1.265638,0.216859
1007.003906,-6.476586,4.837720,0.174972,2.405489
1007.007812,7.502280,10.425625,7.408646,4.808767
1007.011719,8.528714,6.684647,5.390140,5.850326
1007.015625,11.344027,8.827446,9.896091,16.512496
1007.019531,9.566844,6.314134,17.961121,9.920721
1007.023438,11.053904,15.481582,7.837644,7.076629
1007.027344,16.874629,2.941299,13.443862,11.096204
1007.031250,9.747192,14.548405,5.512838,11.769109
1007.035156,5.706038,5.553229,-0.917725,3.477452
1007.039062,11.666840,15.487870,12.547962,12.159816
1007.042969,0.058726,6.826717,0.436374,-1.848279
1007.046875,7.529320,5.485286,-1.662775,10.518201
1007.050781,-0.704356,-5.759752,-6.039151,-1.564243
1007.054688,-6.866141,1.054867,-4.613632,-3.497113
1007.058594,-7.145588,-10.561250,-2.135742,-7.961835
1007.062500,-8.438253,-3.731061,-3.019592,-5.420985
1007.066406,-9.924848,-11.969340,-2.224260,-16.988329
1007.070312,-4.952724,0.362724,-16.134620,-13.268364
1007.074219,-9.829584,-14.424453,-11.088999,-13.519788
1007.078125,-10.750124,-11.177168,-7.109497,-5.049195
1007.082031,-9.945745,-4.951113,-13.034346,-5.087725
1007.085938,-4.147210,-8.804921,-11.522797,-4.017336
1007.089844,-10.355318,-8.615374,-10.457118,-4.827626
1007.093750,-8.185468,-2.472510,-3.519872,-0.747369
1007.097656,4.557527,0.591025,6.016264,-0.094381
1007.101562,1.090704,-3.543788,5.718295,5.593487
1007.105469,-3.438005,2.833540,-1.664597,0.984570
1007.109375,2.258458,3.088917,2.891707,4.925079
1007.113281,10.952842,14.860581,10.445788,3.001226
1007.117188,7.277105,6.670200,9.793785,9.152391
1007.121094,10.533812,7.555872,6.090513,-0.096664
1007.125000,3.910843,8.558185,5.386641,13.037441
1007.128906,9.522806,5.077167,9.480333,11.593194
1007.132812,11.658797,5.524312,6.396896,4.862502
1007.136719,4.152527,8.119858,3.699841,6.205549
1007.140625,9.747883,-2.812519,-5.484037,3.214772
1007.144531,1.865049,3.284924,1.076418,2.607943
1007.148438,-2.779681,3.207235,3.927738,7.692962
1007.152344,-2.410528,0.584971,-1.643275,-6.395739
1007.156250,-1.913605,-4.436050,0.939616,-7.608120
1007.160156,-6.921599,-6.474002,-3.679639,-11.046549
1007.164062,-9.861824,-7.471842,-12.053598,-2.991299
1007.167969,-5.560439,-12.651595,-0.848890,-9.197720
1007.171875,-2.315301,-7.670450,-12.028356,-17.126405
1007.175781,-11.000481,-15.385350,-11.428210,-15.146706
1007.179688,-11.117295,-5.228473,-16.277346,-13.485812
1007.183594,-4.239290,-12.301951,-15.699901,-9.968063
1007.187500,-13.769399,-9.566386,-5.828836,-3.929339
1007.191406,-8.411693,-4.012070,-6.901805,-5.549992
1007.195312,-6.825508,-6.792156,0.455837,-1.712572
1007.199219,-0.417495,-3.188375,-4.688702,2.603277
1007.203125,8.836462,-1.428266,4.121731,6.015960
1007.207031,3.131117,-3.750717,8.508730,2.397502
1007.210938,2.250586,8.733749,1.121331,3.528354
1007.214844,9.245648,11.113797,16.455790,3.292450
1007.218750,8.941734,6.730212,6.133251,8.711212
1007.222656,11.346157,6.920769,5.962037,5.998715
1007.226562,18.862837,8.940146,15.342574,19.382906
1007.230469,8.385656,5.691457,16.856876,2.999289
1007.234375,8.846322,12.061966,9.468108,12.040373
1007.238281,6.338062,7.371823,11.610227,4.766032
1007.242188,8.381411,3.176917,6.871120,8.909113
1007.246094,-1.593678,4.548488,0.353790,-2.957096
1007.250000,-8.514864,1.849710,3.535711,-6.816238
1007.253906,-2.999800,1.886430,-6.947767,-0.363703
1007.257812,-0.993235,-4.425408,-2.350971,-8.216995
1007.261719,-12.545439,-6.301512,-1.638122,-14.565418
1007.265625,-9.569138,-11.913433,-10.747213,-8.297867
1007.269531,-13.792736,-1.589082,-7.121037,-14.775778
1007.273438,-14.421829,-7.400865,-8.783124,-7.320793
1007.277344,-6.632177,-6.603226,-8.183763,-15.065079
1007.281250,-6.980277,-6.416879,-10.630451,-8.316880
1007.285156,-10.046680,-13.917980,-7.585964,-2.258543
1007.289062,0.821777,-9.578150,-6.109992,-9.687312
1007.292969,-5.755913,-7.695916,-0.752113,-9.345670
1007.296875,8.622008,1.258678,-5.986811,0.303787
1007.300781,-0.728553,3.104256,0.390513,1.288866
1007.304688,0.584427,0.306026,3.667786,3.079856
1007.308594,8.339236,9.459700,3.909090,10.347085
1007.312500,12.519022,0.046055,11.528120,5.694992
1007.316406,6.322819,3.737570,12.390442,9.732883
1007.320312,5.661872,9.148743,16.358521,10.646787
1007.324219,5.086595,12.608905,9.179555,17.110540
1007.328125,11.530168,9.623690,8.209203,10.961148
1007.332031,3.323648,10.495387,5.734344,5.528610
1007.335938,2.285475,11.885525,11.384933,0.560985
1007.339844,6.200539,5.347709,4.408081,4.595297
1007.343750,9.014909,4.259207,9.053588,0.096081
1007.347656,6.866198,5.389829,4.366443,6.694813
1007.351562,0.034114,-0.717927,0.889325,-10.579923
1007.355469,-9.225775,-0.739358,-6.829130,-3.654320
1007.359375,-8.208832,-7.537479,-6.057256,0.886723
1007.363281,-6.661037,-11.190361,-7.386508,-3.588329
1007.367188,-11.738818,-4.234630,-14.984771,-5.683566
1007.371094,-14.570145,-1.962742,-19.278555,-9.970135
1007.375000,-8.347464,-7.509336,-4.101379,-16.046136
1007.378906,-14.770236,-5.260901,-13.858421,-7.039618
1007.382812,-10.043637,-14.392366,-7.119757,-4.747362
1007.386719,2.115555,-9.617565,-12.686675,-8.870091
1007.390625,-10.508647,-11.272826,1.133892,-7.292636
1007.394531,-7.165555,1.299268,-2.595224,-5.911597
1007.398438,-5.401091,-3.781864,-5.318636,0.376539
1007.402344,3.331831,3.733780,3.868122,1.293944
1007.406250,3.778671,1.932427,1.666875,4.413481
1007.410156,8.625668,5.841190,7.476045,2.973958
1007.414062,7.247117,6.595347,9.052166,3.087881
1007.417969,11.724581,10.165123,12.958671,6.837659
1007.421875,7.511546,11.003121,10.714109,8.304676
1007.425781,16.997713,11.895764,25.063686,12.587509
1007.429688,7.073414,7.032727,6.424451,10.206819
1007.433594,11.228007,12.406057,5.962302,3.533650
1007.437500,3.813694,4.045553,8.914479,8.945327
1007.441406,10.470400,3.582695,10.732911,11.211889
1007.445312,2.626781,-2.772420,0.695931,-0.480774
1007.449219,1.817483,-2.625375,-2.419721,6.444624
1007.453125,5.256016,-5.143076,2.950422,-3.050673
1007.457031,-10.692608,-0.518686,-4.326116,-7.015844
1007.460938,-6.320776,-13.876963,-2.025653,-6.211588
1007.464844,-9.292835,-3.624784,-11.654060,-4.498655
1007.468750,-9.379700,-11.976899,-3.493387,-8.904452
1007.472656,-15.501979,-9.816036,-11.460891,-10.847950
1007.476562,-13.085758,-10.986285,-10.415427,-18.390686
1007.480469,-11.303553,-15.570267,-12.276590,-8.465440
1007.484375,-0.692837,-1.144608,-8.632281,-13.385906
1007.488281,-9.310049,-5.615694,-7.231628,-6.887278
1007.492188,-0.120901,-8.593911,-10.870201,-2.877417
1007.496094,-5.601973,-9.398904,-0.878789,0.468032
1007.500000,0.138594,0.995475,-1.503090,-6.841738
1007.503906,1.138719,2.033347,3.490262,1.549890
1007.507812,8.480033,6.010862,4.004170,4.444893
1007.511719,3.334670,-4.948321,9.381915,4.426998
1007.515625,6.800112,6.985554,8.785712,-1.396430
1007.519531,7.302901,6.708220,6.756652,8.249199
1007.523438,12.159959,9.751683,13.652146,0.332218
1007.527344,14.921018,5.141354,7.922504,6.802404
1007.531250,14.449597,8.196946,12.476929,11.321756
1007.535156,4.776423,12.179846,10.485438,8.173400
1007.539062,2.585191,4.773493,-1.303805,-5.939993
1007.542969,2.386819,12.551761,1.216228,4.429920
1007.546875,3.909525,5.188066,-0.972203,-0.622287
1007.550781,5.566692,-1.087688,2.027146,-1.569398
1007.554688,3.224685,-7.571270,-5.748410,3.276071
1007.558594,-4.771766,-0.832517,-6.269241,0.358355
1007.562500,-8.776944,-11.803435,-6.710360,-6.266338
1007.566406,1.460652,-10.027757,-7.015083,-12.380444
1007.570312,-7.820641,-15.494250,-11.324301,-16.020386
1007.574219,-6.414360,-7.778512,-13.147078,-12.907354
1007.578125,-10.297236,-16.542070,-6.269899,-4.296236
1007.582031,-12.216895,-7.578582,-13.461079,-11.379159
1007.585938,-3.534839,-8.887379,-4.539938,-6.240464
1007.589844,-5.352413,-6.120563,-7.477026,1.191759
1007.593750,-1.258467,-3.111859,-3.860495,-0.723413
1007.597656,-1.439125,3.833865,-7.610289,-6.606984
1007.601562,4.351660,-2.161229,5.350366,3.669029
1007.605469,6.341728,2.914744,3.712552,-2.655602
1007.609375,11.984783,3.780623,9.481296,8.480635
1007.613281,5.531019,8.137205,4.462926,13.535808
1007.617188,13.319813,10.799506,16.997233,12.970397
1007.621094,9.706270,11.697023,19.611073,1.509811
1007.625000,11.522655,6.031960,6.772075,13.102346
1007.628906,5.552504,15.248287,8.314735,12.452484
1007.632812,12.335115,13.773830,6.174077,5.137824
1007.636719,4.948632,7.944091,4.499020,8.320833
1007.640625,3.900887,1.153916,9.241488,7.219812
1007.644531,2.664703,4.003228,3.017740,1.424966
1007.648438,2.708116,-1.465282,-1.331467,2.511357
1007.652344,-2.325090,-8.033878,-2.189726,0.104255
1007.656250,-4.629624,0.450611,-7.390318,-8.265618
1007.660156,-15.310439,-4.081652,-6.236326,-4.009413
1007.664062,-9.224847,-7.591811,-7.955649,-8.420576
1007.667969,-4.309466,-13.361140,1.322916,-11.984947
1007.671875,-5.396874,-10.396948,-8.293416,-5.512873
1007.675781,-5.085098,-10.571234,-11.486961,-8.537286
1007.679688,-9.997236,-8.863078,-7.579829,-6.342711
1007.683594,-11.439839,-12.401485,-9.307096,-2.049060
1007.687500,-5.641412,-6.662160,-8.719050,-8.697088
1007.691406,-5.463856,-8.753247,-3.137970,-4.747140
1007.695312,-6.268968,-3.990546,-2.279806,-1.745034
1007.699219,0.144288,-3.549514,-2.513812,-3.193783
1007.703125,-2.631220,6.742843,6.890606,3.701628
1007.707031,-2.167623,4.384283,-2.671833,4.867387
1007.710938,7.049067,10.187924,14.366961,9.574126
1007.714844,2.072374,3.985247,2.191151,12.403690
1007.718750,6.279938,8.653206,13.914093,10.736998
1007.722656,7.995379,8.131549,7.550392,8.732585
1007.726562,7.861744,6.417789,11.281384,3.528663
1007.730469,16.299590,5.113242,16.238331,12.807344
1007.734375,8.925872,5.707198,9.346466,0.703528
1007.738281,9.898008,2.328474,4.850971,9.140933
1007.742188,5.872771,11.148628,5.278286,2.191481
1007.746094,11.412425,13.571379,-1.011557,0.406860
1007.750000,2.452518,-1.425974,2.510748,-2.527851
1007.753906,-3.677733,0.943437,-3.969199,0.170230
1007.757812,-6.010593,-4.961732,4.780136,-2.890539
1007.761719,-6.029946,-5.424513,-7.411999,-6.269625
1007.765625,-8.671599,-9.875168,-9.357552,-11.910751
1007.769531,-5.575376,-13.384785,-15.279756,-12.414147
1007.773438,-13.341710,-13.970527,-4.084784,-5.445243
1007.777344,-15.854502,-7.987270,-8.968896,-11.318727
1007.781250,-2.561463,-10.194089,-8.558455,-9.599813
1007.785156,-12.360007,-9.612203,-4.646172,-9.611564
1007.789062,-15.280723,-3.057960,-7.891435,-1.670393
1007.792969,-5.123923,-5.061832,0.451099,-7.470340
1007.796875,-0.450824,-6.479788,-3.346646,4.775819
1007.800781,1.216314,3.920124,1.196425,-1.946388
1007.804688,5.824612,2.106831,5.472054,3.486012
1007.808594,-0.674675,4.903568,5.336660,-4.364263
1007.812500,7.447793,13.302903,-0.433644,7.859434
1007.816406,7.852874,14.950971,12.572978,9.030182
1007.820312,1.076318,4.427410,2.207064,9.962284
1007.824219,14.890569,20.197460,8.516657,13.812801
1007.828125,6.594701,13.848812,10.062435,15.595522
1007.832031,7.364496,14.738167,8.346021,3.068888
1007.835938,3.726715,9.378603,2.177778,3.090457
1007.839844,1.240060,-3.295105,0.731308,2.923768
1007.843750,1.935267,-0.047962,11.161024,10.720375
1007.847656,5.025273,2.373689,-10.390653,1.542807
1007.851562,-3.798282,-5.846648,1.172881,-0.390501
1007.855469,1.138521,-4.234931,-5.936301,0.185519
1007.859375,-12.695090,-4.864267,-8.978701,-2.393509
1007.863281,-8.715786,-7.191558,-4.367708,-6.028184
1007.867188,-13.862383,-11.143757,-6.673071,-8.368204
1007.871094,-10.043300,-13.175020,-6.666608,-2.255845
1007.875000,-10.818065,-10.194091,-12.993357,-14.685319
1007.878906,-11.267613,-11.874492,-8.895452,-9.985131
1007.882812,-8.622752,-6.985823,-12.239153,-7.043651
1007.886719,4.815746,-6.143106,-4.109844,-9.227066
1007.890625,-3.008324,-10.366508,-2.338437,-7.315541
1007.894531,-4.585040,-2.763554,5.239169,0.655792
1007.898438,-7.279400,-7.284982,-4.719432,-2.049501
1007.902344,6.875558,0.377276,-3.583065,-4.373782
1007.906250,2.344029,-0.048552,5.823153,5.354082
1007.910156,10.475319,2.778622,8.201405,8.993431
1007.914062,5.923072,2.985549,6.482812,6.993473
1007.917969,11.831419,1.085074,7.257255,12.202798
1007.921875,3.573184,6.581904,11.662586,10.123200
1007.925781,2.585028,4.713093,8.274142,20.147801
1007.929688,7.074974,9.510727,13.105909,15.767979
1007.933594,10.454255,13.018055,7.918102,11.484232
1007.937500,6.635876,4.114484,13.452402,9.128935
1007.941406,14.480071,2.607873,4.334077,10.175600
1007.945312,5.353308,1.163912,0.753134,-1.171643
1007.949219,4.874048,1.144982,2.304412,4.079114
1007.953125,-0.774589,-4.535929,-3.749265,3.269182
1007.957031,-5.645939,-8.648922,-8.723967,-9.601648
1007.960938,-10.219642,-8.912344,-9.011657,-7.155798
1007.964844,-6.514058,-9.879009,-10.858425,-4.300735
1007.968750,-9.938452,-3.491872,-11.677963,-9.364215
1007.972656,-8.090410,-11.524557,-6.684432,-8.368232
1007.976562,-9.381626,-10.443009,-3.885135,-0.283371
1007.980469,-9.375314,-12.985638,-8.116578,-0.357063
1007.984375,-15.451599,-10.128163,-9.384529,-10.935573
1007.988281,-3.622460,-3.941430,-1.620791,-4.661768
1007.992188,-7.349797,-6.545304,-6.348425,-4.751160
1007.996094,-7.080485,-6.341342,0.189925,-7.033933
1008.000000,-3.418745,-1.751003,1.760290,-6.131290
1008.003906,0.348124,1.356901,3.950327,-2.828428
1008.007812,-1.696059,3.989022,9.980079,6.782324
1008.011719,8.122456,16.736152,5.934964,7.071654
1008.015625,7.660603,9.045931,9.146180,13.924432
1008.019531,7.824455,15.908093,8.381612,9.187437
1008.023438,7.653341,8.590223,15.903763,3.179273
1008.027344,9.013898,11.200085,7.255366,15.479253
1008.031250,6.577329,6.610484,11.089552,21.982456
1008.035156,13.455799,5.703067,6.784802,6.933185
1008.039062,9.824212,4.139838,9.831430,5.378993
1008.042969,-0.128516,0.925395,1.901310,-0.233210
1008.046875,-6.332506,3.930065,3.137976,1.942827
1008.050781,-0.022816,-2.728091,-4.933245,-0.638707
1008.054688,3.706504,-2.316294,-8.275394,-2.919145
1008.058594,-2.599401,0.470445,1.105275,-3.270989
1008.062500,-3.960038,-13.227203,-3.941908,-10.912812
1008.066406,-15.907374,-12.793525,-5.402905,-11.877652
1008.070312,-15.109426,-5.634519,-6.678304,-1.881414
1008.074219,-11.373156,-3.525617,-8.732121,-11.998186
1008.078125,-10.883223,-2.369348,-10.569135,-7.631018
1008.082031,-11.603636,-7.216701,-9.197178,-0.074293
1008.085938,-2.672788,-1.269970,-7.720103,-4.835017
1008.089844,-4.042179,-8.760632,-8.753519,-2.768056
1008.093750,-13.572513,-4.189070,-5.483321,-4.102811
1008.097656,5.163415,-1.358520,-0.247860,-5.725340
1008.101562,-4.999358,1.094305,-2.200906,-3.790636
1008.105469,3.623068,0.595769,5.800062,6.482137
1008.109375,9.768008,7.086054,7.283750,0.668747
1008.113281,9.691135,10.095347,13.068494,10.499288
1008.117188,10.729369,5.396306,11.444359,6.772118
1008.121094,8.679576,14.947705,10.404444,11.753692
1008.125000,9.492499,13.343025,8.900055,10.580663
1008.128906,8.249658,11.252187,10.922251,7.658019
1008.132812,13.842493,5.059128,7.836289,10.389222
1008.136719,7.026637,7.083930,7.955600,13.786511
1008.140625,7.493721,0.246622,2.137459,3.617394
1008.144531,11.911765,6.803959,4.624280,5.894619
1008.148438,1.040823,5.865972,7.567145,1.759748
1008.152344,-7.331408,0.772959,2.662240,0.013989
1008.156250,-4.686061,-4.824058,-2.825460,-11.052933
1008.160156,-5.310819,-15.545948,-7.362862,-5.724109
1008.164062,-12.712494,-10.907958,-5.262121,-8.063013
1008.167969,-7.150441,-6.278352,-17.209828,-9.207405
1008.171875,-6.842997,-12.031650,-6.111462,-7.888633
1008.175781,-3.759998,-15.759109,-10.965485,-7.564975
1008.179688,-11.501596,-8.883535,-15.283785,-14.651737
1008.183594,-9.596050,-11.096366,-4.676683,-10.933705
1008.187500,-4.757048,-8.804327,-10.397724,-9.441084
1008.191406,2.584575,0.472003,-4.454993,-5.960559
1008.195312,-6.581570,1.450130,3.393519,-0.354904
1008.199219,-3.288367,-7.135029,-0.241279,3.466406
1008.203125,-1.632663,7.638234,-3.261643,2.505157
1008.207031,-1.298736,8.502750,-3.552856,4.957265
1008.210938,4.459539,7.040442,4.179104,10.754969
1008.214844,18.696759,2.621354,5.164725,8.437193
1008.218750,11.423998,7.910838,6.874364,14.662990
1008.222656,11.405483,6.552290,13.917799,10.820867
1008.226562,9.061743,13.715530,17.231555,16.783921
1008.230469,9.518490,10.582601,7.766853,15.132652
1008.234375,-2.032761,6.302450,0.438507,8.489223
1008.238281,10.459746,4.837656,5.406521,4.958058
1008.242188,1.813891,6.427096,-2.319715,-1.344923
1008.246094,-4.148454,3.952628,3.051806,1.443404
1008.250000,-2.507488,4.177055,-0.594161,-1.917662
1008.253906,0.708414,-0.346835,-6.989407,4.334705
1008.257812,-5.477814,-13.069646,-6.626293,-3.309370
1008.261719,-16.946198,-0.158025,-7.938602,3.076122
1008.265625,-13.775740,-9.858022,-11.941214,-10.508126
1008.269531,-9.951139,-15.622558,-11.844671,-6.565872
1008.273438,-10.090103,-7.099711,-14.132997,-14.263840
1008.277344,-7.917441,-4.235382,-11.777102,-18.985600
1008.281250,-16.628712,-15.574498,-10.186058,-5.271727
1008.285156,-7.240220,-5.870140,-1.663302,-14.388616
1008.289062,3.768310,-4.252720,-9.650043,-9.436414
1008.292969,-14.020068,-4.547898,3.183592,-0.263519
1008.296875,-7.899301,-7.044237,2.752129,4.591706
1008.300781,-0.078991,1.127926,-2.473643,0.400243
1008.304688,2.081047,-0.787918,-3.057757,1.328032
1008.308594,1.195440,5.177434,1.261449,4.220714
1008.312500,7.233660,5.729530,7.966952,11.771593
1008.316406,7.436457,9.450828,12.886886,4.854905
1008.320312,8.927783,17.361991,10.194021,8.018473
1008.324219,9.590881,10.182856,18.317138,10.527018
1008.328125,17.528672,9.928385,3.882072,11.381029
1008.332031,6.011753,8.332761,14.286488,5.914151
1008.335938,7.907113,6.816961,4.373621,12.172468
1008.339844,8.427893,4.647621,6.320665,3.537514
1008.343750,1.832009,2.835930,1.409940,4.797745
1008.347656,6.402611,1.813613,0.943914,4.029773
1008.351562,-3.973537,5.572898,-1.166755,-2.702302
1008.355469,-11.083608,-6.143015,-8.209268,-5.320299
1008.359375,-2.801248,-11.040640,-5.513449,-9.705148
1008.363281,-4.761358,-11.823838,-4.230093,-7.004756
1008.367188,-0.995304,-8.661416,-6.555751,-6.114535
1008.371094,-1.613813,-4.147665,-9.399913,-7.246330
1008.375000,-2.432594,-12.721324,-15.950311,-11.652461
1008.378906,-11.421103,-18.006976,-12.608101,-4.668882
1008.382812,-10.422541,-8.390840,-21.791067,-6.471120
1008.386719,-3.813886,-9.153964,-9.619193,-7.140856
1008.390625,-0.891243,-4.286182,-7.890422,-2.788083
1008.394531,-4.262822,-2.471004,1.661840,-1.498692
1008.398438,-1.621218,6.606225,-4.292923,-0.846370
1008.402344,-4.120145,3.391622,2.907268,-0.800850
1008.406250,-0.555335,-1.711032,-1.514762,11.138071
1008.410156,3.903272,3.967474,7.447821,-0.178488
1008.414062,12.304887,5.454280,11.900999,6.844684
1008.417969,7.810019,13.193174,4.465207,11.101662
1008.421875,15.945730,13.000081,2.879894,1.991522
1008.425781,7.134363,6.382222,6.291462,7.551781
1008.429688,10.618513,9.016736,3.303174,5.464135
1008.433594,2.736785,15.728666,7.358242,5.472049
1008.437500,10.816571,4.746511,8.213833,6.643332
1008.441406,-0.221278,2.379380,-0.454439,7.153443
1008.445312,3.473942,1.036427,-0.512748,1.995062
1008.449219,5.066860,2.533279,1.306074,-3.344677
1008.453125,1.645191,-3.206865,-1.014614,-4.329382
1008.457031,0.731787,-7.631612,1.231398,-0.109562
1008.460938,-7.186145,-10.687974,-7.429378,-10.502441
1008.464844,-6.745457,0.408589,-3.170477,-0.934411
1008.468750,-13.158277,-18.124350,-9.394215,-3.645138
1008.472656,-8.867552,-12.187301,-11.718172,-7.039190
1008.476562,-7.744378,-10.880573,-5.724247,-11.588925
1008.480469,-8.974156,-5.200759,-5.962937,-7.559146
1008.484375,-8.434355,-7.030484,-9.837802,-4.891273
1008.488281,-4.738239,-4.842737,-3.991203,-10.079769
1008.492188,-9.042294,-4.998562,-4.543065,-2.197942
1008.496094,-3.090920,-5.285550,-5.726619,-1.146758
1008.500000,6.232407,-2.905642,2.762324,-3.633716
1008.503906,5.507033,-0.841166,-5.764533,0.403453
1008.507812,5.681313,3.669872,-0.832181,6.723080
1008.511719,1.021688,5.677538,7.003985,11.841685
1008.515625,17.759769,5.109829,8.876294,6.247063
1008.519531,5.536330,5.585255,6.197749,17.087975
1008.523438,6.769891,3.744616,10.178027,14.101647
1008.527344,12.157928,5.760352,1.382062,12.286733
1008.531250,13.591872,3.067991,9.273071,2.776529
1008.535156,10.482746,3.466275,5.720303,3.337216
1008.539062,7.426480,6.153740,11.431251,5.561279
1008.542969,6.387262,14.114037,3.216591,3.307901
1008.546875,3.144877,2.751225,9.718812,4.075849
1008.550781,2.219266,-4.174762,-1.066888,7.930241
1008.554688,-1.782303,-2.299961,-5.947681,-2.686037
1008.558594,-2.339502,-6.824548,-2.272606,-8.362402
1008.562500,-3.951309,-5.856213,-12.682990,-7.045172
1008.566406,-7.679571,-11.971949,-15.747196,-8.610181
1008.570312,-9.966955,-8.303074,-10.741427,-2.271957
1008.574219,-14.708567,-11.720467,-13.402083,-12.426831
1008.578125,-5.022919,-4.948948,-3.443288,-5.684873
1008.582031,-11.741640,-9.804021,-15.083127,-16.961649
1008.585938,-10.678620,-5.503679,-0.286007,-3.935601
1008.589844,-3.487849,-4.164311,-2.888020,-6.632743
1008.593750,-1.695978,0.716589,-2.748225,-9.490385
1008.597656,-4.720891,3.398620,3.187616,5.318763
1008.601562,5.287611,4.159392,3.274505,0.780373
1008.605469,1.463746,1.399597,6.409766,6.250164
1008.609375,5.797830,6.764236,3.826502,6.343309
1008.613281,10.135467,2.888708,7.705835,6.817978
1008.617188,8.156823,15.970556,19.082735,13.454870
1008.621094,-0.583197,8.409032,7.756642,4.772302
1008.625000,16.466732,9.106959,9.848699,15.363176
1008.628906,8.727325,5.953399,11.466559,9.983349
1008.632812,7.597835,14.733596,9.001527,3.010352
1008.636719,13.161015,3.593320,5.242509,2.559634
1008.640625,8.517434,5.502168,12.653633,5.235897
1008.644531,3.020630,0.368542,-1.508408,3.553279
1008.648438,3.276813,-0.445913,2.736775,5.288360
1008.652344,1.620796,-6.997893,2.003981,-2.290198
1008.656250,-4.344316,-2.171203,-3.685615,0.312445
1008.660156,-4.439996,-10.236647,-2.368457,0.196659
1008.664062,0.106569,-0.296088,-5.158156,-1.410580
1008.667969,-5.512775,-1.971363,-8.103040,-12.064474
1008.671875,-1.110063,-9.456877,1.122328,-17.947022
1008.675781,-13.296854,-9.438679,-12.540134,-9.815343
1008.679688,-9.003337,-9.241812,-11.741556,-11.822820
1008.683594,-9.778722,-11.549607,-5.028770,-3.736519
1008.687500,-5.733250,-2.209817,-14.489173,-2.438578
1008.691406,-3.339625,-3.803310,-8.475548,-6.448399
1008.695312,-4.622145,-0.126034,-2.024657,-0.398836
1008.699219,-10.179856,0.424159,3.267985,-2.023894
1008.703125,4.258366,2.177806,2.313662,-0.853216
1008.707031,-5.091234,2.442395,9.364328,8.491416
1008.710938,8.327003,3.520951,3.922546,5.506568
1008.714844,2.018976,9.717236,3.059014,5.430787
1008.718750,8.625113,9.197283,10.375725,18.515161
1008.722656,6.421269,7.556425,7.596627,11.754649
1008.726562,10.925577,8.122951,17.219167,8.135575
1008.730469,11.799586,13.933645,7.271152,10.298865
1008.734375,11.834662,9.841274,10.234340,8.688019
1008.738281,9.168837,9.981658,10.567321,3.011858
1008.742188,5.326427,9.455348,1.588106,3.624203
1008.746094,3.914373,1.130173,1.614093,2.221439
1008.750000,0.201099,-0.579996,-4.626073,-2.096895
1008.753906,-7.127102,-0.069929,-0.729698,-0.914128
1008.757812,1.775483,-0.974856,-0.173423,-0.452778
1008.761719,-5.619336,-4.503570,-2.879295,-4.156345
1008.765625,-5.611648,-9.420210,-7.983676,-5.098671
1008.769531,-13.115408,-14.632465,-10.792009,-10.431235
1008.773438,-13.234865,-3.038475,-12.785267,-13.954939
1008.777344,-12.083599,-11.105177,-4.529906,-16.301111
1008.781250,-11.213354,-10.194527,-11.070643,-3.425558
1008.785156,-7.778800,-12.522933,-9.007165,-13.845349
1008.789062,-8.146644,-2.833098,-9.417166,-8.715414
1008.792969,-3.569026,-2.145959,-1.398291,-5.021215
1008.796875,-3.297664,-3.174718,-6.792951,1.492464
1008.800781,3.559797,0.331303,-4.871317,1.242266
1008.804688,0.293806,3.534312,-0.218928,3.453538
1008.808594,0.798776,4.943390,0.309440,4.406088
1008.812500,7.466334,7.400785,7.368336,11.166614
1008.816406,8.915674,12.449217,8.987359,17.796389
1008.820312,2.249155,13.865600,12.782567,13.968052
1008.824219,15.679873,2.959634,19.336802,5.895867
1008.828125,20.586637,11.809877,-1.758059,1.660734
1008.832031,10.080314,11.100458,4.750263,9.209936
1008.835938,14.727986,7.981633,6.681587,12.282356
1008.839844,5.842878,3.708331,1.411694,7.118181
1008.843750,0.979055,3.764858,-1.840844,3.006310
1008.847656,3.001990,-1.929530,3.563527,5.717371
1008.851562,3.749638,-3.085126,-1.992714,1.903042
1008.855469,-3.999072,-5.855021,-3.909715,1.740094
1008.859375,-0.218516,-9.340216,-4.976186,-7.020086
1008.863281,-9.877697,-7.421774,-12.922447,-4.303144
1008.867188,-8.226322,-4.471907,-8.084170,-14.003488
1008.871094,-12.836055,-11.551102,-12.802021,-4.011502
1008.875000,-14.251030,-11.649477,-7.324367,-7.525777
1008.878906,-4.226809,-3.656395,-10.112396,-17.404408
1008.882812,-14.510716,-0.469917,-10.692933,-5.603247
1008.886719,-8.012357,-8.538302,5.052984,-6.939939
1008.890625,0.212031,-6.208207,-6.067926,-8.055655
1008.894531,-12.809249,-4.540920,-4.173652,-8.107142
1008.898438,-0.849249,2.826677,0.584393,-4.633019
1008.902344,0.990350,8.029145,-1.347920,2.344285
1008.906250,-4.760247,-0.627971,3.827178,2.595214
1008.910156,6.141449,6.365968,2.252673,7.239758
1008.914062,10.109789,9.678153,13.734705,10.765182
1008.917969,2.482062,8.699273,3.732525,10.606152
1008.921875,9.677449,14.573375,9.984959,8.731869
1008.925781,5.055513,15.227094,11.044830,13.742355
1008.929688,11.900878,9.974269,9.964916,9.563249
1008.933594,10.953643,11.538636,4.445066,7.224844
1008.937500,8.727471,12.452755,8.451728,7.530257
1008.941406,10.071765,3.278689,9.756196,2.653317
1008.945312,-7.921810,9.822755,7.503922,7.007655
1008.949219,3.950271,2.099963,-1.867802,7.763244
1008.953125,-3.871267,-2.061371,-3.709590,3.808986
1008.957031,4.742588,-7.474648,-3.684161,3.744811
1008.960938,-2.954651,-4.921271,-6.839273,-3.131471
1008.964844,-17.157076,-8.244825,-17.340777,-12.441762
1008.968750,-15.290745,-3.088193,-7.550182,-11.285056
1008.972656,-15.155340,-13.977170,-2.793081,-8.774813
1008.976562,-7.808860,-16.747515,-13.232117,-14.647438
1008.980469,-5.253090,-9.451041,-10.650583,-7.792500
1008.984375,-7.976149,-6.190175,-4.747594,-6.839404
1008.988281,-2.295738,-7.030406,-4.867798,-1.047270
1008.992188,-3.938153,-10.384247,-7.605288,-7.729336
1008.996094,-1.101005,-2.475882,0.111644,-6.097975
1009.000000,1.832268,4.977705,0.795258,-2.381832
1009.003906,13.071846,0.526266,3.289042,4.885278
1009.007812,3.287598,8.576984,10.871652,1.958629
1009.011719,0.423886,9.169480,10.565735,7.367680
1009.015625,7.207749,12.470716,8.955843,9.893412
1009.019531,7.612514,7.448067,7.726552,1.436668
1009.023438,12.028761,16.737334,20.197482,4.644796
1009.027344,17.365939,14.826040,12.940194,9.468475
1009.031250,11.871092,2.712858,4.175522,6.775030
1009.035156,8.549241,11.663049,3.260945,10.128612
1009.039062,5.642422,3.349713,8.004161,6.941434
1009.042969,0.936646,4.975829,2.971612,10.384128
1009.046875,5.805764,2.583708,9.116162,1.470836
1009.050781,0.468471,-1.729505,-6.038286,-0.163979
1009.054688,-4.340247,-1.336225,-6.289375,-4.093705
1009.058594,-8.534492,-9.750505,-5.512647,-7.987124
1009.062500,-3.963706,-8.161048,-8.212781,2.842877
1009.066406,-13.512621,-11.592566,-4.144028,-9.212139
1009.070312,-17.392083,-11.145920,-13.158272,-10.432436
1009.074219,-4.350774,-9.810919,-13.182210,-12.717747
1009.078125,-8.085541,-17.330880,-3.214935,-10.531108
1009.082031,-2.266528,-5.428407,-11.344654,-2.483497
1009.085938,-7.505991,4.276188,-4.832544,-1.956113
1009.089844,-5.797334,-6.408507,-1.525310,-5.144094
1009.093750,-5.755811,-2.501755,-6.860347,-4.417515
1009.097656,-8.305344,0.502682,-7.202213,-3.892308
1009.101562,-1.645109,2.574259,1.281020,-2.360098
1009.105469,0.138669,-2.627168,2.621210,0.120391
1009.109375,9.690450,6.754898,4.835585,4.950822
1009.113281,8.093104,6.136528,5.607082,6.295749
1009.117188,14.653861,10.807954,5.913599,9.015711
1009.121094,21.296706,9.179301,6.965750,2.214789
1009.125000,15.760753,14.696274,15.072366,13.922032
1009.128906,18.500704,4.151672,9.427641,15.049955
1009.132812,10.331505,10.092239,11.025895,7.106040
1009.136719,7.009208,9.054469,7.362512,2.275298
1009.140625,6.265335,3.354017,3.890369,12.514261
1009.144531,-1.209498,-6.845640,-3.172305,2.960911
1009.148438,0.202352,3.015254,1.211801,3.263512
1009.152344,-2.518197,-7.418557,-1.959604,0.853717
1009.156250,3.584860,-5.416895,-5.605168,2.748359
1009.160156,-1.380372,-4.799691,1.497585,-11.107899
1009.164062,-6.937737,-9.039974,-9.359038,-10.020833
1009.167969,-10.310261,-15.428615,-11.315165,-9.929733
1009.171875,-11.282811,-9.923351,-12.762071,-11.540417
1009.175781,-9.092884,-4.342729,-6.038323,-13.516212
1009.179688,-5.662523,-11.199231,-15.326011,-12.022255
1009.183594,-11.456021,-1.147252,-11.723528,-17.399611
1009.187500,-7.852086,-8.473637,-6.391898,-8.533436
