timestamp,TP9,AF7,AF8,TP10
1000.000000,-8.680152,4.450867,4.569628,-5.311928
1000.003906,-2.158777,2.674324,-1.402940,5.653683
1000.007812,1.045076,5.476551,8.471932,13.950395
1000.011719,6.129035,7.167890,5.720531,0.846443
1000.015625,11.456076,7.517635,9.675003,2.074987
1000.019531,7.574648,9.528036,0.808693,6.954301
1000.023438,8.830536,3.056736,16.384212,10.808945
1000.027344,10.071891,9.099283,3.376505,10.967933
1000.031250,13.411553,12.932114,7.177590,5.765618
1000.035156,9.460156,10.588592,17.351705,3.896561
1000.039062,11.882753,8.565143,4.530888,6.397159
1000.042969,3.162092,1.385252,2.301880,4.839228
1000.046875,-2.788270,3.532784,-4.508777,-0.273517
1000.050781,-6.636383,-6.560944,-1.019344,1.412870
1000.054688,-8.928330,-2.145041,-11.565119,3.212479
1000.058594,-6.341222,-4.595265,-2.139512,-12.532202
1000.062500,-7.432741,-8.121301,-8.003566,-6.666337
1000.066406,-8.225156,-8.479769,-14.197627,-5.258293
1000.070312,-15.595542,-12.235816,-12.950812,-11.693008
1000.074219,-5.377619,-3.729352,-13.711609,-3.326621
1000.078125,-10.332153,-10.055891,-9.481271,-11.100111
1000.082031,-15.678207,-9.205867,-6.720410,-14.182304
1000.085938,-2.674837,-5.805694,-10.480184,-11.640793
1000.089844,-0.148417,-11.651822,-1.833905,3.075389
1000.093750,-8.653350,-10.964173,-0.689054,-3.407075
1000.097656,-2.906972,3.669225,-6.715269,-9.169253
1000.101562,1.111334,5.947654,2.038837,-3.528927
1000.105469,-4.662969,4.395876,-3.463450,6.691942
1000.109375,6.252750,9.823875,11.160875,10.397943
1000.113281,12.422809,7.388530,8.962162,16.073623
1000.117188,5.843582,4.060825,11.185329,7.314878
1000.121094,15.710075,9.017881,9.514621,9.981555
1000.125000,12.336159,9.219951,12.293264,1.690111
1000.128906,10.513066,5.609938,9.540353,7.995106
1000.132812,5.611258,10.536321,-0.041609,10.800594
1000.136719,7.167426,9.942215,8.101907,11.192540
1000.140625,3.498525,-0.512264,3.848463,13.102549
1000.144531,9.152226,-3.239099,2.450212,10.655317
1000.148438,0.389889,3.202192,0.827188,3.637932
1000.152344,-3.061272,-1.607707,-0.276765,-4.333217
1000.156250,0.724254,-5.272033,1.994984,-2.397428
1000.160156,-7.995623,-9.525581,-11.777138,-5.100853
1000.164062,-8.730447,-10.611024,-10.111158,-7.700112
1000.167969,-4.184441,-5.211867,-11.517639,-6.178734
1000.171875,-9.393218,-13.788770,-14.971153,-7.215671
1000.175781,-14.134440,-1.737548,-5.474167,-9.636957
1000.179688,-8.152104,-10.401643,-11.256898,-17.575735
1000.183594,-4.785055,-6.705930,-2.095434,-14.140812
1000.187500,-8.685291,-2.654226,-9.759528,-14.236561
1000.191406,-3.965264,-4.140102,-3.888400,-6.756642
1000.195312,-6.669034,-0.614920,4.644633,-1.752928
1000.199219,1.669781,-1.862859,-1.292932,6.637170
1000.203125,4.937090,2.092347,-0.602257,4.342589
1000.207031,-2.245537,5.425283,2.537331,4.542431
1000.210938,11.834857,2.248488,-1.135982,11.188071
1000.214844,7.658662,7.462948,12.921893,8.464673
1000.218750,11.254194,5.902519,12.404668,2.026074
1000.222656,4.820442,7.787301,11.763948,15.049561
1000.226562,3.329296,6.390985,21.407272,10.080473
1000.230469,8.646236,11.167587,11.542769,13.542033
1000.234375,5.629904,8.444326,10.574533,8.473826
1000.238281,11.811616,9.158774,9.794981,-1.999868
1000.242188,3.179885,8.159619,4.354555,3.205935
1000.246094,3.886263,-0.890908,-2.165522,6.345860
1000.250000,-0.360279,2.863605,-0.732184,0.127147
1000.253906,2.876339,3.536433,-7.178502,-3.541391
1000.257812,-3.771610,-4.974841,-3.863183,-10.200178
1000.261719,-5.744837,-6.839782,-3.745356,-15.793718
1000.265625,-10.160091,0.253763,-11.860304,-12.359760
1000.269531,-11.382579,-14.096463,-8.183306,-5.200863
1000.273438,-1.886243,-11.801776,-6.795266,-8.053404
1000.277344,-9.775778,-10.687058,-13.200691,-9.906983
1000.281250,-10.793576,-3.854442,-11.237323,-10.501593
1000.285156,-8.808944,-12.713863,-10.951971,-5.992843
1000.289062,-5.152807,-9.416497,-10.191909,-4.322955
1000.292969,-2.234310,-7.011031,-5.104551,-1.745753
1000.296875,-4.731619,2.358178,2.529793,-7.055464
1000.300781,-0.705951,2.909282,0.727953,3.070535
1000.304688,4.793810,6.043303,3.601929,-3.576117
1000.308594,-0.718989,5.325027,6.078129,8.286491
1000.312500,6.457210,7.123079,5.277985,10.736573
1000.316406,6.325304,8.254726,5.098444,0.483159
1000.320312,12.992354,12.210118,3.079904,14.348605
1000.324219,6.908182,11.511067,6.644021,8.919707
1000.328125,11.785438,1.342122,8.913115,7.722822
1000.332031,5.394973,12.742803,9.076808,5.524247
1000.335938,11.248014,16.262489,3.543199,7.401322
1000.339844,7.355920,5.484385,2.025041,2.212992
1000.343750,8.865759,3.550455,3.662935,1.226749
1000.347656,4.645938,-2.016796,2.963963,-4.338882
1000.351562,-8.749414,-0.867981,-4.481009,-3.112687
1000.355469,-0.273450,-5.573384,-1.622837,-4.774882
1000.359375,-4.288651,-6.073005,-6.098025,-2.082441
1000.363281,-11.890924,-2.682899,-6.897255,-8.008297
1000.367188,-9.170430,-5.560979,-4.223815,-6.012390
1000.371094,-8.554019,-6.890865,-9.835391,-2.040366
1000.375000,-11.453292,-7.893213,-14.020716,-9.931788
1000.378906,-8.493230,-10.782418,-0.896968,-6.995413
1000.382812,-11.380894,-13.684545,-11.397561,-8.526427
1000.386719,-2.941093,-6.579994,-11.001450,-7.770210
1000.390625,-9.088577,-5.765181,-1.792401,-7.613240
1000.394531,-6.037942,-9.498947,-6.268382,-7.754637
1000.398438,-0.189725,-5.038928,-5.781492,-6.398034
1000.402344,6.168275,-5.162517,6.023814,5.601228
1000.406250,-0.617648,4.895881,4.326062,6.364771
1000.410156,4.392142,2.561930,2.139276,1.137974
1000.414062,10.088987,8.624979,12.198813,4.172448
1000.417969,12.102387,4.938935,11.516661,6.584825
1000.421875,10.822959,15.048614,6.425391,9.907025
1000.425781,8.957948,7.329165,12.870669,13.994488
1000.429688,8.123789,2.975865,2.530162,10.609690
1000.433594,-1.870006,9.457602,7.967837,3.984089
1000.437500,10.030735,13.045738,5.062230,5.496691
1000.441406,7.242172,9.010944,7.637365,-4.882095
1000.445312,4.289003,8.807042,4.239426,-1.176232
1000.449219,-1.277173,-4.131892,-2.492902,6.798077
1000.453125,-6.011027,-6.865941,-0.666283,-0.896249
1000.457031,-7.667098,-3.339805,-6.245839,-0.073692
1000.460938,-4.738354,-8.026312,-8.218488,-5.256246
1000.464844,-5.975833,-9.042115,-7.396839,-18.653907
1000.468750,-4.840635,-14.960461,-12.853680,-17.169852
1000.472656,-10.525857,-11.480099,-10.930098,-12.423470
1000.476562,-9.861703,-11.790157,-11.543074,-8.163870
1000.480469,-13.693096,-4.927487,-13.816910,-9.887756
1000.484375,-9.873344,-6.261819,-11.073285,-6.738911
1000.488281,-7.539072,-11.992032,-2.124921,-3.936773
1000.492188,-4.935431,-13.389923,-2.935133,-10.443071
1000.496094,-4.224647,-5.210308,-6.871128,-8.836955
1000.500000,-2.650041,-13.291141,-6.729584,-2.081216
1000.503906,13.133103,8.555294,1.768013,-3.530020
1000.507812,4.414689,1.193943,5.530324,4.180864
1000.511719,1.495600,9.786376,11.769637,4.019442
1000.515625,8.851252,10.794533,2.887138,19.002290
1000.519531,2.210902,12.203252,6.865795,8.469275
1000.523438,3.997876,5.203808,0.461316,5.908437
1000.527344,9.718718,11.041618,8.456827,7.588301
1000.531250,14.444042,8.597696,1.045430,10.584653
1000.535156,0.687101,12.762931,0.285809,1.249498
1000.539062,9.372550,4.661672,8.238311,9.437403
1000.542969,0.128872,5.697994,3.614980,3.658991
1000.546875,-3.077339,-5.248182,5.626255,3.275061
1000.550781,3.240611,-2.851503,-0.323910,-0.972485
1000.554688,-5.694570,-2.655896,-0.930505,-0.809196
1000.558594,-6.740994,-3.879616,-4.775638,-6.140536
1000.562500,-7.365249,0.379384,-3.839534,-16.261148
1000.566406,-3.357907,-17.955823,-14.058560,-5.325787
1000.570312,-12.440796,-15.098633,-16.639564,-10.000879
1000.574219,-11.298736,-9.558766,-6.601930,-14.023884
1000.578125,-13.606217,-7.217042,-13.119270,-18.671570
1000.582031,-11.692205,-10.256344,-7.290502,-8.879623
1000.585938,-11.820023,-17.158467,-10.832283,-7.891571
1000.589844,-7.068822,-3.576056,-10.728460,-5.098071
1000.593750,1.939516,-6.978309,-4.061241,-7.753682
1000.597656,-3.487673,-3.754051,-0.449767,-4.180321
1000.601562,3.961327,-0.914970,1.263866,-3.259542
1000.605469,0.554105,13.958712,2.537017,4.576855
1000.609375,7.832018,5.432158,5.208342,8.091896
1000.613281,6.371157,10.706826,17.561578,14.435355
1000.617188,7.743313,19.027536,6.567946,3.405232
1000.621094,7.876036,8.518796,7.272452,17.109629
1000.625000,15.180584,9.955403,6.522480,7.607802
1000.628906,5.782918,12.841760,10.575967,9.280969
1000.632812,10.102847,6.651974,11.896998,8.956977
1000.636719,13.032515,1.920952,9.844948,12.185645
1000.640625,13.205113,9.360358,7.617487,11.636393
1000.644531,0.918712,1.549344,0.053091,6.986157
1000.648438,0.427540,-3.160028,-6.987317,-4.095814
1000.652344,-3.065037,-10.090210,3.912204,-3.193711
1000.656250,-7.325035,-1.927789,-1.083754,-5.486858
1000.660156,-6.852661,-9.646695,1.555362,-1.557223
1000.664062,-8.420224,-11.552282,-0.672344,-3.330835
1000.667969,-9.820125,-11.296969,-2.928336,-6.964149
1000.671875,-7.793941,-7.489201,-9.807628,-16.117191
1000.675781,-12.230216,-12.449684,-12.087808,-10.836171
1000.679688,-9.945262,-5.893760,-6.636129,-6.692351
1000.683594,-10.019640,-11.939349,-7.401761,-2.701256
1000.687500,-12.793324,-6.082660,-7.375076,-9.169223
1000.691406,-3.645848,-0.340080,-4.210908,-3.430880
1000.695312,-7.655622,-2.145083,-7.020529,-1.820176
1000.699219,-2.687686,-1.002625,-0.884260,-1.816127
1000.703125,2.839891,-0.645679,-1.850931,-5.975418
1000.707031,9.959701,-0.415889,6.547422,-1.898809
1000.710938,4.701013,10.605911,6.051467,4.524259
1000.714844,8.992810,4.137709,6.903140,10.595118
1000.718750,11.596818,13.968865,5.263360,11.898334
1000.722656,6.173508,6.350792,11.925599,14.107385
1000.726562,15.297767,14.381354,8.563323,11.863425
1000.730469,6.901630,0.136252,15.723712,1.127609
1000.734375,8.469254,6.076986,9.097269,9.140149
1000.738281,5.697756,9.688363,4.456739,11.946522
1000.742188,9.364748,5.349137,-4.467243,7.546362
1000.746094,1.631201,-0.606524,10.330335,0.954155
1000.750000,4.891226,-4.466165,2.636208,-5.843554
1000.753906,6.534390,4.546365,-5.372723,-8.473055
1000.757812,-4.888362,-8.000552,1.796022,-4.135422
1000.761719,-7.943181,-5.460226,-2.440538,-6.372371
1000.765625,-14.545405,-3.513392,-8.172358,-6.041099
1000.769531,-12.107028,-7.845371,-16.296090,-7.430962
1000.773438,-12.937158,-2.195108,-15.446611,-9.302395
1000.777344,-2.343114,-5.327118,-11.470867,-6.982422
1000.781250,-10.623159,-10.759684,-14.385439,-9.095000
1000.785156,-3.204117,-17.186016,-6.593899,-8.076105
1000.789062,-6.413726,-4.429504,-6.171934,-7.500078
1000.792969,2.730416,-8.345618,-4.245774,-3.492245
1000.796875,-1.276179,-4.659453,-3.940453,-1.155078
1000.800781,-0.348312,0.165733,-4.338879,1.824125
1000.804688,0.094781,2.004819,7.700667,-2.745829
1000.808594,13.516144,5.819261,9.389963,6.129861
1000.812500,4.825318,8.115252,8.334395,6.599949
1000.816406,11.124526,4.009746,11.845186,15.581850
1000.820312,9.157228,12.073065,6.268865,8.924618
1000.824219,14.580978,5.569832,10.150753,-1.128305
1000.828125,7.570886,5.032555,7.706360,13.278968
1000.832031,10.166812,10.607350,3.596678,2.172495
1000.835938,9.393652,16.666593,-6.631280,8.428743
1000.839844,2.179669,7.753047,4.282381,4.466886
1000.843750,5.640618,5.814775,7.999020,8.418302
1000.847656,2.332030,-6.945032,-5.356997,-0.412962
1000.851562,3.793017,0.026588,-1.464458,-1.300439
1000.855469,1.976881,-0.658326,-5.555941,-5.802165
1000.859375,-8.551108,-9.384139,-9.631048,-0.784305
1000.863281,-6.245545,-8.348172,-10.759381,-4.367658
1000.867188,-7.406521,-11.926030,-6.179049,-5.948198
1000.871094,-5.515751,-9.412556,-6.212153,-12.463247
1000.875000,-8.171250,-11.712816,-17.009895,-12.779938
1000.878906,-11.204550,-0.867788,-7.647048,-10.847120
1000.882812,-6.575753,-12.413033,-1.632100,-7.666523
1000.886719,-10.296911,-13.377420,-5.687114,-8.653874
1000.890625,-5.157734,-5.806621,-12.494104,-10.706985
1000.894531,-4.587804,1.599721,-0.149182,-8.575624
1000.898438,-2.655164,-1.381711,0.089185,-10.481701
1000.902344,-1.098431,-2.731989,1.631128,3.464527
1000.906250,6.224701,-4.374898,4.800150,-3.076332
1000.910156,2.581190,4.851332,9.164776,9.953607
1000.914062,9.282615,12.596415,3.632561,14.382267
1000.917969,3.355439,13.145478,5.718446,-1.373923
1000.921875,14.925212,9.554960,9.516295,9.476652
1000.925781,12.601892,15.175163,14.407686,5.518477
1000.929688,19.153244,6.603250,9.195999,7.915636
1000.933594,2.290464,7.956395,2.064337,7.193475
1000.937500,3.508233,8.249009,5.197771,17.378331
1000.941406,0.272488,3.635572,1.941408,3.756523
1000.945312,1.650899,-1.757599,3.709145,3.139076
1000.949219,2.554661,-0.956393,3.087320,1.840697
1000.953125,9.190934,-1.512641,-1.566215,-2.477861
1000.957031,-4.332930,-7.045205,-8.094155,5.851519
1000.960938,-18.496771,-5.305862,-7.261566,-2.146017
1000.964844,-4.701357,-12.487113,-5.595308,-8.842519
1000.968750,-9.709556,-10.837161,-8.511939,-3.509582
1000.972656,-12.188984,-6.038565,-15.129051,-10.339817
1000.976562,-4.607725,-10.547520,-9.114053,-2.344621
1000.980469,-4.770058,-13.161940,-12.882042,-16.139454
1000.984375,-4.238077,-8.736382,-10.246230,-4.703021
1000.988281,-7.836044,-4.513745,-4.185369,-13.215595
1000.992188,-7.098844,-9.970030,-1.712353,-4.010059
1000.996094,-1.823661,5.123003,4.731597,-4.271770
1001.000000,-1.381710,4.539254,0.310607,1.672096
1001.003906,-0.685616,4.901434,2.737718,0.849034
1001.007812,3.869536,2.930795,10.468098,7.592920
1001.011719,0.948661,8.711308,9.370808,6.272097
1001.015625,-0.902995,4.445460,11.982770,-1.982390
1001.019531,3.652401,8.119118,9.488243,9.318231
1001.023438,8.418147,4.006003,12.749582,10.650450
1001.027344,6.835356,12.530900,10.901579,8.670018
1001.031250,6.894843,14.667622,12.976142,13.367463
1001.035156,7.322740,4.239197,4.218383,11.187659
1001.039062,10.980037,4.983269,6.008245,20.484549
1001.042969,4.842429,3.928612,0.467275,5.842319
1001.046875,-1.734162,3.556692,4.669090,2.658532
1001.050781,9.005909,-3.471257,0.846188,1.316000
1001.054688,5.424982,-6.053986,-2.651509,-0.089724
1001.058594,-2.492183,-5.235831,-6.261577,-6.971093
1001.062500,-2.421641,-9.673647,-10.542377,-5.883702
1001.066406,-7.967289,-10.604670,-7.684574,-1.760338
1001.070312,-8.851903,-18.799388,-14.828927,-3.715135
1001.074219,-7.817275,-10.881442,-8.883219,-13.967775
1001.078125,-13.877674,-7.222464,-8.189762,-10.654537
1001.082031,-15.500568,-5.935433,-11.763550,-10.895553
1001.085938,-7.833218,0.567661,-13.143607,-13.726984
1001.089844,-4.808911,-7.019889,-4.439371,-4.459054
1001.093750,-5.990097,-3.711724,-7.032120,-4.020209
1001.097656,-3.833523,3.401762,-1.144678,2.952667
1001.101562,9.150000,-1.708986,4.326109,-2.451547
1001.105469,-3.871817,4.808933,1.932505,-6.098979
1001.109375,2.501887,2.809799,6.380204,6.260112
1001.113281,9.272574,12.054947,8.535738,8.859150
1001.117188,5.095635,10.453855,9.784451,5.520954
1001.121094,9.894012,8.733298,11.237589,10.613930
1001.125000,13.029715,4.005369,14.248424,10.877386
1001.128906,10.132903,14.017053,8.525610,10.351785
1001.132812,13.193965,10.274942,4.620001,12.339686
1001.136719,2.901260,4.281604,13.871119,6.837530
1001.140625,4.126738,5.032015,5.083953,1.738421
1001.144531,2.523995,7.189617,2.986822,7.568398
1001.148438,-1.694109,3.648901,-1.341984,-1.834078
1001.152344,-3.974127,3.432202,3.611209,-1.015847
1001.156250,-0.644999,-6.742361,0.250121,-3.947046
1001.160156,-3.997043,-10.130877,-2.639748,-4.106798
1001.164062,-4.713839,-11.257472,-12.174538,-9.728525
1001.167969,-2.937853,-5.714299,-4.664637,-6.909497
1001.171875,-15.755737,-10.488692,-9.311779,-8.841776
1001.175781,-11.405765,-7.975679,-7.665154,-0.890715
1001.179688,-16.245826,-6.697772,-14.260706,-16.302059
1001.183594,-4.691277,-13.102812,-5.136039,-16.817653
1001.187500,-3.545616,-8.673881,-9.358427,-7.784659
1001.191406,-5.679315,-5.490771,-16.207529,-2.173506
1001.195312,3.088734,-3.354131,-3.092848,-3.655044
1001.199219,8.932193,11.902522,-0.321810,0.455009
1001.203125,3.876354,-7.478021,1.112867,-0.377169
1001.207031,8.271309,3.721135,-2.755643,2.736907
1001.210938,5.593104,5.939199,5.695002,4.328902
1001.214844,10.310562,12.489964,8.379768,8.035635
1001.218750,13.769454,8.539906,5.503587,8.581564
1001.222656,10.849948,11.781046,6.109930,8.028388
1001.226562,9.578408,5.934938,13.878343,3.947635
1001.230469,8.779526,9.337537,11.225592,10.361435
1001.234375,9.167613,15.327051,6.425823,12.318729
1001.238281,4.774480,3.185996,3.773102,12.710723
1001.242188,3.244509,1.771075,4.020297,1.689995
1001.246094,-0.477213,6.098032,1.163150,0.113642
1001.250000,9.577279,8.507085,-5.084175,2.641363
1001.253906,-6.596484,-1.475101,-3.023767,1.106221
1001.257812,1.660253,3.659942,-6.445943,3.538688
1001.261719,-9.107267,-5.887141,-6.658438,-4.083620
1001.265625,-3.853146,-13.806814,-9.437760,-12.792728
1001.269531,-15.790938,-8.735497,-7.365560,-10.590999
1001.273438,-6.496313,-8.474079,-13.145763,-11.185855
1001.277344,-15.299069,-10.851492,-10.668103,-15.644069
1001.281250,-13.135891,-2.905126,-9.983888,-6.031999
1001.285156,-10.122411,-7.744763,-8.374261,-9.449877
1001.289062,-9.704755,-2.251811,-6.244871,-2.214196
1001.292969,-1.882129,-1.400910,-14.783689,-6.426717
1001.296875,-0.548174,7.394176,-2.937097,3.408763
1001.300781,-2.765949,-4.944844,3.458386,1.153633
1001.304688,-2.121869,9.648953,3.911348,4.961782
1001.308594,4.648344,5.837287,13.032781,6.075538
1001.312500,3.008966,6.325203,-0.117067,10.175335
1001.316406,5.263705,4.351953,9.309608,1.894903
1001.320312,15.901693,7.521129,12.193959,6.920807
1001.324219,9.043461,12.124084,16.863619,5.817089
1001.328125,2.431140,9.259942,5.903707,9.226287
1001.332031,8.917693,9.275352,10.297354,8.338026
1001.335938,13.979276,13.007065,4.883895,6.798646
1001.339844,4.257043,15.306542,8.616112,12.576451
1001.343750,3.433521,10.698943,11.680072,5.025727
1001.347656,5.902233,3.978255,7.852937,1.546449
1001.351562,2.643059,4.111692,-5.519587,-3.377936
1001.355469,3.188994,-7.739506,-6.615384,-1.236892
1001.359375,-7.365294,-1.595460,0.239126,-7.017539
1001.363281,-3.211314,-2.910016,-11.611449,-13.062010
1001.367188,-7.700730,-11.133423,-2.895935,-7.898536
1001.371094,-6.645241,-4.501210,-11.557454,-6.282414
1001.375000,-12.574945,-8.824200,-10.440047,-0.740362
1001.378906,-9.386513,-9.677608,-4.558348,-11.305922
1001.382812,-7.742400,-17.984055,-5.581244,-6.810521
1001.386719,0.527491,-1.156033,-4.648689,-8.335347
1001.390625,-7.829808,0.409218,-8.875934,-3.457828
1001.394531,-10.218015,-2.310186,-6.020948,-2.546137
1001.398438,-0.110377,0.227304,-3.427994,2.394633
1001.402344,-3.593420,5.717873,-6.618208,-2.988896
1001.406250,2.477844,-4.992019,2.977426,8.014838
1001.410156,6.880943,12.065779,5.289209,9.752285
1001.414062,9.050915,9.211898,8.468268,4.013815
1001.417969,7.028184,6.628767,6.357391,11.975560
1001.421875,10.681197,8.814431,5.734433,12.540820
1001.425781,6.510792,20.361660,7.073959,13.518459
1001.429688,9.499496,10.328344,8.990096,6.083405
1001.433594,6.027653,9.969466,2.634174,8.477645
1001.437500,6.526230,11.648249,10.666923,6.137118
1001.441406,1.803990,-2.043112,9.867054,3.538692
1001.445312,-1.585638,-0.232987,6.706193,5.498843
1001.449219,0.553952,3.139921,0.066444,1.230938
1001.453125,-0.085365,4.913164,-4.566761,-1.099251
1001.457031,-5.149649,-0.727713,-8.866188,-7.009462
1001.460938,-1.411382,-12.948274,-10.253577,-8.879686
1001.464844,-7.956819,-6.392661,-8.710786,-5.632660
1001.468750,-9.994574,-5.678817,-5.584106,-7.293604
1001.472656,-11.042618,-6.512279,-7.461530,-12.039785
1001.476562,-7.402253,-11.975784,-11.948640,-11.261931
1001.480469,-4.362070,-5.085471,-14.894963,-12.955324
1001.484375,-18.662603,-3.043758,-4.437579,-7.583476
1001.488281,-9.517380,-7.339627,-12.242082,1.220771
1001.492188,-3.471500,-0.550636,-4.535149,1.667715
1001.496094,-0.870047,-1.906696,-12.352605,-2.239986
1001.500000,3.012055,-0.234433,4.532901,1.613465
1001.503906,3.400836,2.730407,-2.285419,3.224034
1001.507812,-1.739594,7.454026,12.187153,4.690180
1001.511719,9.244982,12.061912,4.256323,4.021702
1001.515625,-2.992782,10.986208,5.568724,7.175095
1001.519531,10.407235,14.346572,5.050343,7.599502
1001.523438,13.556474,15.386509,12.986629,5.765348
1001.527344,11.375605,7.704105,9.085837,16.845870
1001.531250,11.964555,8.603075,7.655589,6.134043
1001.535156,2.649571,6.181601,7.340575,4.756767
1001.539062,5.471103,17.064571,5.109955,7.544655
1001.542969,1.042426,4.642715,6.067835,10.493040
1001.546875,3.240998,7.732889,9.465396,3.521905
1001.550781,0.988878,4.641987,1.746255,-4.582798
1001.554688,-8.428292,-2.961085,-6.122354,-0.357541
1001.558594,-6.507968,-6.369673,-5.187203,-6.146594
1001.562500,-10.325865,-7.411426,-5.089330,-4.686908
1001.566406,-9.755484,-15.539255,-10.679356,-8.511510
1001.570312,-8.137505,-18.107740,-10.895207,-11.837890
1001.574219,-5.428715,-10.276791,-12.447747,-13.029349
1001.578125,-9.209006,-6.361741,-9.120569,-7.348839
1001.582031,-5.023638,-17.453525,-5.406510,-8.513618
1001.585938,-7.151815,-7.419371,-3.329279,-1.609105
1001.589844,-4.221448,-8.823714,-5.940791,-10.715268
1001.593750,-3.208643,-12.582442,-7.060509,-2.355172
1001.597656,-5.167378,3.805198,1.413142,-4.989881
1001.601562,-3.225980,1.017520,-2.420126,-5.105844
1001.605469,3.424408,7.715768,10.074986,9.617925
1001.609375,4.117663,6.300019,6.514640,0.339455
1001.613281,7.536233,0.283793,7.539220,-0.746150
1001.617188,7.195009,11.720994,7.513385,9.803619
1001.621094,11.084910,10.492596,7.002872,8.946962
1001.625000,6.736116,11.715768,9.192872,5.991211
1001.628906,6.824836,16.052554,3.839573,10.819012
1001.632812,10.846262,1.300061,5.138273,10.832707
1001.636719,8.053447,10.850912,3.654190,11.861331
1001.640625,2.697643,8.315442,10.964850,4.318503
1001.644531,5.138720,12.164270,1.169228,3.811352
1001.648438,3.140011,-1.400616,-0.649873,-3.450421
1001.652344,-1.266743,-4.629028,-1.587492,-6.967563
1001.656250,-4.377528,-3.235180,-4.592651,-1.635608
1001.660156,-4.200877,-4.775189,-6.762133,-8.337898
1001.664062,-1.067635,-5.795342,-6.404272,-8.931858
1001.667969,-9.766755,-9.347458,-6.873477,-8.682399
1001.671875,-8.186430,-16.417659,-7.205305,-5.215409
1001.675781,-10.332006,-15.192744,-11.424632,-6.775598
1001.679688,-10.135943,-4.631595,-2.714558,-13.423540
1001.683594,-6.538795,-2.913119,-8.509800,-8.048104
1001.687500,-8.261078,-11.980713,0.608285,-10.677805
1001.691406,-1.906607,-6.434382,-3.777733,-8.766914
1001.695312,-10.840911,-5.840009,1.620062,-12.118625
1001.699219,1.651046,6.643878,-3.592251,6.726395
1001.703125,3.769935,8.344128,-0.827437,4.898486
1001.707031,2.191957,2.934071,2.036559,8.578368
1001.710938,8.557803,6.805836,5.163018,-1.312251
1001.714844,8.799200,6.711917,10.093631,9.084354
1001.718750,5.744003,14.070573,10.744739,4.912048
1001.722656,7.177962,16.615260,9.916773,7.156982
1001.726562,11.158690,5.520824,8.157740,10.937430
1001.730469,12.080298,10.434503,14.745033,12.105469
1001.734375,9.774443,4.657068,10.591701,12.004323
1001.738281,6.031120,11.803229,11.383746,4.848031
1001.742188,6.305780,6.170778,8.580237,0.255696
1001.746094,2.371365,7.173586,3.864394,5.459423
1001.750000,5.240187,-5.799810,1.625685,-7.203668
1001.753906,-2.876433,-3.386344,0.567867,8.329723
1001.757812,-7.204771,0.834925,-12.242041,-2.651669
1001.761719,-6.103212,-3.073711,-7.699828,-5.852641
1001.765625,-14.690253,-11.968534,-9.851731,-8.565547
1001.769531,-9.744505,-8.405074,-8.302426,-7.650520
1001.773438,-10.464062,-4.990284,-16.345943,-14.321841
1001.777344,-18.253896,-16.508760,-6.071936,-11.382225
1001.781250,-9.902489,-12.727991,-7.856504,-10.225648
1001.785156,-1.840916,-5.683857,-10.931390,-11.988842
1001.789062,-8.998778,-6.347680,-6.425490,3.017275
1001.792969,-1.713645,-0.443983,-6.951421,-5.705772
1001.796875,-3.708095,1.951546,-4.459758,-5.731623
1001.800781,3.109530,2.867360,-1.074404,0.378862
1001.804688,-1.957108,0.958787,3.435730,5.772824
1001.808594,7.873980,2.966311,15.126211,7.823278
1001.812500,3.780357,1.980409,12.018511,7.623908
1001.816406,8.414897,13.916438,9.514745,6.263745
1001.820312,10.103022,8.520330,6.084423,9.217411
1001.824219,8.696535,13.754189,2.905516,4.953491
1001.828125,17.698578,14.901111,12.689023,5.111680
1001.832031,13.416905,4.364445,13.360599,13.477997
1001.835938,0.890549,9.190108,-2.048809,4.129940
1001.839844,10.405171,9.343350,2.509262,3.898155
1001.843750,6.550498,12.215547,9.262868,7.912581
1001.847656,0.068046,-3.831173,1.213307,-0.471231
1001.851562,-0.213832,-0.325864,-3.370206,-2.212836
1001.855469,-4.274915,-2.589163,2.178822,-0.954011
1001.859375,-11.372284,-12.401559,-2.639302,2.140448
1001.863281,-14.659954,-4.804223,-6.847951,-7.035816
1001.867188,-12.982279,-7.289662,-16.732341,-8.699939
1001.871094,-12.493215,-6.527875,-15.185724,-15.516454
1001.875000,-11.294904,-7.888673,-18.628523,-10.821559
1001.878906,-13.571101,-15.822153,-16.515530,-13.895252
1001.882812,-4.732785,-9.424508,0.088269,-8.855043
1001.886719,-3.358773,-2.482794,-5.446738,-3.996014
1001.890625,-3.516759,-0.526863,-8.886532,-12.629792
1001.894531,1.393513,-4.280330,-6.069869,5.732660
1001.898438,-5.344019,-0.142966,0.707524,-2.803326
1001.902344,-1.360964,6.782916,-1.437239,2.592324
1001.906250,6.710908,5.159644,-0.091083,9.515308
1001.910156,8.715486,7.347080,13.159529,6.201643
1001.914062,4.530440,11.185256,12.328253,16.159075
1001.917969,10.226007,3.617292,2.553702,4.990168
1001.921875,9.094308,8.613545,17.124295,13.095324
1001.925781,2.790467,8.435493,12.678892,4.985224
1001.929688,9.647130,13.983686,3.965205,10.391346
1001.933594,7.664949,10.702917,9.387919,6.520883
1001.937500,4.177270,8.108139,11.705276,3.507304
1001.941406,6.529231,4.249066,1.568270,6.790319
1001.945312,10.558264,0.523706,0.471724,2.383682
1001.949219,4.078796,-1.610736,1.945721,-2.294162
1001.953125,4.231404,-2.083774,-0.357440,7.337769
1001.957031,-7.321057,-13.208452,7.279637,-7.129101
1001.960938,-12.991284,-2.155495,-3.408855,-8.560509
1001.964844,-13.703692,-7.658079,-7.800874,-0.685376
1001.968750,-17.291058,-10.761804,-13.834318,-0.181196
1001.972656,-6.470368,-4.840807,-13.540038,-5.856734
1001.976562,-8.776950,-7.894127,-11.185377,-7.407270
1001.980469,-14.464621,-7.281144,-9.747575,-7.336474
1001.984375,-9.046691,-14.267574,-9.874762,-6.542216
1001.988281,-2.870556,-3.147683,-8.073940,-2.020294
1001.992188,-1.235535,-0.596072,-3.282662,-3.306640
1001.996094,1.187154,-3.281244,-1.768188,-4.788427
1002.000000,-1.806946,4.689845,-0.422106,-5.978491
1002.003906,1.120855,6.653926,2.069823,-3.382821
1002.007812,-1.985776,8.298069,3.751718,5.666543
1002.011719,-0.540779,4.300612,7.764804,1.168781
1002.015625,15.663878,4.653986,1.192284,5.384343
1002.019531,10.099313,9.378244,8.281552,6.925155
1002.023438,10.854476,1.012255,-0.441675,7.739236
1002.027344,11.869375,8.545857,6.256340,13.511035
1002.031250,13.483576,7.648464,9.618944,2.134564
1002.035156,3.094537,17.311811,5.826780,9.295743
1002.039062,6.878685,3.339526,8.603595,7.810324
1002.042969,6.102629,-2.553164,6.553614,1.271167
1002.046875,7.855898,-5.953003,0.169282,-4.384564
1002.050781,-2.698460,-1.000329,1.355051,-1.569047
1002.054688,4.147470,-8.052366,-2.293328,-1.591820
1002.058594,0.009702,-1.440216,-6.272209,-6.497253
1002.062500,-11.316795,-11.874523,-9.606720,-4.735427
1002.066406,-8.883536,-3.384511,-6.188732,-7.267520
1002.070312,-12.738939,-6.624283,-3.543092,-8.791177
1002.074219,-6.127099,-14.710159,-11.040012,-7.191652
1002.078125,-14.714147,-9.372428,-8.894930,-0.537587
1002.082031,-11.759066,-1.982743,-8.667725,-10.510765
1002.085938,-8.568146,-0.484306,-7.310533,-11.944845
1002.089844,-6.035596,-11.610624,-5.926351,-0.362729
1002.093750,-6.178249,-3.666340,-2.422683,-5.163299
1002.097656,-3.412907,-0.611575,-5.026530,0.573226
1002.101562,0.467610,-3.346242,-0.689008,1.771949
1002.105469,9.833880,-1.946673,4.274238,6.428847
1002.109375,1.669287,8.615155,11.374635,1.076788
1002.113281,3.601224,5.385340,15.639407,11.986243
1002.117188,7.656021,12.098983,8.217281,6.486496
1002.121094,1.372827,7.324613,7.976207,10.367946
1002.125000,5.592553,8.986247,13.569305,13.431398
1002.128906,11.902309,8.404031,10.693468,16.146654
1002.132812,11.628604,7.833215,4.054722,2.785826
1002.136719,9.867487,6.155463,4.368754,3.897333
1002.140625,6.847372,3.744430,6.355419,4.350202
1002.144531,10.078372,5.515242,6.274568,2.754998
1002.148438,-3.602008,3.206498,-1.429326,-3.599531
1002.152344,-1.413336,-1.276174,-2.985836,8.468335
1002.156250,0.101479,-9.040719,-11.299830,-9.810047
1002.160156,-3.115457,0.099154,-9.522967,2.575184
1002.164062,-7.929265,-4.399178,-3.138355,-6.600603
1002.167969,-4.679549,-8.587608,-5.139530,-5.977676
1002.171875,-10.967146,-11.531638,-12.532551,-11.908433
1002.175781,-10.708863,-12.959552,-10.522361,-9.696708
1002.179688,-14.173603,-8.731325,-10.286659,-9.886864
1002.183594,-10.106185,-12.664764,-9.228537,-8.161741
1002.187500,-8.698928,-8.769069,-8.725428,-6.683015
1002.191406,-0.689252,-8.105176,-4.807894,-4.661054
1002.195312,-6.122241,-0.023996,-0.532616,-6.099092
1002.199219,-0.667431,-4.073377,5.106876,-5.650899
1002.203125,4.150431,4.365991,-2.295510,-1.107291
1002.207031,1.691674,2.975736,6.790548,0.050914
1002.210938,3.574799,5.204916,3.143093,6.933012
1002.214844,6.998867,5.431466,11.445096,7.565097
1002.218750,3.915388,1.114758,10.987313,8.046518
1002.222656,13.928622,6.145564,1.082448,9.515490
1002.226562,14.630934,18.141901,17.103710,9.984436
1002.230469,9.635111,7.700882,14.756921,15.001259
1002.234375,8.211786,7.965618,7.565216,10.366248
1002.238281,9.963505,8.018060,8.139838,11.194941
1002.242188,6.049647,1.538920,5.954736,6.623382
1002.246094,-0.856330,6.018449,-0.383346,5.788915
1002.250000,3.065319,2.180527,3.441458,-0.886505
1002.253906,-4.900898,-2.260246,-0.351287,-8.160494
1002.257812,-4.985093,-0.539020,-8.813248,2.341650
1002.261719,-3.418018,-11.674200,-2.498508,-1.214312
1002.265625,-9.528906,-0.389568,-8.691607,-8.150500
1002.269531,-9.725867,-6.880129,-10.832822,-11.939539
1002.273438,-11.053956,-15.625488,-10.798834,-16.083207
1002.277344,-6.082108,-10.129271,-4.271508,-11.915427
1002.281250,-8.295271,-9.911653,-1.747159,-6.049430
1002.285156,-10.258802,-14.298739,-3.236295,-4.259845
1002.289062,-0.405809,-0.615322,1.938481,-13.198579
1002.292969,-5.601249,-0.686676,-3.023139,-4.489227
1002.296875,-6.064720,-1.731179,-7.675297,-1.338574
1002.300781,2.348081,8.367072,-6.005831,-0.636578
1002.304688,3.462908,2.173120,12.814734,5.011069
1002.308594,3.648087,7.494596,8.588338,0.606116
1002.312500,-4.735765,9.831946,5.025827,5.058813
1002.316406,12.286251,8.528611,6.032139,4.748903
1002.320312,16.123114,16.333344,13.042898,10.751435
1002.324219,12.288098,9.644919,2.192862,9.068190
1002.328125,7.492713,7.660026,8.451182,12.657566
1002.332031,4.054774,3.896931,7.317357,5.784601
1002.335938,7.935316,11.878567,0.998387,11.794333
1002.339844,16.313371,6.776939,0.101193,7.082394
1002.343750,0.256120,4.465939,2.596451,0.418380
1002.347656,4.190608,-1.994171,1.355480,2.778992
1002.351562,2.269275,-2.132330,-4.237087,2.689817
1002.355469,-6.512452,-9.162363,-10.748257,-1.365018
1002.359375,-4.440554,2.534263,-2.663291,-4.918782
1002.363281,-8.377568,-6.204203,-7.386501,-7.184439
1002.367188,-7.051300,-14.273053,-14.170183,-3.234901
1002.371094,-8.474986,-13.535770,-6.874000,-8.709893
1002.375000,-13.406018,-12.025780,-17.524437,-4.184757
1002.378906,-6.082400,-14.268241,-18.957729,-7.764523
1002.382812,-10.853755,-6.597795,-14.253531,-6.593859
1002.386719,-13.140688,-10.648752,-9.402880,-9.160415
1002.390625,-7.941002,1.354081,2.598545,-7.393526
1002.394531,-6.949426,-5.393097,-8.758718,-8.260922
1002.398438,2.184017,-5.170272,2.295945,2.547077
1002.402344,2.316725,2.952248,1.118180,3.704617
1002.406250,3.045596,1.131245,-0.442558,6.931228
1002.410156,4.561705,7.124154,8.224647,-2.839352
1002.414062,13.700673,8.886960,7.387607,3.314066
1002.417969,10.290037,9.603064,10.965600,3.343780
1002.421875,15.040434,14.737160,15.179809,4.546880
1002.425781,5.453978,6.547208,9.042489,7.770444
1002.429688,13.722949,12.559701,6.446176,3.156995
1002.433594,8.338121,8.502374,11.091875,11.479663
1002.437500,2.202167,3.832241,5.518272,3.397881
1002.441406,11.588064,2.933053,3.361790,3.299201
1002.445312,7.262914,-4.100468,4.372841,-2.345705
1002.449219,-6.596036,3.325608,3.774186,3.805501
1002.453125,0.254290,2.294801,0.525081,4.224822
1002.457031,-0.142169,-5.136168,-1.915846,-4.512410
1002.460938,-2.996216,0.658642,-5.866945,-6.945061
1002.464844,-7.098401,-11.740260,-8.019215,-12.377407
1002.468750,-12.170824,-16.229189,-11.239675,-11.139354
1002.472656,-12.699410,-6.715410,-11.177970,-13.123472
1002.476562,-12.814685,-6.972950,-6.202313,-10.083118
1002.480469,-11.017665,-4.822784,-11.963679,-13.064689
1002.484375,-12.064648,-3.128912,-15.629300,-3.336434
1002.488281,-5.242235,-1.576438,-2.362336,-10.991878
1002.492188,-6.172917,2.060383,-3.744467,2.127889
1002.496094,-8.002253,0.991366,-2.161747,2.857150
1002.500000,-0.061122,-2.077424,-2.041486,-0.048074
1002.503906,-1.791129,3.724460,0.541515,4.488489
1002.507812,5.159176,7.810262,0.561393,1.252773
1002.511719,-0.000114,3.330568,8.941240,7.404986
1002.515625,8.269252,12.980465,8.119342,7.077726
1002.519531,17.850562,14.846396,12.877599,5.752189
1002.523438,8.233327,8.677597,11.843871,6.512937
1002.527344,8.453427,7.778502,17.127529,11.294420
1002.531250,6.382365,4.481396,20.536137,7.445088
1002.535156,6.525936,1.896055,1.889635,4.949776
1002.539062,-0.510850,9.253182,12.695400,8.956931
1002.542969,2.773494,6.770516,14.172832,1.567566
1002.546875,4.605026,-1.305519,0.658402,-0.865065
1002.550781,-4.796037,6.069330,-2.945514,1.652832
1002.554688,-3.702101,-1.258695,1.581240,-5.387224
1002.558594,-8.455901,-1.543557,-5.703635,-1.497927
1002.562500,-3.888017,-13.891661,-4.294169,-12.024181
1002.566406,-14.131095,-10.451624,-13.954929,-9.372669
1002.570312,-6.857946,-0.825026,-16.637415,-14.708742
1002.574219,-7.793291,-7.649499,-10.164882,-8.642056
1002.578125,-10.175689,-3.322072,-16.860740,-10.223156
1002.582031,-17.181032,-7.730544,-11.740389,-9.814100
1002.585938,-4.446218,-9.792647,-7.088582,-5.503507
1002.589844,-6.442013,-7.591348,-10.667162,-12.355879
1002.593750,-2.216237,4.408364,1.628667,-7.524927
1002.597656,-3.438535,-3.283200,3.150697,-1.246563
1002.601562,-2.879458,0.465638,1.120437,5.636070
1002.605469,-2.408523,0.114391,1.115920,2.624176
1002.609375,8.453194,4.702676,5.278168,7.990695
1002.613281,7.770839,2.310656,9.969097,9.121456
1002.617188,10.891204,3.831829,8.232996,14.914254
1002.621094,14.253371,6.651593,5.355916,11.024936
1002.625000,10.674182,7.607358,-1.259454,10.290685
1002.628906,5.487701,12.400525,1.471085,10.825665
1002.632812,3.159778,4.731531,20.840627,5.757820
1002.636719,4.904671,10.462109,16.090269,2.251349
1002.640625,2.304063,2.289792,-1.633563,10.532164
1002.644531,5.425042,-6.957176,0.654511,3.642601
1002.648438,-5.603040,-0.069843,6.468529,1.627409
1002.652344,-3.023719,-3.503851,1.855873,-8.499186
1002.656250,-2.806827,-5.197843,-5.636523,-3.512810
1002.660156,-6.961690,-2.418612,-10.875397,-9.491938
1002.664062,-12.113248,-6.190159,-10.333373,-12.050416
1002.667969,-8.613461,-3.905938,-7.367255,-10.864212
1002.671875,-11.299394,-9.685894,-11.917451,-10.996463
1002.675781,-2.438639,-8.472194,-12.678824,-5.324133
1002.679688,-4.255005,-5.615871,-15.897856,-11.353867
1002.683594,-9.443025,-9.958546,-9.085270,-10.804343
1002.687500,-6.794229,-10.870786,-11.256731,-9.727097
1002.691406,-5.512328,-1.621480,-4.608007,-6.090778
1002.695312,-1.030499,-1.867324,-3.254854,1.022814
1002.699219,5.427454,7.415940,-3.769240,1.846657
1002.703125,3.855425,3.576137,-1.956990,2.629151
1002.707031,4.175949,3.610552,5.806960,1.915345
1002.710938,2.317306,1.244388,6.352857,13.853474
1002.714844,4.850505,9.705420,10.926087,-0.748109
1002.718750,16.118166,7.020490,5.294738,12.881338
1002.722656,14.440594,4.861030,13.948084,13.515326
1002.726562,6.125228,11.093464,14.790999,3.050213
1002.730469,6.996317,16.518387,4.526360,15.440421
1002.734375,13.495530,4.806211,9.410481,13.554654
1002.738281,11.576886,5.753823,11.936050,6.250998
1002.742188,10.313138,0.095614,7.302651,0.756174
1002.746094,0.522124,-1.668428,2.200689,5.472834
1002.750000,-2.953810,0.458378,-6.795189,-1.528459
1002.753906,-2.607342,2.603506,-3.775384,-1.573536
1002.757812,-8.773749,-0.455276,-2.460937,-6.673000
1002.761719,-3.785807,-4.068863,-7.096125,-13.286618
1002.765625,-6.762932,-9.131015,-5.040306,-9.195043
1002.769531,-13.457645,-0.205793,-0.039471,-4.364134
1002.773438,-13.731328,-5.929520,-13.079946,-6.377030
1002.777344,-11.345788,-9.885211,-8.263619,-5.440985
1002.781250,-9.613042,-2.406917,-10.606867,-13.704705
1002.785156,-0.753281,-4.309276,-13.610026,-5.476741
1002.789062,-2.198202,-4.776538,-1.840991,-6.974399
1002.792969,-3.706155,-2.200144,-2.032623,-6.757507
1002.796875,-0.378858,3.477924,2.696429,-1.888230
1002.800781,-1.928872,0.267624,-1.840561,7.093492
1002.804688,5.911739,8.039022,5.538781,6.973899
1002.808594,9.942347,1.333959,5.873182,4.351015
1002.812500,10.982204,8.566526,8.674814,7.857382
1002.816406,6.875092,3.539146,7.567556,9.152233
1002.820312,13.340247,10.984243,10.807476,13.537501
1002.824219,8.278048,11.947543,16.276540,13.078346
1002.828125,8.040099,12.361988,12.864869,11.431281
1002.832031,9.341783,9.826462,14.887632,12.172578
1002.835938,4.741195,12.559625,7.993027,5.712211
1002.839844,3.634978,8.294690,5.314970,3.875523
1002.843750,0.431008,5.848247,0.166929,2.317300
1002.847656,-1.870535,1.910949,3.085585,0.548643
1002.851562,-2.421747,-2.512826,2.498341,-3.687718
1002.855469,-6.722537,1.419522,1.482828,-1.125889
1002.859375,-9.127325,-9.769244,-4.670807,-11.115443
1002.863281,-9.077419,-5.215751,-3.532011,-16.531934
1002.867188,-12.245052,-8.540411,-12.032760,-4.518082
1002.871094,-9.174164,-3.719145,-7.091969,-7.376638
1002.875000,-8.651289,-6.846521,-10.052649,-4.591456
1002.878906,-10.335458,-15.100781,-0.435332,-5.985189
1002.882812,-11.496786,-4.859604,-5.366366,-5.480359
1002.886719,-4.844362,-7.155645,-9.980228,-2.613517
1002.890625,-7.642827,-8.264879,-9.312382,-4.652557
1002.894531,-10.870858,-6.107606,1.380272,-4.814631
1002.898438,9.631067,-4.055971,-7.747941,0.712720
1002.902344,-6.559787,2.278825,2.062532,1.064961
1002.906250,5.012984,1.483694,7.248598,8.705744
1002.910156,6.784565,1.365325,7.726777,10.375515
1002.914062,8.903142,12.744387,7.169981,4.022199
1002.917969,12.132781,2.756954,4.382358,7.245898
1002.921875,17.046750,14.150326,11.663337,11.450610
1002.925781,10.988227,7.932643,12.125201,17.987097
1002.929688,10.706252,14.051189,11.813148,12.803109
1002.933594,9.415815,9.722326,12.243494,15.673675
1002.937500,4.950065,0.143964,8.891099,7.630782
1002.941406,3.582434,4.928926,5.493652,4.745660
1002.945312,4.717510,7.322875,12.186583,-2.975452
1002.949219,0.036467,3.293104,-2.124191,1.807463
1002.953125,-8.674181,-2.324005,4.270994,-7.179965
1002.957031,-1.670963,-10.110573,-2.190524,-10.458768
1002.960938,-5.049989,-11.009758,-1.381538,-10.633652
1002.964844,-13.234057,-9.210310,-12.098665,-6.146412
1002.968750,-9.994629,-8.702119,-5.523125,-13.927305
1002.972656,-11.107281,-10.039501,-11.006255,-13.827107
1002.976562,-11.058212,-17.362100,-6.503408,-14.927341
1002.980469,-9.683945,-13.827521,-15.981717,-13.025106
1002.984375,-8.355767,-6.699592,-13.896141,-11.134537
1002.988281,-13.205093,-6.999673,-8.714015,-5.933264
1002.992188,0.849389,-4.516541,-0.787203,-4.181850
1002.996094,-4.399918,-1.059513,-1.893126,3.041502
1003.000000,4.463073,-1.194872,-0.735670,-0.992379
1003.003906,5.783195,1.310792,-0.908750,3.741939
1003.007812,7.603226,6.968483,12.133231,11.978042
1003.011719,11.892820,5.678148,10.448755,0.345678
1003.015625,14.030849,9.632305,12.071858,4.667687
1003.019531,7.896655,13.120800,8.260105,10.957589
1003.023438,10.178757,3.971204,8.925054,12.312333
1003.027344,13.024819,16.584564,6.273402,9.606158
1003.031250,15.103362,10.891174,1.953866,8.129850
1003.035156,15.085844,6.218860,11.033987,12.996108
1003.039062,3.330740,5.354154,1.149766,9.208489
1003.042969,3.435998,5.775487,3.274590,6.237650
1003.046875,-2.239344,1.925198,10.862981,6.930415
1003.050781,0.812414,-0.592280,-0.013070,-4.127184
1003.054688,0.202067,-12.927038,-2.931656,-8.738368
1003.058594,-2.296133,5.611825,-6.809397,-9.446652
1003.062500,-8.332224,-6.016033,-8.428711,-2.933547
1003.066406,-11.375949,-8.603297,-8.676347,-3.146483
1003.070312,-19.504282,-7.783816,0.888174,-14.671218
1003.074219,-11.617216,-15.840656,-3.794198,-2.948131
1003.078125,-0.131522,-9.699967,-8.445164,-10.031029
1003.082031,-6.365189,-5.222524,-14.697224,-7.662374
1003.085938,-15.563267,-13.501292,-13.373085,-5.376031
1003.089844,-12.017527,-8.813931,-12.776735,-8.625706
1003.093750,-3.668859,-1.792440,-2.463878,-6.689646
1003.097656,-3.550452,-4.072182,-1.898077,-0.224295
1003.101562,1.361115,2.718430,4.066298,-5.373404
1003.105469,5.057205,1.881263,5.958399,8.394782
1003.109375,6.531207,7.078368,0.302901,8.548847
1003.113281,1.600624,8.485169,7.557755,9.733291
1003.117188,19.190406,11.608788,5.303973,1.681176
1003.121094,8.825253,6.897812,12.585994,11.303924
1003.125000,15.525542,13.732680,4.889688,17.702442
1003.128906,-1.069633,13.974828,4.951731,8.006265
1003.132812,8.342199,6.008845,12.376692,10.904532
1003.136719,6.322025,9.500234,1.212488,13.746758
1003.140625,8.027154,2.579516,1.818479,3.889124
1003.144531,-4.589100,0.563474,8.600058,-1.020132
1003.148438,-3.080958,0.144294,2.985305,5.371817
1003.152344,-0.459452,-4.553056,-1.354880,-7.313157
1003.156250,-1.805987,-10.399693,-5.256627,-4.683125
1003.160156,-5.533982,-2.278017,-9.352319,-4.583088
1003.164062,-7.234327,-2.860736,-10.301226,5.177478
1003.167969,-1.659922,-6.569357,-4.962414,-12.255857
1003.171875,-7.450435,-6.194900,-11.165596,-4.933338
1003.175781,-8.686809,-8.892232,-11.911099,-10.704529
1003.179688,-4.589349,-9.411759,-10.133075,-8.067385
1003.183594,-3.705413,-9.846569,-5.915067,-5.697824
1003.187500,-16.071936,-6.052078,-2.062867,-10.217785
1003.191406,-3.253437,-8.273858,-10.318869,-10.164011
1003.195312,-8.079630,1.955275,-4.566965,-3.029100
1003.199219,1.821708,-6.310726,6.923388,9.240246
1003.203125,-3.258595,2.939427,-0.644086,8.749168
1003.207031,-4.227582,-1.062946,8.168249,2.789880
1003.210938,10.506318,2.016709,2.202248,-1.934901
1003.214844,6.822596,4.068757,13.178659,7.001853
1003.218750,10.227885,4.475070,13.135022,7.614230
1003.222656,6.101784,2.905893,8.154823,7.652663
1003.226562,11.436915,0.616006,7.241118,14.241582
1003.230469,12.189812,9.228619,8.252870,10.561802
1003.234375,7.922941,3.861765,6.281346,18.908233
1003.238281,10.035213,9.084837,8.943471,18.415253
1003.242188,9.820132,-2.260397,3.457705,4.490261
1003.246094,-0.002135,6.714904,-1.937264,4.633310
1003.250000,1.708923,-0.671443,-1.446657,3.043195
1003.253906,-4.667175,-5.912511,-4.194877,-7.739668
1003.257812,-12.763495,-2.963650,-6.060355,-0.881483
1003.261719,-9.680097,-13.660055,-9.570995,-10.750931
1003.265625,-12.517374,-6.910710,-4.722541,-10.838939
1003.269531,-13.616022,-9.808822,-2.818409,-8.101566
1003.273438,-10.909097,-8.214931,-6.808850,-8.585679
1003.277344,-11.665683,-8.371665,-13.988571,-10.029281
1003.281250,-6.238903,-10.039514,-14.877136,-16.297472
1003.285156,0.803348,-4.742720,-9.863563,-12.734147
1003.289062,-7.561104,-9.223438,-4.449700,-3.209645
1003.292969,-1.090438,-8.747649,-1.837796,-2.716979
1003.296875,-8.655227,2.302912,-4.912064,-0.022011
1003.300781,-0.923331,0.298256,-1.365337,-0.859936
1003.304688,5.252320,2.616868,7.048370,2.459042
1003.308594,10.024373,0.690626,0.117196,-0.888225
1003.312500,3.347319,-1.484003,9.658500,9.175756
1003.316406,13.925025,5.116535,3.759718,8.030634
1003.320312,14.955610,9.991490,10.460168,7.172258
1003.324219,13.218248,13.346435,15.800908,10.134954
1003.328125,6.578003,11.532222,8.647391,16.510772
1003.332031,12.709850,12.120779,9.969954,7.309099
1003.335938,5.839337,11.244033,7.519949,3.830463
1003.339844,5.477675,9.211423,-0.123198,7.492839
1003.343750,6.141617,1.273552,2.979184,-1.912652
1003.347656,-8.109876,3.236577,5.147271,-7.354664
1003.351562,-4.881911,6.790419,-6.910250,5.002667
1003.355469,-5.994665,-0.447053,1.138800,7.953395
1003.359375,-5.188722,-1.872847,-6.245913,-3.100186
1003.363281,-7.400924,-3.835238,-8.724353,-1.892142
1003.367188,-15.498398,-6.927606,4.022723,-5.682653
1003.371094,-7.342688,-11.632229,-8.588395,-10.615539
1003.375000,-9.820488,-8.579653,-15.526117,-14.026729
1003.378906,-10.528981,-9.501333,-7.328727,-7.692297
1003.382812,-16.497727,-11.349873,-5.884130,-3.387010
1003.386719,-0.205965,-6.959410,-8.451607,-0.238339
1003.390625,-3.229885,-5.261742,-9.332080,2.201998
1003.394531,-6.942063,-4.868789,-7.617192,1.930559
1003.398438,3.516312,1.247762,3.943912,2.299446
1003.402344,2.152221,-2.949255,0.104721,3.717471
1003.406250,4.151988,1.886188,0.122540,5.602386
1003.410156,8.102412,10.242019,10.215719,4.525836
1003.414062,13.860146,7.122496,7.972235,12.771806
1003.417969,9.216266,8.065213,12.887781,9.239423
1003.421875,0.988620,18.040711,12.301082,9.178141
1003.425781,9.832622,10.367822,6.562854,2.597955
1003.429688,4.489934,9.721229,14.483581,8.125936
1003.433594,10.065561,14.029239,12.238565,9.841931
1003.437500,3.902421,6.442341,9.985786,11.726749
1003.441406,1.342874,6.821053,-0.584456,10.160230
1003.445312,3.897442,2.836889,7.875737,-2.073852
1003.449219,2.889967,2.345223,-1.458370,-3.063624
1003.453125,-2.930254,-5.683335,-6.513933,-1.851525
1003.457031,-3.024131,0.109900,-6.174156,-7.070573
1003.460938,-6.403641,-7.430721,-2.912600,-1.169105
1003.464844,-3.200204,-11.681353,3.518187,-10.151854
1003.468750,-7.692088,-3.285051,-7.376204,-11.794235
1003.472656,-5.833168,-11.194025,-7.701449,-9.413603
1003.476562,-6.527889,-8.180622,-8.889541,-6.604560
1003.480469,-9.743954,-7.412249,-5.880084,-6.572287
1003.484375,-9.722456,-13.188799,-6.078212,-10.481415
1003.488281,-11.170504,1.253823,-3.584495,-5.630818
1003.492188,-0.892003,-3.636245,-4.215614,-8.599535
1003.496094,2.191172,-6.813057,-1.395559,-1.686183
1003.500000,0.249924,3.015676,-4.537481,-1.033425
1003.503906,9.333721,6.392959,0.757726,0.678950
1003.507812,-0.418979,7.089088,4.280600,2.435355
1003.511719,-0.499420,4.544123,2.651871,4.695550
1003.515625,6.421927,2.291828,7.061633,12.811779
1003.519531,8.393449,9.263231,8.435413,17.567107
1003.523438,13.699563,10.670438,14.475515,11.146346
1003.527344,12.413549,20.702641,17.696999,7.407527
1003.531250,6.876848,11.305231,10.535880,11.073261
1003.535156,7.324276,5.642797,11.711226,3.894184
1003.539062,6.734266,5.227028,8.178428,4.878572
1003.542969,4.647221,4.976337,-1.341252,6.124346
1003.546875,2.368494,-5.520954,7.867285,-0.809999
1003.550781,3.628556,3.730685,-0.425008,0.277955
1003.554688,0.262739,-3.034033,-3.944577,2.719177
1003.558594,-6.739073,-15.880751,-0.623550,-7.994974
1003.562500,-7.521026,-12.097885,-8.051222,-9.063839
1003.566406,-10.378447,-3.931917,-5.489445,-11.285129
1003.570312,-5.139095,-7.846247,-4.393204,-11.251717
1003.574219,-8.650513,-10.941524,-13.911232,-12.522698
1003.578125,-7.664752,-7.628276,-10.575122,-17.052301
1003.582031,-13.021598,-11.707820,-8.010877,-10.746176
1003.585938,-7.289954,-13.191182,-7.440869,-1.957791
1003.589844,-2.877444,-11.270147,-5.969868,-5.824699
1003.593750,-1.345073,-4.297525,3.103118,1.717456
1003.597656,-5.664270,0.952348,-5.955593,0.069685
1003.601562,2.025319,-1.163273,-0.964886,4.624585
1003.605469,10.122439,-1.283148,3.738339,7.530810
1003.609375,4.697195,8.930234,3.204143,6.115917
1003.613281,4.836123,5.159411,6.531917,13.321785
1003.617188,20.494550,13.728544,12.275453,7.933197
1003.621094,9.292805,5.952381,10.930083,9.892534
1003.625000,15.194547,13.871532,10.937176,7.476477
1003.628906,6.123828,11.126339,7.882291,9.127619
1003.632812,5.949425,3.799880,16.226543,4.722850
1003.636719,-0.813752,7.301923,3.572251,6.905527
1003.640625,4.450582,5.904908,4.224129,8.696246
1003.644531,7.185887,5.915610,5.939499,1.206407
1003.648438,-3.842821,3.951941,-1.553149,-1.147333
1003.652344,-5.958041,-3.919184,-0.013424,-0.173115
1003.656250,-7.889453,-4.700016,-1.564348,-7.717462
1003.660156,-8.271801,-3.529959,-2.059924,-3.139156
1003.664062,-8.000675,-7.477444,-12.662305,-11.074711
1003.667969,-4.832060,-9.983684,-12.195947,-7.469193
1003.671875,-4.672430,-9.507561,-6.204491,-9.206677
1003.675781,-10.095804,-7.783178,-11.849077,-11.177040
1003.679688,-8.437853,-11.450316,-8.529064,-6.231465
1003.683594,-3.935582,-7.586480,-5.207873,-11.115735
1003.687500,-10.135348,-2.359198,-2.969602,-7.039184
1003.691406,-11.923343,-9.315560,-7.744165,-0.246912
1003.695312,-5.616238,-1.989353,-2.940648,-0.935822
1003.699219,8.786610,0.607823,6.995014,-1.062764
1003.703125,-0.609088,4.701880,-2.344207,3.953015
1003.707031,2.571659,12.625353,5.730252,10.671660
1003.710938,8.151482,11.560723,8.527972,9.884424
1003.714844,5.893510,4.619567,7.277737,5.108995
1003.718750,6.531882,9.083000,11.129559,14.441513
1003.722656,13.056946,8.458620,14.360542,11.826139
1003.726562,12.930902,10.092899,8.317804,6.833099
1003.730469,9.847029,8.877438,13.989090,2.550944
1003.734375,1.562353,5.396326,8.407976,-0.279887
1003.738281,9.137180,9.462506,0.451776,9.852072
1003.742188,10.780435,-0.075684,4.152445,4.513691
1003.746094,1.866167,7.262831,-6.659134,-6.554508
1003.750000,4.005977,-3.187708,-2.902277,-3.260756
1003.753906,1.104852,-4.131335,-10.055693,-2.564547
1003.757812,-4.153420,1.561292,-2.537968,-8.974649
1003.761719,-6.535379,-11.070951,-7.951943,-6.992203
1003.765625,-7.033137,-7.054336,-5.752730,-3.411461
1003.769531,-19.082103,-7.406236,-4.500062,-7.534822
1003.773438,-11.255600,-12.026244,-8.625186,-13.147047
1003.777344,-9.467271,-16.793063,-9.250421,-2.915158
1003.781250,-15.243444,-12.539410,-13.643160,-16.460644
1003.785156,-4.829526,-5.830315,-12.701956,-11.753704
1003.789062,-10.606374,-5.911247,-6.348411,-4.122864
1003.792969,1.429839,-7.086490,-3.383528,-5.815906
1003.796875,1.863951,-2.400504,-0.398805,1.038819
1003.800781,0.865213,-0.770885,1.830295,1.427050
1003.804688,1.972209,9.873336,8.528647,-5.846620
1003.808594,2.459642,1.253847,4.591202,9.087070
1003.812500,7.718045,12.459514,0.193181,5.334833
1003.816406,4.165758,10.516878,9.090661,11.747184
1003.820312,8.011325,10.785698,15.778799,11.559023
1003.824219,14.478678,11.685379,9.916203,5.262214
1003.828125,5.840927,8.468010,8.879713,12.454125
1003.832031,10.304647,10.132960,14.005499,6.913319
1003.835938,6.140890,9.285263,6.905078,8.420130
1003.839844,9.920718,4.052249,0.620608,2.801639
1003.843750,-5.907113,4.275934,1.329990,11.837002
1003.847656,-1.050420,-0.137981,-1.763360,4.964237
1003.851562,1.875622,-0.095760,-0.848851,-0.926443
1003.855469,-1.608549,-5.348443,3.302780,2.282332
1003.859375,-5.482614,-3.315477,5.437309,-5.933086
1003.863281,-9.800511,-6.919650,-10.453453,-7.877324
1003.867188,-3.665906,-11.128917,-17.351281,-9.919697
1003.871094,-5.303231,-13.871542,-9.543086,-2.288321
1003.875000,-12.275798,-12.270695,-12.832153,-8.469014
1003.878906,-4.428698,-14.649772,-9.073876,-4.123691
1003.882812,-7.068016,0.111010,-9.342883,-2.889662
1003.886719,-8.289803,-8.856668,-2.165604,-12.252255
1003.890625,2.086330,-6.396612,-7.436080,-7.393946
1003.894531,-7.170241,0.564075,-0.391402,4.226265
1003.898438,-1.546678,1.698055,-5.161601,2.744037
1003.902344,2.340131,8.890901,-4.440496,4.104725
1003.906250,-0.566037,2.942610,4.611403,-3.362275
1003.910156,8.730447,0.974406,5.838080,1.752312
1003.914062,8.812478,6.811468,10.783106,7.796798
1003.917969,3.980209,13.385019,9.393912,7.516836
1003.921875,4.159135,14.401714,4.541783,5.181737
1003.925781,9.016703,9.816751,8.575887,6.993630
1003.929688,16.288279,15.584276,8.671291,14.212416
1003.933594,8.411505,8.216904,7.773264,11.319517
1003.937500,11.892154,4.896551,8.451165,9.853141
1003.941406,5.944885,6.374431,4.386585,-2.412653
1003.945312,4.061966,0.275379,-3.240786,-1.018207
1003.949219,0.862542,4.329178,0.246161,-0.208992
1003.953125,1.679724,-2.256393,-0.005787,0.565239
1003.957031,0.208587,-2.192099,-2.073214,0.581990
1003.960938,-9.904939,-10.295108,-1.170473,-9.365250
1003.964844,-4.861847,-1.889569,-7.979311,-7.098825
1003.968750,-6.754603,-2.300986,-13.415274,-13.987018
1003.972656,-2.934674,-10.379495,-4.816504,-9.307130
1003.976562,-14.166207,-5.611313,-7.779294,-10.717131
1003.980469,-4.340098,-14.347644,-1.470778,-16.340218
1003.984375,-6.995914,-12.978741,-7.066292,-4.351550
1003.988281,-5.061143,-7.101570,-3.918059,-5.894903
1003.992188,1.705814,1.300005,-2.360345,-3.863492
1003.996094,-8.687029,-2.048609,-0.843519,-5.010819
1004.000000,-4.333854,3.162404,-0.904271,0.466528
1004.003906,4.763109,6.873827,1.137413,7.984387
1004.007812,4.283852,2.622639,6.954229,13.388593
1004.011719,6.608111,13.895557,7.038947,4.512146
1004.015625,9.714461,20.551118,15.658280,9.298115
1004.019531,9.542650,11.481858,12.694003,11.902762
1004.023438,10.809231,10.580491,8.870206,8.415481
1004.027344,3.258406,13.175723,4.520906,11.342408
1004.031250,10.503482,7.779506,8.953102,6.515072
1004.035156,7.148423,5.086757,11.029488,11.181445
1004.039062,6.401180,1.468057,4.776303,10.534189
1004.042969,5.060565,0.226633,6.124634,-2.933906
1004.046875,1.861483,1.709912,0.834002,-5.521843
1004.050781,-5.603653,-8.624492,5.310173,-2.900537
1004.054688,6.659669,1.988427,-3.023271,-4.798889
1004.058594,-9.821475,-0.912333,-3.094530,-7.367483
1004.062500,-3.734651,-3.117028,-6.463464,-2.317279
1004.066406,-8.119490,-10.195485,-9.858569,-4.388353
1004.070312,-5.137832,-5.443624,-8.144509,-5.519586
1004.074219,-12.319649,-16.526319,-8.140531,-12.558329
1004.078125,-10.191414,-22.533530,-10.421306,-9.516327
1004.082031,-8.366053,-3.745698,-5.194392,-8.384691
1004.085938,-7.404339,-8.532985,-0.628005,-10.673425
1004.089844,-9.666462,-7.902315,-4.020285,-2.835198
1004.093750,-0.051108,-3.235153,1.989301,-2.685067
1004.097656,1.547018,3.466867,2.898150,-0.767643
1004.101562,7.181392,3.969794,9.040881,-7.334423
1004.105469,-2.400901,2.829434,6.867737,-0.110962
1004.109375,-2.912709,6.162282,6.747969,5.467744
1004.113281,5.142237,7.211768,12.004917,5.291797
1004.117188,4.712556,8.927215,8.645042,10.083852
1004.121094,18.302255,13.351022,8.705216,17.928969
1004.125000,6.851672,12.012083,10.426681,10.634983
1004.128906,21.200219,8.416222,7.968968,7.081325
1004.132812,12.649506,9.859200,7.862582,16.627546
1004.136719,12.241602,5.802066,7.888771,10.435019
1004.140625,10.034360,12.593955,11.485432,-1.584260
1004.144531,2.716191,4.961342,3.966972,3.094399
1004.148438,1.729209,-2.467965,4.388169,-2.194805
1004.152344,-3.541244,2.713815,3.682541,1.782532
1004.156250,-11.504902,-5.550152,-4.899275,-0.311853
1004.160156,-8.297935,-4.769562,-3.369566,-4.746277
1004.164062,-4.969905,-0.291161,-8.151810,-2.027575
1004.167969,-9.275271,-7.131997,-8.785363,-5.771382
1004.171875,-6.811627,-4.764983,-14.298216,-12.618984
1004.175781,-16.709687,-7.956065,-11.234979,-12.613313
1004.179688,-10.607583,-4.170298,-10.569143,-5.523859
1004.183594,-7.336316,-9.410109,-7.056348,-7.080024
1004.187500,-4.956563,-4.450018,-12.809678,-6.537994
1004.191406,-11.707202,-8.171456,-4.147425,-11.817003
1004.195312,-7.081677,-7.281749,-6.177373,0.156730
1004.199219,-4.139678,2.590765,4.375184,-1.423266
1004.203125,-2.083297,3.059803,4.955287,1.673047
1004.207031,1.329489,1.539422,-1.380838,-2.014238
1004.210938,12.098716,10.710238,4.705564,2.851260
1004.214844,9.498007,7.952831,5.567003,10.951874
1004.218750,8.249555,6.990724,11.929864,12.415341
1004.222656,8.849547,17.072069,3.876379,16.211509
1004.226562,6.454813,4.406636,10.144892,7.288160
1004.230469,13.440970,6.939247,5.797490,13.625016
1004.234375,9.851687,7.462225,3.712822,12.438709
1004.238281,7.464212,2.054880,10.728121,12.637273
1004.242188,8.471048,2.550658,4.263061,6.525938
1004.246094,1.612891,4.529495,1.171860,4.384796
1004.250000,1.453223,-5.024895,2.876132,-4.909995
1004.253906,-8.182361,-4.896995,-7.998298,-4.367460
1004.257812,-5.630837,-9.375304,0.874823,-7.462687
1004.261719,-3.631037,-4.381171,-10.938016,-4.523417
1004.265625,-10.450188,-0.759215,-2.990626,-14.909601
1004.269531,-2.907135,-12.276901,-11.232076,3.359856
1004.273438,-12.421700,-5.484067,-2.041341,-9.078809
1004.277344,-5.514686,-4.864989,-5.571613,-14.957361
1004.281250,-7.576524,-11.089758,-14.295008,-1.935155
1004.285156,-11.161996,-6.772849,-12.821480,-6.630193
1004.289062,-6.646601,-9.648872,-3.522665,-6.249081
1004.292969,-2.797168,-4.886903,-2.144243,-2.275567
1004.296875,0.349670,-4.218363,0.604763,-0.976846
1004.300781,0.744249,7.650119,-4.774976,-2.454682
1004.304688,-2.299366,0.800223,4.349082,-1.450661
1004.308594,6.623155,-6.105329,2.912225,10.325853
1004.312500,12.094460,9.612926,4.127089,8.069543
1004.316406,7.362773,13.899787,15.159849,6.008032
1004.320312,5.979023,17.903294,9.219490,7.587849
1004.324219,8.590222,12.114828,11.784495,7.723655
1004.328125,11.997374,7.203511,7.587935,15.831561
1004.332031,14.392022,7.514844,8.917070,13.642103
1004.335938,7.485653,7.568155,11.372539,7.923232
1004.339844,5.271438,8.052437,8.186483,2.733763
1004.343750,5.241691,9.933217,4.259263,8.845198
1004.347656,-0.637134,-4.021485,-1.523646,-1.625783
1004.351562,-0.436031,12.318639,4.796594,-1.638599
1004.355469,-6.358727,-7.014525,4.203248,-4.794198
1004.359375,-5.314915,0.168247,-6.155288,-3.146158
1004.363281,-8.138275,-8.222000,-5.090492,-6.146800
1004.367188,-11.977742,-5.900465,-12.165544,-3.806477
1004.371094,-9.822728,-10.338304,-4.930682,-15.021575
1004.375000,-11.386875,-11.666302,-10.185307,-11.886253
1004.378906,-5.086630,-7.842677,-11.476639,-5.942649
1004.382812,-10.143272,-6.488946,-1.762254,-9.009821
1004.386719,-9.461536,-7.586440,-2.756948,0.748985
1004.390625,-9.411780,-8.489937,-9.109191,-8.537005
1004.394531,-0.568235,-3.891704,3.720276,-6.010450
1004.398438,-4.404543,-0.406322,-4.493106,0.873885
1004.402344,4.691878,-5.208990,5.249801,4.684289
1004.406250,-0.581134,5.597821,6.653073,11.620831
1004.410156,12.772435,5.055961,7.168918,3.257626
1004.414062,3.687402,9.057939,6.711453,7.638892
1004.417969,3.383857,12.596398,4.189391,5.019014
1004.421875,12.002974,7.014341,8.296727,9.797720
1004.425781,10.785745,11.522226,8.279551,10.049695
1004.429688,13.859970,15.949156,6.929453,5.894251
1004.433594,6.677442,1.219085,13.058096,14.589343
1004.437500,10.778217,7.524647,14.227140,7.338985
1004.441406,1.959727,5.437949,4.597171,2.093196
1004.445312,-1.465755,-2.084344,-5.914000,5.258956
1004.449219,4.874400,-1.741020,6.468177,4.895681
1004.453125,-6.814290,-0.296617,-7.500815,-3.974127
1004.457031,-11.221687,-13.617549,-1.789058,-0.747705
1004.460938,-3.719341,-2.669319,-6.876024,-8.170226
1004.464844,-10.868160,-7.681598,-6.309600,-6.373465
1004.468750,-8.253367,-13.742876,-8.386314,-17.168071
1004.472656,-9.286570,-16.301160,-8.374755,-10.784359
1004.476562,-8.461974,-9.024336,-9.608531,-9.194578
1004.480469,-12.331652,-12.652124,-9.298588,-12.026370
1004.484375,-8.330800,-4.724878,-9.692102,-13.681612
1004.488281,-7.379407,-11.156404,0.148681,-8.087470
1004.492188,-4.190306,-4.500735,-7.503323,-2.926843
1004.496094,1.204012,0.259481,-1.696962,-1.343116
1004.500000,2.632895,-0.985336,2.664461,0.499175
1004.503906,4.327984,4.144371,-4.153987,6.972275
1004.507812,0.774994,11.438760,8.529948,10.359820
1004.511719,-2.358124,7.383705,10.545100,1.008155
1004.515625,6.529306,10.731924,8.450891,10.738848
1004.519531,10.916946,19.230171,6.039940,1.246315
1004.523438,10.651586,8.567450,1.821131,7.201223
1004.527344,19.661458,10.500753,5.837249,11.986274
1004.531250,3.469001,14.873754,0.229535,15.498059
1004.535156,8.792556,8.988307,5.968239,8.013543
1004.539062,7.264626,5.907022,10.529398,5.076618
1004.542969,-0.268397,5.900705,8.944920,0.992204
1004.546875,4.430481,2.470809,-1.255848,0.064150
1004.550781,-2.103186,-3.785817,-4.113351,-6.145647
1004.554688,-2.528619,0.305842,-3.993152,0.744230
1004.558594,-2.304198,-5.111524,-13.331295,-7.886888
1004.562500,-3.323655,-4.559354,-9.025268,-3.292968
1004.566406,-10.565221,-12.130319,-9.465304,-6.296559
1004.570312,-15.143616,-12.012083,-1.937053,-7.363112
1004.574219,-7.546005,-18.647913,-10.037989,-16.060864
1004.578125,-12.870035,-18.592328,-10.030125,2.001404
1004.582031,-14.123693,-10.185741,-17.331756,-14.130280
1004.585938,-4.910154,-7.735520,-10.632079,-9.059376
1004.589844,-6.822822,-1.863636,-8.628777,-7.353533
1004.593750,-4.197614,1.043660,-5.662280,-4.611428
1004.597656,-3.569606,2.920828,-3.485708,-2.858764
1004.601562,4.727559,10.930410,1.995245,7.480290
1004.605469,6.402236,5.319006,-0.606075,10.348397
1004.609375,4.815555,1.905083,3.576780,1.883815
1004.613281,4.543184,4.230842,9.010260,7.931461
1004.617188,5.739722,14.231753,4.678290,12.879307
1004.621094,15.686684,15.866614,16.228347,12.630167
1004.625000,5.294502,11.136696,6.715097,9.270693
1004.628906,8.210547,12.987885,15.309470,-0.610680
1004.632812,14.078833,7.609024,1.660443,12.385217
1004.636719,-0.279740,5.742713,13.558624,6.891902
1004.640625,8.413469,5.243946,3.471222,4.827295
1004.644531,4.638396,10.486280,7.213836,-2.263531
1004.648438,-3.521504,1.965769,2.030732,4.932723
1004.652344,-4.242488,4.467543,-7.243072,1.735011
1004.656250,-2.078709,-2.653061,-1.703394,-8.217136
1004.660156,-2.934862,-5.354766,-0.077709,-5.474425
1004.664062,-6.333507,-4.890409,-8.581498,-14.931283
1004.667969,-4.283873,-9.348940,-5.277206,-9.345884
1004.671875,-14.262261,-15.843515,-12.238033,-8.254440
1004.675781,-6.846239,-8.325830,-8.348255,-9.001029
1004.679688,-12.465892,-11.815068,-9.109273,-13.662018
1004.683594,-17.534867,-6.497088,-14.705417,-8.515547
1004.687500,-6.331768,-2.743360,-10.983098,-9.880674
1004.691406,-12.669650,1.410488,-9.853151,-0.118152
1004.695312,1.271742,-9.408687,-1.394819,-1.685287
1004.699219,2.937926,-2.203684,2.007753,3.716562
1004.703125,-0.378585,-1.196317,3.168666,8.141037
1004.707031,1.368028,6.655211,4.737111,2.564670
1004.710938,1.138810,10.454393,12.089486,5.753637
1004.714844,7.910387,6.855495,10.915069,0.034437
1004.718750,8.564683,9.476432,10.166881,12.227695
1004.722656,10.524251,4.519148,14.114360,6.846581
1004.726562,6.461264,5.684961,5.751625,12.335680
1004.730469,16.423284,12.680892,9.954322,5.234498
1004.734375,10.192897,14.244502,3.599230,10.289001
1004.738281,9.024832,5.076089,9.839869,5.019866
1004.742188,-0.144031,11.405513,10.591823,6.048836
1004.746094,-1.613114,4.180179,5.260501,1.665944
1004.750000,-2.495327,1.104219,1.986179,-3.614091
1004.753906,-4.406369,-7.077473,-2.727292,-6.478420
1004.757812,-4.614416,-8.342510,-7.794929,-10.293380
1004.761719,-8.347618,-5.061367,-6.219514,-4.737950
1004.765625,-10.320426,-7.837878,-2.975434,-7.483383
1004.769531,-7.711317,-10.247189,-14.283016,-5.446490
1004.773438,-15.023941,-10.140349,-15.327596,-8.310724
1004.777344,-5.516568,-13.743987,-8.139924,-15.447070
1004.781250,-14.993453,-0.584406,-7.927937,-11.101117
1004.785156,-10.987280,-5.521836,-8.093953,-9.365685
1004.789062,-9.931762,-13.772718,-2.373059,2.876333
1004.792969,-5.479315,-0.031732,-3.558873,-0.455037
1004.796875,-8.325354,3.881418,-3.308992,-8.888574
1004.800781,6.256290,5.702391,1.809441,-3.069758
1004.804688,1.897080,5.149805,2.781270,10.251403
1004.808594,16.934647,9.515961,-0.467064,5.030421
1004.812500,13.804302,12.816372,9.874199,7.115594
1004.816406,17.553466,8.556085,13.387710,7.886321
1004.820312,11.496411,7.417427,7.073519,7.837854
1004.824219,12.658193,11.870331,17.312944,10.181405
1004.828125,11.476377,10.767453,11.890588,9.177857
1004.832031,3.518242,7.369873,8.915847,3.105847
1004.835938,10.842002,6.116315,8.219169,8.604899
1004.839844,5.998736,-0.510087,6.766817,9.388835
1004.843750,4.437700,2.678069,4.293826,4.280531
1004.847656,4.785792,5.589633,-4.420618,2.484000
1004.851562,-14.233574,7.242901,3.443866,-5.739921
1004.855469,-4.937631,-4.519216,0.776565,-5.261250
1004.859375,-12.009829,-8.871851,-9.387053,-9.092840
1004.863281,-10.182500,-3.764210,-3.765309,-9.861562
1004.867188,-7.437360,-7.040018,-8.333356,-10.948762
1004.871094,-6.002313,-4.903740,-9.939705,-13.368461
1004.875000,-11.166837,-12.890394,-12.729714,-11.359574
1004.878906,-7.050331,-12.927741,-13.053919,-6.891559
1004.882812,-8.690910,-11.853708,-10.138790,-4.460717
1004.886719,-13.524447,-10.800085,-3.416457,-6.821349
1004.890625,-8.399190,-6.712649,-0.825529,-5.115740
1004.894531,-4.674154,-2.451882,-2.150598,-4.665622
1004.898438,1.813608,0.086897,6.068790,3.848183
1004.902344,-3.343105,0.766070,-0.948560,-0.876236
1004.906250,1.127954,1.433283,-3.446697,6.249729
1004.910156,5.000316,10.856438,7.460041,4.331267
1004.914062,6.540654,8.135086,6.199576,10.222574
1004.917969,11.107289,8.692612,5.815330,4.589922
1004.921875,10.577535,9.971325,8.214732,5.689685
1004.925781,3.636376,14.702115,13.441679,10.993610
1004.929688,13.204339,11.380218,7.431935,7.729670
1004.933594,9.515336,2.263317,2.567009,13.284336
1004.937500,4.528836,4.576778,6.095787,6.329559
1004.941406,6.377594,-1.244682,6.788842,4.071261
1004.945312,1.648402,-3.636392,3.618797,3.547122
1004.949219,-0.368280,-1.596266,1.798898,-0.406519
1004.953125,1.004371,1.425594,6.950308,-13.515845
1004.957031,-0.882057,-4.623362,1.303188,-0.048334
1004.960938,-8.024800,-7.747313,-11.589608,-2.759717
1004.964844,-6.349478,-14.042690,-2.681258,-7.264019
1004.968750,3.666117,-8.851400,-10.620756,-8.609126
1004.972656,-8.065202,-16.006877,-8.354773,-9.858569
1004.976562,-3.154803,-11.625237,-10.204673,-6.298146
1004.980469,-16.764067,-9.536846,-15.102513,-9.357616
1004.984375,-11.688324,-7.445734,-8.473597,-2.050771
1004.988281,-15.981055,-0.586921,-7.702175,-4.297035
1004.992188,-8.435575,-5.011354,-4.156941,-6.047880
1004.996094,-0.115730,4.014123,-4.411933,-0.381485
1005.000000,6.400921,-3.691886,1.077443,-6.401843
1005.003906,2.673418,3.139995,2.294600,5.332706
1005.007812,4.603931,-2.344309,4.151842,3.192593
1005.011719,6.948427,4.900614,10.440488,9.769902
1005.015625,4.270765,8.344459,9.426754,5.603059
1005.019531,4.489145,11.714293,9.985101,2.834714
1005.023438,13.233860,10.743236,10.073268,12.567451
1005.027344,8.102442,16.647453,10.931480,7.578196
1005.031250,6.637011,10.155358,2.965233,8.898685
1005.035156,10.024470,9.312810,12.976739,14.867079
1005.039062,10.556515,5.793511,4.756082,5.256031
1005.042969,8.824558,2.997706,0.383057,-6.510105
1005.046875,7.507335,4.361237,-0.922220,-0.835493
1005.050781,0.315632,-5.700969,-0.888138,-2.366005
1005.054688,-2.893271,-8.660977,-4.442992,-9.093723
1005.058594,-2.305447,-1.338942,-0.481676,-3.412048
1005.062500,-9.545894,-7.127125,-12.324604,-6.397115
1005.066406,-6.718330,-14.956333,-7.362014,-10.646025
1005.070312,-15.268396,-5.033891,-11.900674,-9.780570
1005.074219,-6.418571,-7.789372,-8.499930,-12.461198
1005.078125,-17.741181,-11.764377,-6.736985,-0.747670
1005.082031,-13.329845,-4.161740,-8.084973,-15.336391
1005.085938,-8.352047,-7.301592,-0.392489,-9.757491
1005.089844,2.093674,-5.570061,5.414211,-5.570687
1005.093750,-2.650992,-4.976607,-4.663858,-5.275099
1005.097656,4.157384,3.701812,-9.359332,-0.603003
1005.101562,3.624285,-2.691622,-2.042119,1.276913
1005.105469,10.647430,6.796148,1.282837,0.126274
1005.109375,5.165505,7.564606,-0.494372,3.715990
1005.113281,0.928968,5.214466,4.910507,10.477320
1005.117188,11.818172,8.242615,5.792403,3.000411
1005.121094,0.344438,12.041659,9.483289,-2.107729
1005.125000,6.678928,1.083346,9.824729,9.134055
1005.128906,11.248420,8.171034,13.264556,1.407969
1005.132812,7.354906,13.027272,4.775179,5.272610
1005.136719,7.366580,10.422868,3.652579,9.985215
1005.140625,8.817898,10.717657,9.492090,0.225112
1005.144531,0.678203,-2.002692,1.889844,11.017195
1005.148438,1.072269,4.430284,-0.992294,2.727457
1005.152344,-4.511068,-0.259856,-10.232280,-1.924545
1005.156250,-6.079260,-6.567917,-5.581833,-5.690455
1005.160156,-8.719948,-11.084981,0.216713,-10.376738
1005.164062,-9.230402,-8.902248,-5.933987,-2.488388
1005.167969,-2.700074,-8.751112,-10.848366,-12.162633
1005.171875,-8.841857,-4.313567,-4.774925,-14.972001
1005.175781,-10.557062,-10.672298,-16.637417,-9.104327
1005.179688,-18.325645,-7.008742,-5.241073,-1.952703
1005.183594,-11.210801,-8.573599,-2.002943,-18.299296
1005.187500,-10.113915,-0.436180,-2.313811,-8.507229
1005.191406,-9.144854,-8.402962,-1.407176,-2.335942
1005.195312,-3.709160,6.413107,-2.911874,-1.113902
1005.199219,-2.049205,6.100624,2.448532,3.149009
1005.203125,-4.196746,3.365708,1.638465,0.671783
1005.207031,2.238898,-0.466498,7.173189,5.057529
1005.210938,7.761850,7.082750,9.464551,10.158825
1005.214844,5.768713,0.067779,9.695141,4.488003
1005.218750,14.078688,11.526146,3.661762,11.138045
1005.222656,7.960087,13.598654,9.920573,9.087273
1005.226562,21.516035,5.207216,7.154583,8.191781
1005.230469,11.628384,6.794474,7.392120,11.987976
1005.234375,6.110898,6.669195,10.804026,10.871862
1005.238281,7.754513,0.928872,7.309611,10.956166
1005.242188,-0.070685,4.404757,1.912543,5.601630
1005.246094,0.674334,5.417952,1.224526,1.706957
1005.250000,2.296273,-2.656690,-1.417551,-0.032751
1005.253906,-7.390198,1.982141,-10.556020,-4.027640
1005.257812,-3.992997,-2.043820,-9.409372,-3.442534
1005.261719,-10.786761,-3.114972,-2.549398,-3.067762
1005.265625,-3.591718,-10.539493,-8.504862,-7.435624
1005.269531,-2.125388,-10.444065,-8.774856,-1.479615
1005.273438,-7.489573,-13.019764,-8.432590,-10.465215
1005.277344,-14.641839,-16.780596,-14.382346,-5.333545
1005.281250,-14.748827,-10.323696,-2.780731,-4.615923
1005.285156,-10.906095,-12.016391,-4.518820,-5.793444
1005.289062,-2.050021,-8.727570,-13.803474,-7.436632
1005.292969,-3.913120,3.776586,-17.737640,-0.025488
1005.296875,-5.434716,1.205338,-0.976541,-1.934231
1005.300781,9.197184,-0.289247,-2.128151,-2.900337
1005.304688,-0.716526,5.820199,7.805868,0.795727
1005.308594,1.533486,2.369220,4.199571,10.024831
1005.312500,7.586015,4.360316,3.979513,2.864617
1005.316406,7.234918,-5.520464,2.184325,9.290509
1005.320312,18.642752,5.786304,10.119679,11.173615
1005.324219,11.928152,17.882180,7.410350,17.134330
1005.328125,10.543156,10.521914,6.412973,15.398234
1005.332031,11.771959,7.945770,9.377339,5.863043
1005.335938,1.940349,10.796392,3.239267,8.848241
1005.339844,5.064198,7.907130,8.204748,-2.165779
1005.343750,9.138857,9.787964,0.728272,5.847348
1005.347656,-1.195067,2.143128,7.315020,6.569915
1005.351562,-9.338911,-2.933470,-4.117245,-2.373573
1005.355469,-6.467798,2.019519,-7.041623,-3.760796
1005.359375,-4.977642,-4.962680,-5.847357,-6.478901
1005.363281,4.126330,-2.278651,-3.339395,-12.034065
1005.367188,-12.353910,-7.404138,-14.143949,-9.793221
1005.371094,-13.875917,-8.390990,-8.789911,-8.823165
1005.375000,-12.586540,-6.668046,-7.751656,-10.384206
1005.378906,-9.974483,-13.198344,-11.411733,-6.150478
1005.382812,-9.854749,-5.988166,-12.425926,-14.612876
1005.386719,-5.214302,-4.814916,-13.501126,-12.313008
1005.390625,-12.204756,-6.409555,-2.681050,-1.838049
1005.394531,-0.051101,1.137248,-1.704213,-7.467887
1005.398438,6.262201,-0.094645,0.404299,-3.482111
1005.402344,2.008439,8.131805,0.491372,4.017796
1005.406250,-0.892423,5.233385,7.022479,8.098565
1005.410156,9.239912,6.670262,0.902769,-1.486023
1005.414062,10.380823,8.327613,11.403366,7.770606
1005.417969,12.297933,12.900599,15.213830,6.307248
1005.421875,9.317370,11.142240,6.237144,-1.216182
1005.425781,2.337276,14.825501,8.582086,8.030385
1005.429688,17.028313,6.923814,11.484513,5.761992
1005.433594,2.059101,8.998648,6.265900,2.655482
1005.437500,8.503967,8.879340,5.603877,9.361905
1005.441406,4.326259,10.164136,6.222471,4.439448
1005.445312,6.756547,9.016349,6.190080,-5.009195
1005.449219,-0.212764,-8.162457,-6.021536,1.427736
1005.453125,-1.173152,-8.022657,-3.713656,-3.615454
1005.457031,-1.817539,-2.036964,-7.197038,-4.224790
1005.460938,-8.725477,-4.662870,-5.888790,-10.524609
1005.464844,-2.874667,-4.489408,-11.220938,-4.060379
1005.468750,-2.119976,-4.583883,-7.515807,-8.261686
1005.472656,-6.757928,-8.009913,-8.588513,-17.149349
1005.476562,-7.854088,-5.423180,-11.207835,-12.226492
1005.480469,-8.883200,-4.610182,-21.754994,-8.542890
1005.484375,-10.286183,-8.053880,-7.169565,-7.442141
1005.488281,-4.736493,-3.684592,-9.102731,-10.963105
1005.492188,1.134426,-2.492895,-9.558963,-7.792256
1005.496094,-2.550502,-3.548444,-4.561587,2.686416
1005.500000,-3.749065,1.689817,4.533468,0.992086
1005.503906,5.290369,-4.207658,2.641539,0.163186
1005.507812,2.638942,2.682651,4.612914,2.579302
1005.511719,4.702492,9.450801,9.075709,8.241821
1005.515625,11.731003,9.231688,9.148640,10.932759
1005.519531,8.535693,8.827594,0.322843,13.316613
1005.523438,6.849794,10.586662,13.498496,16.155045
1005.527344,15.408571,5.549839,10.249080,2.987134
1005.531250,11.108415,12.059392,9.945935,3.880170
1005.535156,5.357102,7.695668,5.470492,3.646023
1005.539062,11.007188,8.253241,14.351197,6.126032
1005.542969,4.491312,5.504999,-0.252269,-0.134008
1005.546875,1.982273,3.468616,3.342429,0.425455
1005.550781,-3.339243,3.355945,-2.126008,2.063803
1005.554688,-2.440242,-10.519729,-1.112628,1.586768
1005.558594,-8.003078,-8.676510,-6.084642,-8.139902
1005.562500,-12.395038,1.643989,-11.901147,-5.988274
1005.566406,-13.494007,-12.480131,-4.448479,-8.881850
1005.570312,-9.398362,-3.051925,-12.315015,-10.003109
1005.574219,-13.269556,-16.782964,0.034604,-6.963376
1005.578125,-7.168046,-5.909068,-12.777568,-7.237940
1005.582031,-6.641226,-6.850165,-16.320545,-4.263377
1005.585938,-6.027868,-12.324115,-9.981689,-8.235274
1005.589844,-2.562915,-14.109889,-6.568709,-7.303241
1005.593750,0.644868,-4.984498,-2.423910,-0.464833
1005.597656,-1.918970,-6.523882,-3.974289,9.964357
1005.601562,6.021713,0.305894,0.621749,4.260802
1005.605469,-2.211493,-2.515646,3.534011,7.864652
1005.609375,2.942468,9.206408,9.837960,2.346175
1005.613281,6.018989,11.229579,1.671920,7.238526
1005.617188,11.776613,6.662706,11.293841,9.659589
1005.621094,2.780941,15.079281,11.515461,11.375307
1005.625000,14.195154,-2.856096,9.769607,13.524536
1005.628906,5.721236,3.696896,8.681229,9.189115
1005.632812,12.419455,7.178573,8.576218,7.885992
1005.636719,7.071042,7.092808,3.029286,3.878549
1005.640625,2.307023,10.145374,9.709465,3.794394
1005.644531,-2.495976,6.647551,7.039986,3.858580
1005.648438,2.418548,-3.109283,0.345621,7.810150
1005.652344,-2.218552,1.077625,-3.313005,-4.629830
1005.656250,-3.545110,-12.877615,-2.003513,-2.886645
1005.660156,-7.526223,-8.241612,-2.455036,-1.333287
1005.664062,-8.993280,-4.936661,-6.016353,-4.368538
1005.667969,-6.735569,1.756410,-4.710581,-4.252327
1005.671875,-6.352435,-9.032525,-9.663421,-4.796462
1005.675781,-10.398232,-5.265938,-15.604716,-12.619064
1005.679688,-14.609679,-8.387305,-6.020263,-14.174125
1005.683594,-9.733402,-17.101489,-12.183119,-10.920822
1005.687500,-5.594628,-6.552567,-6.411173,-7.728795
1005.691406,-5.174663,-2.824727,-3.806192,-4.527356
1005.695312,-0.489922,3.676234,-5.792717,-3.544824
1005.699219,2.752657,-6.738864,-0.571387,3.750701
1005.703125,4.594859,5.866710,1.373920,1.166918
1005.707031,4.463867,8.214603,3.697873,3.752034
1005.710938,7.015184,2.535301,13.622103,6.785055
1005.714844,10.653265,7.254539,0.707333,5.282880
1005.718750,6.531549,6.956459,5.933124,15.484415
1005.722656,13.217224,9.738392,9.544948,11.489143
1005.726562,20.843297,8.226413,11.322380,9.782841
1005.730469,5.614291,13.635793,7.494584,11.720449
1005.734375,16.983918,3.996548,3.919268,8.077265
1005.738281,8.919760,10.259339,7.429245,9.063300
1005.742188,5.532586,0.257949,-0.166234,2.408531
1005.746094,7.461510,0.289622,-2.367149,7.001563
1005.750000,-0.991991,-3.769031,6.824998,-3.620599
1005.753906,-1.364349,-7.500489,-3.641793,-6.331845
1005.757812,-4.965263,-4.201041,-2.524018,-8.779181
1005.761719,-6.534282,-10.571143,0.148257,-11.511991
1005.765625,-1.336605,-5.835398,-10.148831,-15.615840
1005.769531,-2.912961,-9.400993,-13.283229,-11.270843
1005.773438,-10.679028,-14.440407,-9.825210,-6.008954
1005.777344,-4.914634,-14.378821,-8.579431,-8.049812
1005.781250,-5.765724,-9.729339,-1.990620,-9.891402
1005.785156,-7.319657,-7.946284,-7.858481,-8.991222
1005.789062,-8.201609,-7.760786,-3.448228,-5.381280
1005.792969,-2.592046,-1.181761,-3.032731,-3.613163
1005.796875,-0.616551,-0.722277,-1.546815,1.561214
1005.800781,0.383805,0.294078,0.877413,4.549014
1005.804688,1.352521,-2.551105,11.360289,-0.938881
1005.808594,8.466656,-0.041722,8.763210,0.248573
1005.812500,1.437221,9.391526,5.843503,8.380246
1005.816406,11.549011,7.567458,16.171576,7.166192
1005.820312,10.756090,10.663140,7.866537,5.455816
1005.824219,9.283177,13.452312,10.159535,6.700965
1005.828125,11.220378,8.672616,12.403022,9.014339
1005.832031,4.076338,6.068771,10.209264,10.285324
1005.835938,10.678371,8.511115,10.134511,10.586461
1005.839844,7.334190,7.911084,2.710872,10.889238
1005.843750,0.013150,4.110626,8.622754,7.080662
1005.847656,-4.385364,5.201740,-2.296931,-6.493496
1005.851562,-0.894057,6.153178,-1.903760,-2.264201
1005.855469,3.544021,-3.735691,-4.260131,2.079904
1005.859375,-3.911140,-4.136863,-2.541120,1.016726
1005.863281,-10.680076,-5.018103,-0.881449,-0.047146
1005.867188,-2.838001,-13.825426,-7.259466,-15.601694
1005.871094,-6.805302,-14.348574,-7.278882,-10.321830
1005.875000,-6.434954,-5.477766,-5.638622,-10.006592
1005.878906,-8.749113,-7.128605,-23.191361,-4.029218
1005.882812,-4.839403,-9.990049,-10.982768,-15.368876
1005.886719,-5.354678,-0.866726,-6.853201,-7.888154
1005.890625,-8.272466,-4.148428,-9.251429,-3.967084
1005.894531,-4.779551,-1.838682,-2.464269,-3.329045
1005.898438,-7.154057,-8.327395,-3.274437,2.247465
1005.902344,-5.069727,1.862311,-1.266316,2.077007
1005.906250,3.372281,8.223703,4.702770,-2.240026
1005.910156,3.847522,-1.598785,8.647669,3.872819
1005.914062,6.091963,12.626923,6.971462,10.746610
1005.917969,7.305874,13.453876,3.351114,5.431183
1005.921875,11.282170,10.642146,14.723163,8.450392
1005.925781,11.923390,15.012863,3.350599,2.779890
1005.929688,11.663283,4.796298,8.207866,7.281098
1005.933594,6.369400,3.245527,10.084689,8.550284
1005.937500,4.663822,1.233350,2.669032,9.350738
1005.941406,8.694778,3.263010,1.852353,8.151784
1005.945312,1.576828,6.019673,1.922441,1.067178
1005.949219,-4.809909,3.744305,-3.014661,-1.893656
1005.953125,-8.493967,-0.301482,-5.238055,-1.414678
1005.957031,-5.947429,-4.197296,-7.957088,0.137868
1005.960938,-9.479728,-1.448653,-11.199718,-5.631215
1005.964844,-4.899795,1.146537,-1.977609,-7.892914
1005.968750,2.306423,-6.528318,-3.476646,-8.879446
1005.972656,-12.021875,-15.575640,-12.475271,-14.698360
1005.976562,-14.037866,-13.876644,-4.915291,-14.366114
1005.980469,-15.700748,-12.140354,-13.427040,-5.230467
1005.984375,-13.855515,-8.658481,-9.624112,-4.622232
1005.988281,-2.594746,-5.602205,-7.401208,-9.309751
1005.992188,-3.111037,-9.808949,-7.276537,-3.401358
1005.996094,-6.199586,5.849700,4.570279,-0.533577
1006.000000,-1.594225,-0.644512,2.327830,2.241055
1006.003906,-0.196339,2.899325,5.718409,-4.597043
1006.007812,10.848864,14.977350,5.877187,5.704013
1006.011719,3.107937,4.689120,7.622970,3.146974
1006.015625,14.346718,9.758142,6.101434,7.295574
1006.019531,9.842577,12.198464,15.818411,11.691631
1006.023438,6.741781,0.717808,7.311574,10.990675
1006.027344,9.992071,11.078396,7.597131,14.442456
1006.031250,7.320743,7.351105,8.281987,8.066512
1006.035156,9.256841,7.785422,14.032884,9.748208
1006.039062,14.422060,0.865212,9.014861,4.499358
1006.042969,3.353177,8.314134,2.551961,2.625808
1006.046875,2.985207,-2.004865,4.635820,8.058367
1006.050781,-1.836187,-2.596623,4.556175,0.914434
1006.054688,-10.823279,-4.454143,-0.450868,-6.696674
1006.058594,-3.845078,-2.632688,-0.734792,-1.710071
1006.062500,-7.770591,-11.598768,-7.023501,-7.116007
1006.066406,-4.394306,-11.367074,-4.573422,-8.126049
1006.070312,-8.364651,-9.004113,-16.342590,-3.708393
1006.074219,-12.113087,-8.416905,-11.860640,-12.937508
1006.078125,-7.224907,-8.147835,-3.796463,-15.060207
1006.082031,-6.000749,-6.652340,-6.675113,-9.169419
1006.085938,-11.017295,-6.686852,-5.074536,-9.733546
1006.089844,3.692387,-11.303066,-9.082627,-6.126985
1006.093750,-1.064109,-6.876460,1.911486,-8.118919
1006.097656,-5.233998,-4.594518,-7.321760,3.463240
1006.101562,2.882448,-7.393927,0.635189,-0.210107
1006.105469,8.436230,9.183724,-2.114377,3.823964
1006.109375,10.627612,11.786448,10.161528,2.891779
1006.113281,3.359696,9.644928,6.063288,7.790224
1006.117188,12.006998,13.457371,8.819374,6.788690
1006.121094,10.160507,12.414186,6.985590,13.681598
1006.125000,16.479450,14.403170,6.242632,7.401603
1006.128906,9.424243,10.036039,9.783101,5.190980
1006.132812,1.823217,5.233931,7.773674,9.331103
1006.136719,11.338114,8.805667,12.370022,7.234886
1006.140625,5.827068,8.018892,5.042346,3.523218
1006.144531,4.568314,3.077114,5.983304,2.003397
1006.148438,1.393477,2.157510,-1.747916,-1.118230
1006.152344,-3.617458,2.156366,-1.894412,6.425501
1006.156250,-3.167524,-3.647658,-8.573399,-4.717317
1006.160156,-10.220867,-9.129274,-3.907523,-9.826928
1006.164062,-16.462867,-7.524583,-2.241775,-13.312208
1006.167969,-6.830790,-12.136217,-5.777506,-11.106660
1006.171875,-6.898912,-10.638809,-10.401735,-8.275141
1006.175781,-15.245863,-17.537747,-5.993410,-12.548366
1006.179688,-4.756436,-12.638108,-15.309376,-11.430187
1006.183594,-7.612451,-3.383621,-12.820710,-16.523607
1006.187500,-2.994615,-6.041915,-10.151569,-5.210203
1006.191406,-6.858359,-8.463596,-5.429114,-2.995248
1006.195312,-6.380692,-0.351908,1.330813,-2.944379
1006.199219,1.073098,0.138231,-3.628883,-0.279600
1006.203125,-0.364919,-2.912454,9.016973,4.107201
1006.207031,2.954123,6.031219,1.088947,7.060870
1006.210938,8.021988,4.129505,4.617036,13.321624
1006.214844,9.086271,7.587387,5.269199,3.622453
1006.218750,10.690105,10.137737,5.083460,7.760765
1006.222656,6.422681,1.495987,11.992280,19.059682
1006.226562,14.059482,11.670523,13.004269,4.137727
1006.230469,8.317286,6.379282,11.841646,0.780089
1006.234375,7.289327,11.342775,11.032005,15.355016
1006.238281,7.543058,6.987739,0.098482,4.696602
1006.242188,6.747282,2.052190,6.878241,-0.763100
1006.246094,-6.719680,-0.922119,2.920114,0.641615
1006.250000,-1.175711,-2.852094,-2.693184,2.405808
1006.253906,-3.468449,-2.198755,2.782985,-6.917704
1006.257812,-0.174890,-5.777211,-2.967542,-2.076402
1006.261719,-4.741510,-10.319762,-7.847903,-10.558035
1006.265625,-12.962207,-11.759263,-5.590301,-8.220050
1006.269531,-9.475533,-4.559369,-3.533469,-22.191226
1006.273438,-9.761135,-7.124924,-17.309469,-8.062487
1006.277344,-6.634178,-11.936455,-3.954569,-3.313166
1006.281250,-12.735558,-6.338939,-3.769883,-7.196983
1006.285156,-10.597918,-11.601818,-11.328084,-2.525149
1006.289062,-10.506339,-7.424394,-3.132080,-6.183843
1006.292969,-10.749780,-6.343628,-7.039695,-8.719531
1006.296875,-0.928892,-1.322797,-3.260607,-8.372200
1006.300781,-0.912691,7.858546,2.894263,3.074904
1006.304688,1.343825,9.003854,1.707078,-6.311740
1006.308594,6.879361,4.265236,8.711011,6.948055
1006.312500,9.056817,3.477524,6.148401,5.595826
1006.316406,5.499720,11.303121,11.394366,5.194536
1006.320312,11.794286,11.220224,6.870197,16.126445
1006.324219,13.728009,6.963972,14.624369,2.666928
1006.328125,7.713206,14.301767,8.762404,7.810435
1006.332031,8.268794,3.249529,10.714753,9.059904
1006.335938,3.623748,1.043333,12.211791,2.007353
1006.339844,2.912678,7.052880,4.818062,6.005281
1006.343750,7.127272,4.685370,4.049840,6.826350
1006.347656,4.317391,4.967999,-5.739287,0.880434
1006.351562,-6.479656,-2.987380,-7.776053,2.429821
1006.355469,-7.545083,-4.024002,-4.208326,-5.369023
1006.359375,-1.225719,0.611956,-7.014359,-7.873234
1006.363281,-9.907731,-7.239401,-9.370677,-9.058448
1006.367188,-5.150190,-7.588445,-4.239911,-6.536502
1006.371094,-7.948157,-12.430336,-10.484096,-10.678380
1006.375000,-14.333034,-7.243595,-16.580243,-11.997732
1006.378906,-12.431639,-18.437478,-9.154353,-11.463109
1006.382812,-15.328757,-9.711783,-16.501799,-7.613579
1006.386719,-10.982020,-2.242117,-3.306947,-15.669371
1006.390625,-7.415887,-7.972917,-4.857126,-7.183817
1006.394531,-1.090658,-11.108310,-6.290058,-5.471649
1006.398438,-3.261952,0.893017,-0.153298,4.983893
1006.402344,-8.319258,2.189631,3.233841,-3.963447
1006.406250,7.522964,6.946539,-0.560400,5.516336
1006.410156,2.005044,8.835738,11.620437,8.385565
1006.414062,4.521851,8.150529,13.766634,6.649303
1006.417969,8.829495,4.527353,0.620202,13.949422
1006.421875,10.087628,3.478600,9.352031,17.302362
1006.425781,12.530847,2.020970,8.319178,11.920304
1006.429688,10.655479,7.691533,8.337471,11.153424
1006.433594,11.131606,11.070546,6.789072,0.213840
1006.437500,10.882230,8.077585,4.488237,8.879947
1006.441406,4.536470,8.517004,4.817099,9.110046
1006.445312,5.440012,0.301525,11.433570,2.192214
1006.449219,-0.847390,3.909987,0.947346,1.978140
1006.453125,-2.753672,1.641620,-2.640097,-10.182807
1006.457031,2.295897,-8.487924,-5.559646,-1.389201
1006.460938,-1.350587,-9.815396,-4.784697,-3.448322
1006.464844,-1.193839,-10.891050,-3.131927,-7.386912
1006.468750,-5.677089,-8.039653,-5.995500,-15.717354
1006.472656,-7.365449,-10.879993,-10.692775,-8.993470
1006.476562,-4.661303,-9.964654,-8.959981,-11.805145
1006.480469,-7.807692,-13.717321,-2.775202,-4.439096
1006.484375,-12.051966,-5.855144,2.076498,-0.109161
1006.488281,-11.450601,-6.782638,-4.283670,-7.359105
1006.492188,-2.134287,-6.087291,-7.405035,-0.986892
1006.496094,-7.922618,0.035801,-2.127312,-5.755623
1006.500000,-0.886654,-2.755479,2.797964,0.568795
1006.503906,-5.694167,0.476039,0.956876,-1.098108
1006.507812,5.187654,5.750641,5.951453,9.112137
1006.511719,3.401119,15.642063,8.529882,0.147164
1006.515625,18.342743,13.753376,12.367083,7.911149
1006.519531,9.647781,9.611048,6.253329,9.132707
1006.523438,13.280085,7.149308,15.093980,7.882976
1006.527344,9.935235,7.857542,10.956193,2.316697
1006.531250,10.498642,7.143305,11.030297,18.120250
1006.535156,5.664419,7.315124,6.748301,8.584268
1006.539062,7.330867,11.645537,11.091834,7.195902
1006.542969,-4.626828,5.971860,1.804490,5.358490
1006.546875,4.239669,-2.748138,-4.247024,11.071336
1006.550781,-9.039661,0.326142,0.900517,-0.646941
1006.554688,0.611143,3.045163,5.796768,-4.221357
1006.558594,-11.893765,-7.462783,-4.640523,-3.906799
1006.562500,2.006583,-4.826988,-5.699679,-0.466862
1006.566406,-13.964935,1.175542,-12.138866,-9.088302
1006.570312,-7.798917,-12.001529,-1.749975,-9.897620
1006.574219,-2.037148,-4.291607,-8.707201,-9.741018
1006.578125,-8.583069,-8.679836,-12.962937,-9.136487
1006.582031,-5.765422,-8.999094,-7.949922,-8.592180
1006.585938,-1.700962,-9.081546,-3.466039,-11.962087
1006.589844,-1.697478,-11.801196,-8.855894,-3.613581
1006.593750,-2.328689,-3.704736,0.735583,-2.570563
1006.597656,-2.649783,1.402201,-3.212643,-1.390903
1006.601562,-2.752749,3.347879,-9.165028,2.283739
1006.605469,-6.679014,3.257878,-7.926630,8.858786
1006.609375,9.373796,1.251914,11.958128,6.683121
1006.613281,10.694267,10.067618,3.817919,5.876778
1006.617188,11.844415,10.850682,14.606357,1.378689
1006.621094,-1.985118,16.146914,13.315331,6.375575
1006.625000,4.757083,13.102757,18.803908,0.851875
1006.628906,6.329728,9.833377,13.756775,9.389360
1006.632812,6.228206,6.556823,5.145931,14.448389
1006.636719,11.685383,4.036324,15.736448,7.105972
1006.640625,12.680624,5.362188,4.884372,1.281883
1006.644531,5.470132,6.444416,2.069818,9.460318
1006.648438,5.850512,0.934186,2.266855,-4.722412
1006.652344,1.889276,-0.435507,-0.023133,-2.083574
1006.656250,-5.853023,-9.673431,-2.287655,-5.332383
1006.660156,-7.706882,-2.617848,-5.904717,-4.698317
1006.664062,-7.064962,-3.177656,0.163183,-6.690152
1006.667969,-9.053927,-10.000969,-21.465625,-14.307535
1006.671875,-7.005026,-10.924053,-12.894415,-10.596860
1006.675781,-5.506230,-9.851940,-12.392644,-16.971360
1006.679688,-4.601837,-15.449552,-9.074846,-18.363486
1006.683594,-9.186836,-3.638767,-4.831919,-12.531882
1006.687500,-2.188178,-10.123389,-5.743868,-12.077176
1006.691406,-6.714534,-3.596289,0.778358,-11.426835
1006.695312,2.936734,2.961771,-2.110654,-1.435921
1006.699219,-7.948905,-1.848463,1.527778,4.760830
1006.703125,6.097691,3.497385,7.039383,-1.690580
1006.707031,6.999788,2.422862,11.915325,-0.546057
1006.710938,0.459829,5.222279,6.241693,3.008020
1006.714844,0.927691,14.119784,9.009857,12.724659
1006.718750,10.004725,12.854820,10.908292,9.146458
1006.722656,8.133582,9.332663,13.499405,6.803227
1006.726562,12.023919,12.463159,6.213462,7.678586
1006.730469,8.655853,13.137110,8.711181,6.197939
1006.734375,5.549428,6.518894,7.299937,4.705478
1006.738281,7.708568,5.497122,4.415606,-1.392849
1006.742188,-3.131970,0.525619,9.230434,-1.199406
1006.746094,-1.122344,-2.302971,0.509920,0.988198
1006.750000,2.801225,-1.757060,3.867530,1.226250
1006.753906,-2.182605,-6.642868,-5.384936,-4.500799
1006.757812,-3.972055,-1.515516,-0.668040,-7.323973
1006.761719,-10.389451,-8.705637,-6.599519,-3.350851
1006.765625,-1.699782,-6.704574,-13.373892,-11.954598
1006.769531,-7.583542,-7.406988,-7.703050,-16.462746
1006.773438,-6.602099,-11.290278,-9.915905,-17.848363
1006.777344,-8.756597,-11.115587,-15.322184,-7.275390
1006.781250,-10.687251,-13.958762,-3.026541,-10.735194
1006.785156,-9.291451,-7.602370,-5.224297,1.107192
1006.789062,0.425608,-7.998892,1.694680,-15.357335
1006.792969,-1.587418,-7.509487,-1.655091,-3.316868
1006.796875,-1.018647,-1.957238,-1.655983,4.212861
1006.800781,2.006823,1.371433,7.464980,4.914032
1006.804688,-4.904473,-2.293310,4.517876,8.999948
1006.808594,-0.123952,3.588394,5.607155,10.073386
1006.812500,5.117504,10.548520,3.331006,4.167101
1006.816406,4.141202,-3.729853,7.120769,12.825449
1006.820312,7.548696,9.848050,7.058090,11.626566
1006.824219,8.591229,6.640461,8.130305,10.835373
1006.828125,6.045615,9.931946,6.188670,5.835400
1006.832031,15.053734,2.849323,10.831889,7.958076
1006.835938,5.108455,4.535939,8.683167,10.064886
1006.839844,2.401156,4.884460,11.997817,-1.505055
1006.843750,3.424078,-4.422757,-2.861616,3.309624
1006.847656,-3.522973,-0.468180,3.890705,-0.201220
1006.851562,-0.183319,1.213003,-3.053192,-7.385564
1006.855469,-5.035260,-5.279884,-5.198981,-4.810573
1006.859375,-11.866086,-2.691395,-9.759778,-1.019826
1006.863281,-14.044006,-10.370748,-14.978935,-9.018850
1006.867188,-4.781284,-8.565073,-7.532305,-9.440256
1006.871094,-10.181097,-11.111652,-11.125013,-10.507425
1006.875000,-7.022723,-19.024430,-10.887285,-16.460771
1006.878906,-14.012110,-3.191117,-7.324073,-18.661699
1006.882812,-16.522468,-3.296475,-9.223312,-7.694919
1006.886719,-12.130109,-13.885535,-6.772717,-7.566643
1006.890625,-8.999728,-8.472823,-2.672209,-10.641970
1006.894531,-4.462882,0.383217,-0.850963,-8.727964
1006.898438,6.578285,1.783885,2.928685,-2.531664
1006.902344,3.255360,-4.737232,1.547076,-1.379486
1006.906250,1.876691,3.798849,-2.156557,5.708936
1006.910156,2.530268,-5.148838,5.375054,9.487527
1006.914062,7.807597,4.135931,9.509951,3.350418
1006.917969,12.642191,8.289053,8.058008,7.229375
1006.921875,13.211990,9.326331,13.987733,10.142222
1006.925781,6.991597,14.583039,11.486943,6.613458
1006.929688,11.650941,10.392335,16.461787,14.783095
1006.933594,19.985253,9.645493,3.611059,15.150745
1006.937500,5.218295,7.741775,-0.720424,7.545668
1006.941406,6.562132,16.416258,6.555340,6.792330
1006.945312,5.522305,3.276229,-1.487597,-2.499619
1006.949219,5.201138,-0.204917,0.338218,7.565526
1006.953125,-7.000589,2.044856,5.846367,-4.266463
1006.957031,-8.050482,-4.458731,-4.975757,-6.503359
1006.960938,-12.648217,-0.865620,-3.650347,-6.993960
1006.964844,-10.795257,-7.474468,-10.178473,-5.020107
1006.968750,-11.996830,-8.943241,-10.549170,-12.930919
1006.972656,-12.011996,-16.634687,-6.989972,-10.079862
1006.976562,-14.667915,-8.094317,-9.218919,-7.483661
1006.980469,-7.413785,-8.609634,-11.768803,-7.305501
1006.984375,-14.593358,-4.372612,-10.285657,-9.736089
1006.988281,-11.788189,-9.193684,0.733380,-10.199978
1006.992188,-1.011605,-10.691312,-3.397127,-4.466569
1006.996094,2.236589,-1.798198,-7.386340,-1.033505
1007.000000,1.364419,4.029777,0.087339,-6.274605
1007.003906,7.171918,4.239666,5.414251,-2.921327
1007.007812,9.968291,8.115982,3.829619,6.162694
1007.011719,13.068574,3.763653,10.743649,4.287146
1007.015625,11.837433,9.904218,7.944019,7.831043
1007.019531,8.060669,11.003126,5.198881,3.302977
1007.023438,6.903252,7.898790,8.459843,4.038542
1007.027344,10.792738,13.953977,9.352925,7.274628
1007.031250,12.066956,6.966502,8.080575,9.374599
1007.035156,3.722422,4.402332,8.279119,6.824611
1007.039062,4.352664,9.569241,8.348291,11.873283
1007.042969,6.680785,1.533275,5.032045,11.016509
1007.046875,3.350006,6.453571,3.111049,4.032474
1007.050781,6.391943,3.869488,2.550432,-1.153825
1007.054688,-5.986915,-8.826945,-1.164621,-6.383203
1007.058594,-3.118494,-4.399329,-3.397008,-0.782611
1007.062500,-0.168939,-5.382412,-12.809794,-1.599487
1007.066406,-16.128514,-8.130861,-10.669770,-7.749355
1007.070312,-14.762282,-14.083640,-11.133673,-11.690740
1007.074219,-11.101561,-0.929899,-13.341800,-8.139463
1007.078125,-0.300358,-6.373888,-7.331876,-8.711505
1007.082031,-14.914265,-6.854012,-7.419797,-2.633208
1007.085938,-2.008844,-5.367366,-9.710320,-11.925144
1007.089844,-5.725116,-4.426114,-10.330935,-13.110269
1007.093750,4.838755,-4.008514,-2.434012,-1.190198
1007.097656,-2.631073,-5.676590,0.556297,-4.242793
1007.101562,1.124941,0.895654,3.158858,-0.291946
1007.105469,6.038075,-2.416546,-6.420510,0.979502
1007.109375,5.965554,10.174182,11.106386,10.260417
1007.113281,6.636478,7.619740,4.971061,5.262950
1007.117188,15.654971,7.603189,3.174228,3.872410
1007.121094,6.767048,8.438969,2.203095,5.921881
1007.125000,13.183176,15.222418,10.671287,11.097139
1007.128906,11.534751,9.224482,7.182031,6.095238
1007.132812,10.135222,7.079654,13.703557,13.866633
1007.136719,8.066377,10.985465,3.936162,7.711352
1007.140625,13.906073,-2.452309,9.593621,4.282509
1007.144531,-0.056046,4.555719,0.983513,2.945605
1007.148438,4.328783,-0.660956,1.608958,-3.332098
1007.152344,-2.212699,4.396314,-4.380680,3.552456
1007.156250,-6.172094,-6.730220,-8.406075,-9.035041
1007.160156,-4.320823,-4.738774,-3.353839,-5.080844
1007.164062,-5.411955,-10.804255,-8.146549,-8.170187
1007.167969,-11.594910,-5.151729,-7.147715,-7.454408
1007.171875,-5.508183,-10.937326,-11.648296,4.292117
1007.175781,-4.668600,-11.970918,-8.387652,-17.218534
1007.179688,-12.289486,-3.583546,-10.610018,-5.171246
1007.183594,-7.656625,-5.934103,-13.095733,-10.814902
1007.187500,-15.177782,-5.978334,-5.341881,-2.688208
1007.191406,-5.267890,0.939761,-0.906908,-4.955506
1007.195312,-1.664712,-3.485014,-8.429633,-4.959477
1007.199219,2.659320,3.980186,6.922154,-2.024206
1007.203125,-1.493331,2.797076,3.884251,2.106001
1007.207031,9.284206,0.867985,10.364537,0.910729
1007.210938,1.565625,9.136177,6.913572,5.858647
1007.214844,9.696324,12.324252,12.892613,9.774640
1007.218750,8.084048,21.141974,8.284449,6.977794
1007.222656,7.953089,9.197732,13.378812,19.037660
1007.226562,18.051166,10.445002,9.525488,2.875143
1007.230469,13.639239,6.713142,4.656298,11.111320
1007.234375,2.341366,-1.719705,0.662187,8.864172
1007.238281,10.336559,8.906911,3.599758,3.641084
1007.242188,4.157665,8.547599,6.740123,3.982509
1007.246094,0.362196,-0.602757,-2.259678,5.017686
1007.250000,7.831381,4.010594,-9.212167,-0.426821
1007.253906,1.078466,-5.135733,-2.673267,-0.679230
1007.257812,-1.714099,-6.220941,-5.193215,-11.235615
1007.261719,-9.525068,-12.544462,-12.926209,-6.998969
1007.265625,-16.182685,-8.442391,-6.312519,-5.744593
1007.269531,-4.345157,-3.587887,-6.096414,-7.581961
1007.273438,-8.976376,-3.598302,-13.174837,-11.319264
1007.277344,-7.809473,-8.814995,-10.348450,-12.020473
1007.281250,-11.787309,-10.944555,-9.274890,-10.356474
1007.285156,-5.098826,0.783023,-7.997014,-9.460233
1007.289062,-14.999570,-9.742394,-13.130513,-6.745243
1007.292969,-0.832092,-8.972910,1.123782,-7.284162
1007.296875,-12.501456,-1.292472,-4.049776,0.368569
1007.300781,4.672304,3.828840,11.173981,0.982331
1007.304688,7.820799,7.284064,-1.849865,-6.395004
1007.308594,2.312995,6.393602,11.833321,10.170703
1007.312500,8.167649,8.977120,5.706665,6.563005
1007.316406,4.363003,15.220854,2.119810,10.265999
1007.320312,14.408038,15.044655,9.014612,12.931450
1007.324219,8.091119,7.393751,11.673958,12.092557
1007.328125,12.081034,6.408772,1.812397,7.437522
1007.332031,9.687843,10.603502,10.318723,10.348521
1007.335938,5.706263,4.044360,7.659621,6.965587
1007.339844,11.833941,9.043548,7.393498,1.223115
1007.343750,3.734086,4.580155,11.456441,7.400437
1007.347656,4.911294,9.262751,6.673409,7.932843
1007.351562,-0.189596,5.581473,0.802713,0.456050
1007.355469,-2.579437,-3.586180,-2.598664,-3.177263
1007.359375,-7.545733,-9.012862,-2.351562,-4.126974
1007.363281,-1.274992,-8.165041,-8.143841,-8.992506
1007.367188,-7.096231,-4.601597,-3.922553,-9.861121
1007.371094,-15.839652,-6.893268,-14.336299,-0.690850
1007.375000,-9.167649,-13.678645,-12.012326,-13.142274
1007.378906,-18.221121,-13.445308,-16.137254,-6.605270
1007.382812,-10.492630,-13.782847,-13.404584,-9.428650
1007.386719,-2.651110,-13.784168,-12.250571,-4.867873
1007.390625,-3.453763,-2.268037,-7.394423,-8.843034
1007.394531,-1.995868,-1.718151,-1.721274,-3.620730
1007.398438,-0.801823,-0.488429,-5.523781,-2.216336
1007.402344,0.731084,6.166568,2.111737,9.835841
1007.406250,4.721790,0.071536,4.315983,8.963077
1007.410156,8.306303,6.127060,5.189786,6.328794
1007.414062,9.340242,11.547240,6.595211,4.469577
1007.417969,2.834617,3.549189,3.231312,13.381409
1007.421875,7.224843,10.960418,15.975109,4.536588
1007.425781,11.657446,9.838798,9.790248,6.669666
1007.429688,9.216249,1.753249,6.280456,13.974180
1007.433594,12.119616,13.122781,4.552060,13.508831
1007.437500,8.284142,5.172105,2.164228,5.510114
1007.441406,5.018568,15.934188,3.259304,7.497446
1007.445312,3.840843,-1.608503,3.406238,0.931575
1007.449219,-2.557839,1.976570,-4.882053,4.011007
1007.453125,-0.671354,-1.067136,3.653324,-8.065445
1007.457031,1.006646,0.670614,-3.362500,-9.331046
1007.460938,-8.297509,-8.262336,-7.303204,-8.118389
1007.464844,-7.492664,-3.636477,-9.167814,-9.603310
1007.468750,-9.995991,-14.588515,-6.669008,-9.634126
1007.472656,-6.530774,-7.511228,-13.106775,-14.774475
1007.476562,-9.045924,-12.482681,-12.462129,-10.422974
1007.480469,-11.401602,-4.615798,-12.688753,-10.004307
1007.484375,-8.026767,-8.650227,-16.956824,-5.372596
1007.488281,-11.068439,0.362637,-1.743079,-2.219482
1007.492188,-3.942383,-11.040479,-7.796076,-5.998714
1007.496094,-2.735016,-4.245979,0.196946,3.093974
1007.500000,-3.385882,-2.606787,4.067292,5.284551
1007.503906,-1.191966,2.160877,7.652339,3.438321
1007.507812,3.852570,-0.843432,6.016305,2.097012
1007.511719,7.714618,6.536833,3.287005,4.701143
1007.515625,5.629466,15.866867,6.994340,9.492779
1007.519531,8.625101,11.800093,8.199743,13.234160
1007.523438,5.316470,9.613855,17.143914,9.236006
1007.527344,8.918839,11.461882,6.102427,5.567071
1007.531250,12.305634,5.278324,13.916496,8.390692
1007.535156,9.807991,14.690059,17.227287,7.150806
1007.539062,5.970746,3.883103,8.180141,5.004630
1007.542969,2.015278,4.468933,7.461719,10.591550
1007.546875,1.137339,3.239185,5.274857,4.060559
1007.550781,-1.673090,-7.878815,2.582440,5.124612
1007.554688,-4.698334,-2.350670,-0.127995,-5.139879
1007.558594,-7.338671,-5.260109,-3.321824,-13.272565
1007.562500,-4.314136,-4.608040,-9.076673,-0.309616
1007.566406,-6.579608,-14.207601,-8.445233,-5.140806
1007.570312,-9.272535,-9.320909,-10.608971,-6.695055
1007.574219,-9.925745,-14.420509,-8.114023,-5.478594
1007.578125,-8.446736,-9.087584,-18.894128,-2.817244
1007.582031,-11.342617,-5.061559,-8.307112,-5.178964
1007.585938,-12.699307,0.387841,-4.146643,-9.147445
1007.589844,-6.339579,-6.531937,-0.893164,-7.197055
1007.593750,0.311441,0.844815,-3.223640,-3.568485
1007.597656,0.393725,3.936428,-1.253497,-0.395577
1007.601562,3.135559,4.579963,-2.007291,-0.804314
1007.605469,4.201938,0.926456,2.963921,6.483964
1007.609375,-1.310766,9.356387,6.838362,-2.897115
1007.613281,5.383414,10.715687,12.825389,4.884484
1007.617188,7.988881,12.809749,14.076951,13.147727
1007.621094,9.296305,10.586326,10.470391,7.297446
1007.625000,9.928390,8.992658,16.411564,5.693884
1007.628906,21.155141,8.824680,11.042574,12.391676
1007.632812,3.786054,9.738747,11.404765,10.770354
1007.636719,4.787956,14.110112,3.614118,2.034486
1007.640625,3.939484,6.364330,4.393217,4.461520
1007.644531,-0.882166,4.700615,4.693390,5.029657
1007.648438,-5.315032,-1.651726,-6.163385,0.730530
1007.652344,1.937752,-1.034991,1.434867,3.156909
1007.656250,-4.327064,-7.022653,-4.817676,-1.681833
1007.660156,-5.599949,-8.510550,-1.113208,-5.332176
1007.664062,-9.649219,-5.452269,-15.564785,-10.243476
1007.667969,-2.725518,-3.422890,-8.670422,-12.370805
1007.671875,-10.425358,-15.918638,-11.611650,-10.066931
1007.675781,-14.292096,-13.578444,-10.661281,-12.155626
1007.679688,-11.592938,-11.680303,-8.912286,-13.340097
1007.683594,-6.491799,-6.312010,-7.744188,-12.293086
1007.687500,-12.023416,-13.905994,-5.445310,-2.866298
1007.691406,-9.852661,-3.721886,-11.452248,-4.291919
1007.695312,-8.876313,-1.043759,-2.827850,-7.679008
1007.699219,3.525738,-9.078116,-2.260076,-0.355325
1007.703125,2.663181,3.330458,6.793876,-0.863659
1007.707031,-3.285966,12.552519,-0.242618,4.047587
1007.710938,4.611021,5.173125,7.185749,7.490360
1007.714844,5.863705,2.598650,3.611017,10.494804
1007.718750,13.873319,9.895876,8.108949,8.510750
1007.722656,15.689230,9.010693,7.961736,6.013419
1007.726562,8.076094,12.715008,12.801547,13.452786
1007.730469,1.886201,4.400483,8.851938,9.638816
1007.734375,11.977061,10.224177,10.778686,10.168652
1007.738281,5.440964,4.969575,3.219480,5.818629
1007.742188,7.931287,8.133765,1.536595,0.315572
1007.746094,-3.475705,3.760707,1.117513,-0.149807
1007.750000,4.677335,1.942694,2.613228,-6.221994
1007.753906,-8.263620,-0.214867,4.309214,-9.621891
1007.757812,-4.246115,-3.472633,-4.607819,-4.637065
1007.761719,-8.700834,-8.859088,-10.270156,-1.134856
1007.765625,-7.901179,-7.084249,-0.425257,-8.250456
1007.769531,-1.145905,-6.120174,-7.031659,-6.901544
1007.773438,-7.304353,-5.850015,-9.743875,-18.236993
1007.777344,-6.478008,-10.976638,-5.818961,-7.608071
1007.781250,-10.184897,-8.351092,-11.385741,-12.461450
1007.785156,-9.700562,-10.195754,-13.374816,-12.706846
1007.789062,-3.559017,-5.450801,-12.173361,-1.309599
1007.792969,3.197453,-6.533025,-0.453235,-7.836171
1007.796875,-2.531580,0.803412,-7.247159,-3.382225
1007.800781,-0.166034,-1.572997,-0.981330,1.854369
1007.804688,-4.230643,6.150809,1.247597,11.855199
1007.808594,0.497676,7.499888,2.698240,4.834287
1007.812500,2.098382,5.744404,11.993663,4.257447
1007.816406,5.992910,9.841393,12.800836,9.256982
1007.820312,9.546194,5.912835,14.020814,7.087367
1007.824219,6.194135,5.201934,13.744192,15.443403
1007.828125,6.667479,12.446194,8.225610,-1.677589
1007.832031,5.918927,14.295215,8.612506,12.602424
1007.835938,7.962800,8.799330,5.479620,7.770262
1007.839844,9.624756,7.105108,7.766856,4.050495
1007.843750,1.984420,-0.915363,0.883270,3.449944
1007.847656,-1.493550,-10.126095,-0.135702,1.184020
1007.851562,-0.087941,0.733607,-0.155766,-5.982553
1007.855469,4.717793,1.531379,-5.963820,0.356757
1007.859375,-5.402360,-4.810556,-8.434985,-1.286067
1007.863281,-8.878222,-6.972254,-3.515318,-13.741439
1007.867188,-10.106183,-11.083977,-13.989701,-7.018352
1007.871094,-10.343601,-9.426141,-11.486679,-8.054938
1007.875000,-13.991567,-15.573216,-8.565449,-9.908378
1007.878906,-7.013666,-11.587918,-10.846773,-11.531163
1007.882812,-5.820013,-14.274582,-12.326555,-9.026582
1007.886719,-9.625733,-7.232408,-10.471650,-1.397191
1007.890625,-4.517990,-2.879015,-10.530512,-1.466238
1007.894531,-0.200660,-7.880090,-10.060641,-5.554289
1007.898438,-4.615911,2.437004,1.377020,-3.314521
1007.902344,6.158301,-6.867515,-3.708364,-0.816122
1007.906250,3.107826,3.153685,9.336718,1.660056
1007.910156,2.561830,3.543199,3.111317,7.066003
1007.914062,2.097333,14.126551,9.521153,5.960836
1007.917969,9.262478,9.293363,8.253063,13.360722
1007.921875,9.203987,15.341283,12.681680,8.718291
1007.925781,14.376652,7.454975,14.600477,10.346817
1007.929688,20.087407,12.638106,1.187946,14.628832
1007.933594,10.821553,6.626162,10.841346,7.530044
1007.937500,11.240760,8.372539,3.438250,7.786005
1007.941406,8.290512,5.768401,5.785321,5.998489
1007.945312,0.885687,8.823984,4.028149,2.879339
1007.949219,-2.372578,0.688845,2.614542,-3.538882
1007.953125,-0.063950,-0.468503,-7.535529,-9.322081
1007.957031,2.746472,-2.453918,-9.484855,-7.349934
1007.960938,-3.773794,-4.818124,-14.859104,-4.052680
1007.964844,-9.771884,-3.745560,-12.514129,-6.943895
1007.968750,-10.949013,-19.993487,-8.670255,-5.001439
1007.972656,-6.639129,-8.653166,-12.385287,-11.570619
1007.976562,-11.255771,-4.148851,-13.806845,-10.433935
1007.980469,-13.600691,-16.144706,-13.830738,-10.642362
1007.984375,-7.955382,-12.853880,-10.494127,-9.192965
1007.988281,-3.042089,-3.040668,-16.438281,-4.880485
1007.992188,-8.462675,-0.111528,-5.143862,-4.998229
1007.996094,-6.828168,-7.390772,-3.733538,-5.533880
1008.000000,-2.395257,-0.448078,-3.879548,-3.234233
1008.003906,6.195440,5.213447,0.204309,1.623842
1008.007812,7.773643,5.005889,10.169527,4.629065
1008.011719,3.312889,11.118883,3.866155,5.487077
1008.015625,6.672269,9.826280,6.925555,2.113114
1008.019531,6.351447,2.852241,4.638421,14.085779
1008.023438,14.176169,7.695235,15.484130,17.597755
1008.027344,3.238398,9.573095,14.578776,5.822336
1008.031250,5.878051,10.357050,9.106564,8.345576
1008.035156,9.421356,11.473804,4.300371,5.356893
1008.039062,11.779267,2.757284,9.234011,6.353395
1008.042969,2.767297,5.646405,8.168997,9.871783
1008.046875,-5.054541,4.751763,4.123423,-0.940462
1008.050781,0.670591,-0.703754,-1.803063,-1.670930
1008.054688,-6.520125,-2.545286,-1.579876,-2.636064
1008.058594,-5.775505,-1.961557,-9.732864,-8.170692
1008.062500,-2.842979,-6.339866,-13.592740,-5.439075
1008.066406,-9.231191,-15.600937,-8.146133,-9.984753
1008.070312,-10.244064,-10.442320,-15.333528,-10.851118
1008.074219,-9.310433,-16.923470,-15.010148,-8.882683
1008.078125,-5.723136,-10.580445,-9.307798,-8.268868
1008.082031,-10.474319,-11.777281,-4.430005,-12.455271
1008.085938,0.663500,-11.866647,-11.750515,-11.577334
1008.089844,-8.930424,-5.076517,-7.018821,-2.915077
1008.093750,-3.689484,-5.579510,0.883246,-7.695631
1008.097656,2.108169,-0.416489,2.719348,-2.273898
1008.101562,6.605205,-0.544100,4.677435,-7.318764
1008.105469,4.865603,-5.440567,1.218249,4.686636
1008.109375,10.513214,9.679757,7.136866,2.991811
1008.113281,-1.088549,12.811912,7.068756,9.691567
1008.117188,9.616028,10.278394,10.408796,7.295848
1008.121094,7.307938,6.562508,6.284228,13.573903
1008.125000,8.185072,-1.749693,12.461502,10.773509
1008.128906,15.963226,11.442596,11.677766,5.019446
1008.132812,10.400790,10.275000,11.416161,12.572943
1008.136719,10.148025,-0.114225,12.168232,3.294633
1008.140625,0.710601,7.907678,0.178128,-3.334605
1008.144531,-3.065599,6.478442,1.784916,1.768325
1008.148438,-2.103259,9.114087,-0.199869,-0.925995
1008.152344,-0.139469,-7.627735,-0.861948,-2.671939
1008.156250,0.244549,7.045367,-5.475725,0.001835
1008.160156,-8.318904,-10.614333,-4.561653,-4.093106
1008.164062,-6.075309,-5.968073,-4.487152,-6.269649
1008.167969,-6.522198,-5.052638,-6.564652,-10.299846
1008.171875,-16.313141,-12.474238,-9.642278,-16.607472
1008.175781,-9.158079,-6.343074,-17.938798,-3.009312
1008.179688,-11.203994,-7.454918,-3.570176,-7.206956
1008.183594,-6.387164,-9.988941,-2.562779,-12.068194
1008.187500,-5.043865,-7.802385,-3.746584,-8.162528
1008.191406,-10.355703,-1.750617,-2.083456,-2.573995
1008.195312,-2.806884,-4.870897,-8.902993,-7.116623
1008.199219,-8.580567,4.472890,-5.821271,-5.203738
1008.203125,3.069878,3.483871,-1.211722,-4.225313
1008.207031,-0.973646,10.421952,3.214585,10.984328
1008.210938,8.480672,11.305699,4.334557,11.945121
1008.214844,6.467004,5.735427,8.347544,9.710698
1008.218750,9.900827,14.269817,8.432246,6.948876
1008.222656,9.548904,16.680518,13.178156,2.794513
1008.226562,4.683990,11.609858,10.304777,16.532126
1008.230469,4.916177,6.096712,12.025699,2.803626
1008.234375,12.227006,7.360800,2.007076,15.066679
1008.238281,6.727814,4.273380,11.976834,8.754312
1008.242188,7.073465,0.965552,0.301996,2.045673
1008.246094,6.377693,1.336670,2.655781,5.961495
1008.250000,-0.919074,-3.102886,3.640094,-3.491933
1008.253906,-1.452019,-0.329134,-4.175586,-4.186699
1008.257812,-3.877195,-9.220912,-10.775292,-8.518744
1008.261719,-5.524790,0.247462,-4.776558,-2.606357
1008.265625,-7.443101,-7.199465,-1.763440,-14.311025
1008.269531,-7.284192,-7.821199,-13.649672,3.163576
1008.273438,-7.203805,-12.792457,-14.815689,-11.623173
1008.277344,-7.285494,-8.925171,-9.416304,-8.529422
1008.281250,0.783890,-13.114540,-12.104807,-11.009136
1008.285156,-12.674315,-5.930398,-9.433220,-4.598481
1008.289062,-1.071494,-6.194770,-13.665383,0.887910
1008.292969,-1.855044,-6.382850,0.374571,-9.665349
1008.296875,-6.060040,4.578112,-3.582766,-2.542379
1008.300781,3.617536,7.032492,0.221074,5.318343
1008.304688,7.750874,10.279453,3.406242,3.259934
1008.308594,-0.952443,4.096786,1.970973,1.552285
1008.312500,8.747144,6.367239,2.038663,4.764823
1008.316406,7.435496,10.844212,0.995072,4.910580
1008.320312,9.452932,3.399715,10.248159,4.610151
1008.324219,11.201687,16.744387,12.877673,5.149625
1008.328125,14.255857,14.115695,11.119392,11.654781
1008.332031,12.358059,6.881372,12.533880,14.830145
1008.335938,9.842333,15.234475,11.554508,2.702063
1008.339844,4.280312,7.088044,-0.459560,9.932876
1008.343750,10.752619,2.746591,-0.252691,-0.117915
1008.347656,2.193841,-1.224813,5.398974,1.335601
1008.351562,0.307781,-4.214611,-0.826271,-1.003729
1008.355469,-4.702086,-9.846019,-8.847962,-3.607721
1008.359375,-1.992688,-3.703105,-6.894553,-2.487149
1008.363281,-8.109127,-6.919603,-7.099755,-14.092114
1008.367188,-1.160106,-8.110120,-13.212731,-5.750472
1008.371094,-9.646682,-12.568057,-4.497469,-10.879311
1008.375000,-6.263032,-7.854146,-9.867493,-12.779631
1008.378906,-11.379710,-7.564096,-8.614719,-16.099360
1008.382812,-11.680841,-13.804973,-13.711550,-10.292279
1008.386719,-10.161781,-7.197336,-11.968308,-8.868574
1008.390625,-1.461267,-2.900702,-6.988949,-5.316381
1008.394531,-5.330900,-2.772766,1.472407,5.967084
1008.398438,-3.096853,1.545908,-7.688950,-5.063611
1008.402344,-0.057836,-0.783395,3.682502,0.585640
1008.406250,4.992227,1.016956,5.162329,5.005503
1008.410156,9.212448,5.532258,9.278758,10.530644
1008.414062,5.760225,7.538339,5.912174,7.208443
1008.417969,15.606840,3.495125,15.265619,12.785565
1008.421875,8.374394,14.502857,13.258676,4.996038
1008.425781,11.865973,11.850685,13.391618,7.455978
1008.429688,14.864066,11.006121,13.923255,12.596659
1008.433594,8.936030,11.971474,11.524593,4.350237
1008.437500,13.592708,7.542511,10.860292,12.911022
1008.441406,11.569295,9.306741,12.691137,7.021161
1008.445312,8.051669,4.487304,11.270881,7.118814
1008.449219,2.221178,-2.064065,1.095352,2.173633
1008.453125,-7.104477,-8.489077,0.257520,0.178110
1008.457031,-9.572126,-8.263670,-3.719086,-2.840365
1008.460938,-2.075856,-4.048885,-7.294776,1.445099
1008.464844,-22.460351,-4.438984,0.193270,-5.840990
1008.468750,-15.943074,-8.008302,-11.322509,-3.979416
1008.472656,-10.452411,-8.503577,-9.743894,-13.653665
1008.476562,-8.360391,-7.549627,-12.807917,-6.051369
1008.480469,-11.570101,-14.395541,-9.172784,-6.060054
1008.484375,-6.047736,-11.923909,-12.449039,-6.922836
1008.488281,-5.215474,-10.859719,-8.200407,-9.538909
1008.492188,-5.881067,-4.448633,-10.323230,-2.141920
1008.496094,-2.680684,0.330761,0.723528,2.722942
1008.500000,-0.098543,5.775487,-0.101289,3.334113
1008.503906,3.531898,6.572603,-1.357237,9.958888
1008.507812,6.875109,4.242339,11.890317,7.144660
1008.511719,7.405036,3.121486,5.260810,9.065627
1008.515625,11.332459,10.372368,7.584450,9.290800
1008.519531,7.131893,7.819774,7.444953,9.158927
1008.523438,9.047659,7.650042,10.507521,8.332084
1008.527344,2.138972,6.305904,9.168245,12.148452
1008.531250,4.673572,10.521030,8.331141,7.804224
1008.535156,3.472662,9.025291,12.816057,12.110258
1008.539062,11.525432,11.305266,10.926825,10.361412
1008.542969,3.223904,10.118150,-1.180825,-1.630304
1008.546875,-2.910399,-2.385493,-7.155887,-0.335249
1008.550781,0.767646,-6.870080,-6.142430,-4.204591
1008.554688,-1.902403,-3.774190,0.114327,-1.600622
1008.558594,-3.922067,-8.332307,-5.766972,-4.289117
1008.562500,-12.835191,-9.470438,-6.219961,-3.622995
1008.566406,-11.101928,1.507478,-6.390540,-7.418298
1008.570312,-4.098784,-8.681670,-10.561984,-14.306664
1008.574219,-6.283570,-7.575400,-3.528340,-11.219931
1008.578125,-6.916425,-6.155857,-12.453145,-7.088303
1008.582031,-9.905603,-9.498129,-5.456259,-2.445550
1008.585938,-2.906123,-9.698928,-4.441818,-8.941340
1008.589844,-8.011275,-5.086053,-13.887823,-4.909770
1008.593750,-3.036604,-7.116738,-4.976181,0.803837
1008.597656,-1.228649,1.542287,2.354150,0.619520
1008.601562,7.516840,-2.878223,-5.195959,-5.515583
1008.605469,-2.937906,3.327828,-1.431514,9.238179
1008.609375,6.750073,4.447237,13.326643,1.203493
1008.613281,9.383844,4.314806,12.802681,2.405137
1008.617188,7.050028,13.356518,19.377529,5.187594
1008.621094,6.728984,12.268668,5.474930,15.504879
1008.625000,6.456742,17.553161,15.818774,13.563085
1008.628906,14.301735,14.100179,5.001521,9.080991
1008.632812,8.855817,3.681696,12.899368,16.929967
1008.636719,8.214202,1.353558,7.387213,6.167266
1008.640625,6.613412,8.807249,8.725223,-1.882073
1008.644531,2.353681,-0.672706,2.354351,8.531949
1008.648438,1.404605,-1.624473,-5.583060,-3.642899
1008.652344,-3.598645,-8.048832,5.893071,1.336069
1008.656250,-5.732967,-5.400912,-0.544437,-3.034561
1008.660156,-4.520018,-1.692680,-8.076507,-9.809161
1008.664062,-19.660707,-12.709686,-10.975159,-1.425252
1008.667969,-17.633079,-9.635292,-8.814621,-7.659567
1008.671875,-11.985407,-10.610198,-9.057266,-12.211467
1008.675781,-9.162386,-10.830134,-14.082870,-8.983033
1008.679688,-9.097297,-2.923438,-12.664242,-12.435247
1008.683594,-10.510472,-3.138098,-10.603946,-13.928822
1008.687500,-7.357992,3.686099,-8.917328,-4.914277
1008.691406,4.803409,-4.664833,-9.093285,-11.871742
1008.695312,2.367027,3.370454,-4.685870,-0.522519
1008.699219,0.618331,-4.139726,-7.768593,-4.081667
1008.703125,1.344689,2.868753,10.213743,6.598582
1008.707031,-0.614340,13.227900,-5.508689,6.705257
1008.710938,8.523405,4.247091,13.249400,12.950155
1008.714844,10.043481,1.760365,5.091872,3.396260
1008.718750,3.242609,6.039947,3.481501,8.510303
1008.722656,11.470263,13.584201,2.986123,2.591461
1008.726562,8.279425,13.946011,15.136928,11.407788
1008.730469,8.075048,7.161716,1.709980,12.778315
1008.734375,11.699442,5.441336,8.490553,11.149730
1008.738281,13.084865,6.824352,6.336056,8.155939
1008.742188,5.887588,4.309702,14.693691,11.475309
1008.746094,5.124495,5.875448,4.663999,1.567649
1008.750000,0.419130,6.296795,-1.479423,1.149710
1008.753906,1.391993,-2.409305,-4.795868,-2.161217
1008.757812,-4.764974,1.105269,-2.049391,-6.956545
1008.761719,-10.282208,-6.886178,-10.343232,-7.700644
1008.765625,-4.051624,-8.447368,-4.432989,-3.634738
1008.769531,-9.309092,-13.918325,-8.789928,-6.091943
1008.773438,-5.545561,-13.398144,-11.253195,-11.860323
1008.777344,-10.399941,-0.867699,-13.575510,-10.549117
1008.781250,-10.226888,-10.468770,-9.135579,-5.757078
1008.785156,-8.551030,-6.297691,-6.576779,-16.341006
1008.789062,-10.155463,-8.243235,-13.660301,-0.833991
1008.792969,-4.639260,-0.401488,-3.391200,-10.087037
1008.796875,-4.457566,-5.556492,3.769807,-2.290677
1008.800781,2.668228,1.762214,6.163325,-0.049945
1008.804688,2.858739,4.452971,8.054105,4.368279
1008.808594,10.241790,9.126811,5.240416,3.508173
1008.812500,-1.895782,4.454933,5.666429,8.399602
1008.816406,11.238977,8.575381,12.741966,6.727804
1008.820312,9.438694,9.764142,10.029027,1.376306
1008.824219,10.836394,7.441417,5.522738,3.686421
1008.828125,17.577656,14.060838,7.872657,3.857535
1008.832031,9.232994,6.949681,16.461506,5.311261
1008.835938,1.180129,10.107168,14.413405,13.488530
1008.839844,4.124434,7.374040,5.757888,4.784066
1008.843750,5.236009,0.079570,12.282238,4.971945
1008.847656,4.652095,1.461679,1.530522,3.685407
1008.851562,3.698151,1.509748,2.929344,6.864058
1008.855469,-7.054634,-10.413764,-6.776443,-7.102318
1008.859375,-0.229639,-3.092575,-2.531739,-4.606616
1008.863281,-7.328955,-10.726770,-13.658023,-12.722235
1008.867188,-21.030335,-3.234808,-9.151991,-7.084207
1008.871094,-13.330485,-8.681548,-8.067650,-9.547015
1008.875000,-12.303624,-8.303842,-12.375309,-10.423374
1008.878906,-13.167246,-4.988692,-9.463373,-16.180190
1008.882812,-13.279725,-7.804192,-7.452501,-10.996801
1008.886719,-12.195833,-8.738869,-9.237540,-12.934931
1008.890625,-3.723694,-6.517925,-0.107445,-8.972181
1008.894531,-3.924952,-1.663763,2.467961,-0.350049
1008.898438,2.192015,4.178068,-7.970016,-2.555925
1008.902344,2.770269,5.543550,9.527570,6.164353
1008.906250,11.752671,1.502139,8.105297,-4.241207
1008.910156,10.541819,5.483455,1.669237,5.484514
1008.914062,4.498105,15.557464,11.134044,2.760432
1008.917969,11.145039,8.500563,8.887246,4.974061
1008.921875,5.501883,5.128373,5.369121,7.919617
1008.925781,10.251584,7.508876,15.392842,18.240215
1008.929688,8.265829,10.839642,7.215669,11.226119
1008.933594,6.010369,9.272566,2.060572,13.026811
1008.937500,8.657982,2.405236,11.388984,12.861931
1008.941406,8.212149,8.158715,7.469828,9.392689
1008.945312,-2.525737,0.615888,6.536626,-1.938465
1008.949219,-4.047380,-0.675188,1.743797,8.696368
1008.953125,-3.293810,4.111177,-5.659387,-2.729549
1008.957031,-7.183020,-3.748800,-1.024419,-1.543747
1008.960938,-4.508617,-5.213277,-3.566193,-8.666307
1008.964844,-4.405423,-9.316255,-7.593967,-14.269889
1008.968750,-1.750843,-12.404058,-2.324520,-6.231479
1008.972656,-10.629150,-11.564278,-3.772550,-8.956980
1008.976562,-15.396071,-11.080127,-6.115637,-17.908360
1008.980469,-11.833340,-13.451793,-3.475655,-14.161120
1008.984375,-7.476226,-8.329507,-5.019228,-7.115416
1008.988281,-10.526914,-11.280620,-2.537065,-0.683257
1008.992188,-7.054761,-0.828678,-3.685522,-3.561538
1008.996094,-3.921064,0.964204,-1.583153,-1.423962
1009.000000,3.200832,0.577321,1.213148,0.606553
1009.003906,0.458515,0.542668,2.761292,0.703699
1009.007812,0.935086,0.722531,-0.986156,0.864312
1009.011719,3.971706,-0.754138,15.645868,9.203742
1009.015625,9.350769,0.412379,7.516540,7.616799
1009.019531,15.293173,12.169848,6.405867,6.913493
1009.023438,10.750760,11.927413,19.784465,8.843541
1009.027344,11.789560,6.654371,2.811021,10.790806
1009.031250,7.366093,7.969590,10.624015,21.749024
1009.035156,6.743473,12.048260,7.010224,8.143949
1009.039062,-0.756502,6.574046,10.445421,7.324895
1009.042969,2.428276,-2.897989,2.548025,7.781173
1009.046875,0.307506,3.883371,1.174279,3.131902
1009.050781,-1.724609,-1.749599,-1.352801,2.486611
1009.054688,-3.874973,1.908951,-1.136561,-2.156466
1009.058594,0.474699,-2.323138,-4.482316,-3.709056
1009.062500,-7.926004,-10.862752,-5.551091,-10.743114
1009.066406,-10.778108,-7.813270,-11.554503,-13.767788
1009.070312,-12.528483,-7.246878,-17.147125,-11.659881
1009.074219,-5.314761,-8.682432,-4.971050,-11.676970
1009.078125,-14.667187,-5.748838,-12.596937,-7.392282
1009.082031,-11.005554,-2.679417,-8.062595,-7.865026
1009.085938,-10.696699,-11.053295,-8.836383,-3.013498
1009.089844,-12.190924,-14.930254,-4.089211,-5.212543
1009.093750,6.413349,-5.497308,0.442170,1.745703
1009.097656,-4.335885,2.462752,-0.116317,-0.205548
1009.101562,-0.124600,2.458900,3.947191,2.963396
1009.105469,5.022363,3.095639,0.835242,-0.914273
1009.109375,9.863394,6.501801,10.521910,7.362210
1009.113281,8.110710,12.010190,4.078022,6.037535
1009.117188,12.239591,8.136766,13.026658,12.031335
1009.121094,12.709852,7.110465,16.946632,11.391859
1009.125000,16.521694,4.737430,12.411915,22.784596
1009.128906,4.940472,10.696026,4.045933,18.255900
1009.132812,8.564763,2.879016,14.293051,14.083968
1009.136719,9.538467,13.832608,8.168539,16.959272
1009.140625,9.740096,5.523581,-3.311051,13.676321
1009.144531,-2.594959,-1.750783,7.769709,-0.133711
1009.148438,8.974264,3.670636,1.164132,6.077161
1009.152344,-5.249518,-1.903581,3.150813,-6.709399
1009.156250,1.646244,-2.641997,1.123486,-2.209931
1009.160156,-2.691372,4.374688,-9.004766,-7.322614
1009.164062,-14.046067,-9.295269,-8.387394,-5.712142
1009.167969,-8.243189,-14.510569,-3.682284,-12.846632
1009.171875,-11.335872,-4.183163,-16.983180,-11.200305
1009.175781,-7.023469,-8.707407,-8.556492,-12.186182
1009.179688,-4.366367,-12.948655,-5.769492,-3.885247
1009.183594,-5.238628,-9.518724,-10.240739,-3.600198
1009.187500,-8.640451,-12.362317,-7.394335,-9.411396
