timestamp,TP9,AF7,AF8,TP10
1000.000000,2.128714,-1.666906,0.194898,-1.969616
1000.003906,0.032391,-8.349351,3.264808,3.676837
1000.007812,6.420251,3.776626,9.380518,1.118086
1000.011719,7.755793,7.373867,6.931597,6.448003
1000.015625,6.460751,4.987798,1.686116,6.147628
1000.019531,10.839692,8.808210,10.850502,6.507323
1000.023438,16.280302,8.641368,5.123960,8.544654
1000.027344,10.642790,9.837885,12.341872,11.019107
1000.031250,3.839189,14.973266,8.642653,4.875115
1000.035156,12.935831,8.913613,5.046012,4.665235
1000.039062,2.741412,7.345371,12.937548,6.214527
1000.042969,0.142420,8.857764,2.425843,-0.320941
1000.046875,3.832826,2.520085,5.176013,2.751709
1000.050781,-9.834193,-7.442391,1.290532,-3.168207
1000.054688,-4.976481,-0.522394,-5.514343,-6.147665
1000.058594,-6.280975,1.197539,-8.037539,-1.685493
1000.062500,-5.186034,-18.471222,-7.500774,-10.286860
1000.066406,-7.665200,-12.071768,-2.809886,-4.724336
1000.070312,-12.474234,-10.395197,-7.536554,-11.487262
1000.074219,-7.885441,-18.850227,-10.872119,-18.898459
1000.078125,-11.811544,-17.744673,-6.249930,-9.507746
1000.082031,-13.798636,-7.772600,-3.116532,-13.206860
1000.085938,-9.053148,-13.326432,-8.700738,-2.797726
1000.089844,-3.261612,-3.769106,-4.437252,-5.899345
1000.093750,5.140860,-8.984472,-5.483205,-4.593436
1000.097656,-4.641539,1.017417,-0.452227,-8.558525
1000.101562,-1.676228,10.420208,0.879548,4.461739
1000.105469,2.851740,3.573747,-4.136950,11.567441
1000.109375,3.271004,2.757924,4.763978,0.163161
1000.113281,3.648297,9.215647,6.612136,5.318259
1000.117188,9.739562,4.100288,7.580094,9.509305
1000.121094,7.195329,12.785118,9.645774,7.644853
1000.125000,11.338274,11.757605,7.542523,3.961455
1000.128906,5.638365,7.733262,14.606255,10.717481
1000.132812,5.529824,11.791001,4.953304,10.043125
1000.136719,4.826114,17.410327,7.143700,8.109181
1000.140625,7.443776,-1.142775,4.836363,-0.509588
1000.144531,1.463153,8.247423,5.806356,0.785038
1000.148438,-2.904013,-0.382236,-6.551819,-6.940155
1000.152344,-2.103488,-3.125559,-4.449042,-6.824638
1000.156250,-0.982348,-1.623545,-2.068746,5.414760
1000.160156,-4.341097,-9.568814,3.462023,-8.129968
1000.164062,-10.334117,-9.208111,-7.140637,-5.882060
1000.167969,-3.472032,-10.553273,-8.306368,-7.238497
1000.171875,-3.942495,-9.432119,-4.017854,-7.326976
1000.175781,-7.674748,-14.235995,-6.525217,-6.019195
1000.179688,-15.694654,-9.489740,-12.991825,-13.696818
1000.183594,-7.420735,-7.105627,-14.350601,-13.917684
1000.187500,0.646564,-6.471939,-7.111529,-7.819334
1000.191406,-11.367399,-9.451859,-11.283855,-6.822424
1000.195312,-0.852106,-3.718636,0.053451,-7.960887
1000.199219,4.365667,7.534202,10.150604,-2.084862
1000.203125,4.595947,4.486291,9.033691,-0.039269
1000.207031,-0.718880,0.055693,-5.793434,-2.179027
1000.210938,6.619583,6.752045,8.892762,2.942969
1000.214844,8.912942,4.959351,1.498122,7.406165
1000.218750,6.363465,13.456088,7.035150,1.723715
1000.222656,9.110964,9.732172,8.641204,10.456868
1000.226562,6.494175,3.161876,2.120506,17.585509
1000.230469,3.370977,9.050269,7.140351,8.615648
1000.234375,1.772828,7.042456,0.292398,0.272860
1000.238281,11.640536,1.127619,10.748661,7.537974
1000.242188,3.996776,-1.501818,3.476829,3.355908
1000.246094,6.117566,-0.590587,-2.671271,5.104039
1000.250000,3.680737,4.083954,-8.283229,4.669029
1000.253906,0.388259,-3.743225,2.058417,-0.503251
1000.257812,-2.990191,-4.448161,-5.006425,-4.984637
1000.261719,-10.239587,-7.270932,-3.441964,-8.684162
1000.265625,-5.403933,-6.725030,-3.624605,-8.289692
1000.269531,-14.979026,-16.257169,-15.215637,-2.244981
1000.273438,-14.081213,-9.087232,-8.741403,-7.243163
1000.277344,-9.582545,-6.319980,-7.489170,-15.365177
1000.281250,-10.015609,-7.417603,-11.864605,-12.525370
1000.285156,-2.854850,-9.084030,-8.679057,-5.583820
1000.289062,-1.557569,-9.424487,-4.928844,-5.440115
1000.292969,-7.030119,-6.834595,-4.611027,-6.578268
1000.296875,2.008556,-1.864344,-1.906598,-3.433089
1000.300781,-2.250953,-0.952059,-3.210112,-7.939547
1000.304688,3.771759,4.762003,2.078773,3.799392
1000.308594,3.486760,1.136399,8.162994,5.058570
1000.312500,8.945545,15.481643,10.177532,0.782931
1000.316406,9.755656,2.980915,8.273328,12.485602
1000.320312,8.581251,7.358417,9.351341,9.712090
1000.324219,4.135018,2.334648,14.128353,1.964063
1000.328125,14.108813,10.065274,16.056232,6.451254
1000.332031,8.381271,5.907128,3.503348,8.274532
1000.335938,7.722865,6.076940,7.025782,11.581774
1000.339844,-2.459038,6.396730,12.428445,4.016287
1000.343750,5.648213,7.509494,4.407266,7.437057
1000.347656,1.106106,2.674436,5.972208,2.168045
1000.351562,-4.078988,-0.896567,2.896192,-2.316479
1000.355469,-3.199085,-7.218660,-8.916483,-4.238472
1000.359375,-5.336558,-8.274506,-9.451678,-0.725836
1000.363281,-13.636949,-2.377254,-5.595575,-8.935255
1000.367188,-6.456274,-5.559223,-10.575260,-6.888602
1000.371094,-10.874209,-11.082183,-14.723850,-10.789496
1000.375000,-10.826506,-7.712762,-16.901112,-9.740787
1000.378906,-4.356040,-13.626131,-6.883968,0.266920
1000.382812,-7.027793,-12.042111,-10.296231,-8.261661
1000.386719,-12.530630,-9.856467,-7.141556,-8.249139
1000.390625,-2.326820,-4.959858,-5.553138,-12.614509
1000.394531,-4.651501,-6.199843,-3.588492,-3.676670
1000.398438,-6.382842,-6.716080,-3.316587,-0.809714
1000.402344,4.022875,4.526198,1.786967,6.088766
1000.406250,1.067507,0.406235,10.264911,1.389034
1000.410156,1.216730,7.067099,5.792560,9.212131
1000.414062,4.062762,5.716475,6.328997,10.792693
1000.417969,6.406905,3.208518,7.704801,7.658877
1000.421875,16.299654,10.954375,4.775126,3.811761
1000.425781,14.518955,16.267234,12.994052,13.343958
1000.429688,12.283337,7.894013,-0.372263,8.830201
1000.433594,7.362775,11.211202,9.343480,5.039836
1000.437500,8.552562,6.782831,4.499996,8.006961
1000.441406,1.100988,-0.265632,6.514218,2.639493
1000.445312,-4.526157,-0.923552,2.859897,9.316641
1000.449219,1.831103,8.365361,1.261001,-4.907544
1000.453125,2.963397,-8.268772,-1.595149,-4.063440
1000.457031,-8.069029,-5.491579,-10.592373,-12.405987
1000.460938,-0.509514,-8.603838,-3.996776,-1.667442
1000.464844,-9.993508,-6.181027,-7.922797,-10.584730
1000.468750,-14.888626,-7.497360,-10.325253,-7.147782
1000.472656,-15.081138,-5.730585,-6.791137,-11.676590
1000.476562,-7.372438,-6.738679,-17.734854,-7.799716
1000.480469,-8.519836,-6.558058,-10.844660,-10.920666
1000.484375,-14.510600,-10.514455,-10.322544,-3.348384
1000.488281,-5.866156,-13.205685,6.896667,-10.211876
1000.492188,-2.784579,-1.385116,-7.554834,-2.975882
1000.496094,-0.254205,-1.167240,3.206458,0.288553
1000.500000,2.216091,6.372191,-0.145017,-0.180447
1000.503906,-7.021455,2.954078,0.395646,1.183052
1000.507812,7.368424,5.538122,7.617054,-0.320770
1000.511719,6.025426,7.932018,10.002070,8.764864
1000.515625,7.808943,4.108244,8.965067,8.094483
1000.519531,14.006990,12.604359,7.838322,10.802151
1000.523438,6.853532,5.574004,9.379821,13.210973
1000.527344,6.060219,8.965613,9.993104,6.490121
1000.531250,10.730728,16.625655,10.791081,15.409395
1000.535156,12.744504,6.046867,6.323389,6.053028
1000.539062,6.648689,-0.271884,2.971039,10.925461
1000.542969,5.959403,7.758166,0.823113,5.322007
1000.546875,0.014990,5.812344,-0.264794,-0.790524
1000.550781,-6.363301,-1.513018,3.434044,1.736232
1000.554688,1.554185,-6.200539,0.702600,1.849270
1000.558594,-1.411415,-9.105046,-4.177497,-9.407800
1000.562500,-12.243959,-8.985940,-5.037520,2.909022
1000.566406,-7.131747,-8.686949,-7.885853,-7.142434
1000.570312,-8.752948,-12.749665,-3.236769,-15.490822
1000.574219,-10.583881,-16.430492,-6.110739,-19.558023
1000.578125,-7.480506,-13.684364,-12.339549,-3.236642
1000.582031,-2.776922,-4.764974,-5.764384,-7.095110
1000.585938,-11.097138,-13.564204,-9.072894,-1.958093
1000.589844,-11.670868,-5.296661,-14.572326,-13.581338
1000.593750,-5.901062,-5.899888,-5.212501,-3.261747
1000.597656,-1.859151,-5.896510,1.174412,-1.733954
1000.601562,0.426206,4.506507,1.967437,3.299005
1000.605469,7.322552,2.780867,9.646652,2.938010
1000.609375,7.965796,0.030911,4.612123,2.784201
1000.613281,4.882133,7.027040,11.399032,5.924331
1000.617188,3.405926,10.797773,5.644098,5.092998
1000.621094,3.590207,17.586975,12.836317,4.396814
1000.625000,-2.043833,4.965522,3.908266,16.559475
1000.628906,0.508006,7.065341,6.041720,3.558374
1000.632812,9.032993,10.115284,17.042148,10.956252
1000.636719,8.150515,4.852533,13.318542,6.072611
1000.640625,4.485229,5.183407,4.498190,8.119394
1000.644531,0.635399,-0.433717,-3.770900,0.192628
1000.648438,0.741985,-5.810557,-0.988469,-2.555506
1000.652344,-2.252967,-2.955868,-0.418488,5.538470
1000.656250,-13.759512,-4.698634,-5.580545,-5.356729
1000.660156,-14.069116,-4.773324,-0.983213,-3.507510
1000.664062,-11.071550,-6.791797,-7.632876,-4.238487
1000.667969,-8.660175,-7.599970,-9.901401,-5.606081
1000.671875,-8.903984,-8.563416,-9.768859,-4.739503
1000.675781,-10.495987,-4.960277,-13.520756,-11.393490
1000.679688,-16.263716,-10.648215,-12.457017,-12.370639
1000.683594,-11.418570,-2.107697,-5.202069,-4.136068
1000.687500,-3.510683,-0.738157,-4.008848,-6.346576
1000.691406,-8.298898,-6.978485,-0.044969,-7.844711
1000.695312,4.724014,-9.114178,-5.699485,-3.452359
1000.699219,7.550838,-0.132430,1.086331,-1.894042
1000.703125,-0.967965,7.571648,6.212739,1.637824
1000.707031,3.606166,8.723460,1.321689,0.394113
1000.710938,1.221219,11.909535,12.100088,3.929874
1000.714844,0.748137,8.710184,11.953373,9.711785
1000.718750,11.639186,8.541112,9.217264,5.654481
1000.722656,8.184119,10.622581,5.284438,12.134922
1000.726562,15.711755,13.249724,8.516979,6.990054
1000.730469,19.360932,11.101582,11.531424,10.643098
1000.734375,8.491679,13.440866,12.792329,8.803647
1000.738281,6.736937,8.986787,1.234246,4.708985
1000.742188,12.758979,7.138178,1.714291,1.933676
1000.746094,-0.613908,9.371789,4.243840,2.580283
1000.750000,-0.542848,-0.636417,4.680416,0.283237
1000.753906,-4.126861,0.841346,3.986886,-6.472054
1000.757812,-6.628833,-10.066747,-7.711294,-4.752528
1000.761719,-4.365242,-8.420024,-6.448195,-8.895729
1000.765625,2.787225,-5.478391,-9.486014,-14.243394
1000.769531,-15.176209,-13.314959,-5.971731,-9.535736
1000.773438,-10.548754,-10.472549,-11.264518,-13.107138
1000.777344,-9.923480,-8.259999,-22.104388,-11.547637
1000.781250,-8.839348,-4.611265,-5.198405,-14.764133
1000.785156,-11.621714,-11.696297,-5.506768,-7.676757
1000.789062,-6.786925,-8.064279,-10.267017,-11.449504
1000.792969,1.503179,-14.602433,-3.267011,-5.402438
1000.796875,6.575399,0.677066,0.174367,-8.447704
1000.800781,7.007635,-0.193845,-1.573603,5.428224
1000.804688,-3.351865,7.667206,4.331259,0.762147
1000.808594,3.436087,1.838130,8.758699,7.364185
1000.812500,8.407010,-0.033097,9.545468,5.672578
1000.816406,10.325790,9.448228,7.040241,8.241571
1000.820312,12.306016,8.151827,7.614884,9.891833
1000.824219,4.915947,13.130094,10.001822,11.709151
1000.828125,14.513362,11.943315,6.648154,12.765041
1000.832031,18.684373,9.463718,9.610589,5.177290
1000.835938,10.785271,3.339954,9.398942,11.102285
1000.839844,3.687105,5.026707,3.327427,5.875186
1000.843750,5.107139,1.448417,-2.574569,0.846291
1000.847656,4.094894,-2.892358,2.298395,4.687330
1000.851562,-7.632651,-1.836521,1.786961,1.720847
1000.855469,-8.038955,-4.428863,-2.216714,-1.905572
1000.859375,-7.070492,-7.134715,-9.663464,-8.360202
1000.863281,-6.133941,-4.628917,-7.446118,-8.648492
1000.867188,-3.298718,-7.062941,-8.917252,-10.442579
1000.871094,-19.838014,1.110540,-8.140753,-15.214722
1000.875000,-11.718154,-8.869095,-17.321090,-11.778680
1000.878906,-16.959964,-10.228867,-12.381672,-13.300682
1000.882812,-7.889652,-13.908898,-15.610068,-8.886262
1000.886719,0.471358,-8.212749,-5.136340,-5.125289
1000.890625,-8.158649,-6.043545,-4.640937,-1.015797
1000.894531,-1.853820,-1.179305,-1.986041,-0.583206
1000.898438,10.048571,2.419555,-2.938890,-2.957348
1000.902344,-7.511557,4.159637,-2.107548,-5.626965
1000.906250,7.971822,8.068450,2.955746,-5.337498
1000.910156,3.704280,1.678832,5.813806,10.640237
1000.914062,11.022908,7.969153,7.632713,2.660230
1000.917969,10.589017,3.827636,12.087266,7.595078
1000.921875,10.200257,8.810974,17.183436,10.700833
1000.925781,10.673454,7.634933,4.203846,1.685714
1000.929688,12.412625,16.372676,3.646756,8.339237
1000.933594,12.158813,14.022681,12.420308,15.642322
1000.937500,8.228319,10.045603,3.655061,13.209126
1000.941406,4.803538,3.358532,4.243263,1.141321
1000.945312,4.534086,9.588836,-3.013220,2.251420
1000.949219,0.831036,2.156770,-2.827751,6.352927
1000.953125,-2.596385,1.499688,-5.295549,-9.958367
1000.957031,-6.086401,-8.157039,-1.128505,-5.095559
1000.960938,-9.607723,-3.452583,-12.408632,-6.905550
1000.964844,-14.830173,-11.147008,-9.343844,-14.129920
1000.968750,-16.615697,-12.596044,-13.574664,-6.815588
1000.972656,-15.655891,-9.405269,-6.921039,-9.018066
1000.976562,-7.866773,-0.074715,-7.903684,-11.773197
1000.980469,-8.465505,-12.179733,-15.316917,-5.681324
1000.984375,-4.860104,-2.631191,-8.088734,-12.927074
1000.988281,-4.741452,-9.853072,-6.005883,-7.036804
1000.992188,0.776237,-3.674868,-4.672880,-7.709859
1000.996094,-5.511377,-0.899454,2.165512,-4.916199
1001.000000,-5.614216,-5.926591,-6.340550,-2.139750
1001.003906,-4.157058,1.331444,5.973239,-4.000110
1001.007812,10.496557,5.097738,-0.047439,6.996880
1001.011719,5.844835,5.553798,11.167980,2.855477
1001.015625,6.309908,7.175500,16.924200,13.169424
1001.019531,2.948664,11.136622,4.865172,9.715859
1001.023438,10.290990,5.801930,13.663518,8.599038
1001.027344,7.601728,12.041764,10.186688,11.918425
1001.031250,8.245184,5.500262,2.795860,6.773251
1001.035156,1.315091,14.459831,7.561941,3.066604
1001.039062,2.983050,10.305662,0.820619,8.711392
1001.042969,-0.681657,2.475801,-1.751888,-4.094786
1001.046875,2.751309,-1.124445,-1.476072,3.252354
1001.050781,-0.199524,3.299045,0.526751,-0.656741
1001.054688,-5.398467,0.123144,-8.102631,1.556871
1001.058594,-2.116213,-2.315059,2.443117,-10.568111
1001.062500,-8.405966,-2.777850,-9.470279,-8.960622
1001.066406,-3.089511,-9.770652,-10.440524,-4.777746
1001.070312,-7.374478,-8.719043,-13.821788,-7.707787
1001.074219,-10.140389,-5.978174,-9.665779,-11.411178
1001.078125,-7.928812,-12.283538,-9.468995,-10.539844
1001.082031,-14.668832,-9.514113,-10.511264,-11.477010
1001.085938,-10.883338,-5.763315,-15.269165,-5.589666
1001.089844,-2.791978,3.049994,-3.489552,-3.741452
1001.093750,0.460198,-0.623574,-1.107449,-0.987654
1001.097656,-9.434211,-2.964253,-4.111744,0.561618
1001.101562,-3.685353,-0.617080,1.910704,-3.323190
1001.105469,10.415371,9.324990,8.995292,1.171483
1001.109375,6.725362,4.388762,7.708069,3.965125
1001.113281,10.894589,5.934469,4.623712,13.064986
1001.117188,6.110893,10.203513,10.232001,-0.150418
1001.121094,5.568394,4.733411,10.559397,11.026901
1001.125000,9.993021,13.872657,14.448134,9.331236
1001.128906,4.275515,7.805338,14.880866,5.104337
1001.132812,8.106695,14.781349,12.310610,13.621420
1001.136719,6.686376,7.025527,5.704982,8.619789
1001.140625,7.729112,3.202460,4.165387,-0.374231
1001.144531,8.517693,2.414555,-0.118248,1.823703
1001.148438,3.612443,0.736897,0.861756,-3.060034
1001.152344,-8.895221,0.934386,-6.514671,-1.539527
1001.156250,-0.092959,-4.763181,0.853557,-0.956282
1001.160156,-5.743273,-6.312010,-7.876306,-0.156935
1001.164062,-11.736402,-9.251589,-7.998658,-12.892533
1001.167969,-18.056509,-14.034114,-7.775737,-1.226780
1001.171875,-8.306522,-9.982714,-7.504968,-2.912950
1001.175781,-16.858209,-7.285157,-4.338587,-7.411242
1001.179688,-11.390427,-12.139972,-13.731733,-16.740638
1001.183594,-7.479027,-7.352258,-6.471867,-10.961042
1001.187500,-11.611113,-2.977637,-7.940416,-5.923141
1001.191406,-5.725785,-1.001167,-15.350321,-3.205961
1001.195312,1.634666,-1.468087,3.881072,-4.254810
1001.199219,1.032829,-4.222753,0.674412,-0.392408
1001.203125,-0.250856,5.821819,-3.118239,-2.960868
1001.207031,12.571346,13.356546,-3.719049,0.719186
1001.210938,5.184021,5.969880,8.342678,5.437342
1001.214844,9.329244,1.607576,5.606609,11.634530
1001.218750,8.853788,3.351066,9.577636,13.658646
1001.222656,3.256930,15.027528,9.788911,8.946086
1001.226562,8.329675,4.810076,4.384689,12.273973
1001.230469,5.089329,4.183161,11.049221,4.322447
1001.234375,6.869021,7.229881,8.463066,6.469726
1001.238281,13.125464,13.496993,9.213915,7.870332
1001.242188,7.277915,2.621089,3.084279,3.139281
1001.246094,5.924534,4.013981,4.899403,-5.172492
1001.250000,-0.558731,2.270121,-0.361754,1.978711
1001.253906,-1.545588,-0.557483,-3.915746,-2.486488
1001.257812,1.797549,-3.620362,-0.776068,-11.571750
1001.261719,-13.721548,-0.356544,-3.468166,-12.848880
1001.265625,-13.052338,-4.015529,-10.396399,-7.909018
1001.269531,-8.630278,-20.093770,-11.434832,-17.286234
1001.273438,-8.193062,-5.945119,-7.246681,-12.432069
1001.277344,-12.629248,-10.454263,-15.760661,-14.884233
1001.281250,-7.598256,-1.157144,-7.125002,-7.207047
1001.285156,-14.888310,-7.777908,-9.266045,-5.610597
1001.289062,-8.418065,-9.627012,-3.665114,-4.168992
1001.292969,-4.157011,-5.337722,-1.255496,-3.611837
1001.296875,2.036918,6.767273,-0.986773,-5.649462
1001.300781,-2.849150,-1.025291,0.372453,-2.772866
1001.304688,3.934359,-1.813513,6.089159,5.368122
1001.308594,4.063116,10.177782,-0.816414,2.689901
1001.312500,0.726517,8.767033,2.346860,6.419951
1001.316406,7.943063,18.054424,10.998467,1.188037
1001.320312,8.757417,13.219162,11.440921,5.728086
1001.324219,6.070089,5.755259,4.818927,9.780442
1001.328125,5.419255,7.750351,9.323719,6.589043
1001.332031,12.713963,2.828118,12.622028,5.686719
1001.335938,13.706299,10.578795,5.781969,11.414773
1001.339844,3.563069,9.528392,4.167578,1.619197
1001.343750,0.262740,0.651031,2.943919,-1.755164
1001.347656,6.651597,0.510803,0.578307,7.323349
1001.351562,-4.442998,-1.840523,-0.333681,-0.932911
1001.355469,0.255228,-8.123315,-0.096240,3.345507
1001.359375,-8.428292,-7.003830,-6.594818,-7.547209
1001.363281,-4.794758,-12.698529,-6.596690,-11.460567
1001.367188,-9.101625,-14.503342,-17.139819,-7.840489
1001.371094,-6.536234,-13.979508,-6.538072,-9.885422
1001.375000,-16.660921,-15.230166,-4.799373,-12.177308
1001.378906,-11.799863,-9.083317,-11.211809,-10.320481
1001.382812,-7.758795,-7.236802,-14.446345,-12.899872
1001.386719,-9.324360,-6.505093,-4.426014,-12.235791
1001.390625,-4.380051,-1.486508,-4.916227,-9.093248
1001.394531,-6.702356,-9.736109,-7.636042,-4.336297
1001.398438,-0.241366,8.485696,-0.803109,3.235699
1001.402344,8.554188,-0.133585,1.000984,4.187333
1001.406250,2.572846,5.116405,1.056860,1.613730
1001.410156,4.209166,2.873458,0.929439,7.227174
1001.414062,10.468098,10.504478,4.593393,6.801740
1001.417969,10.342921,5.988567,5.952694,8.893777
1001.421875,10.729379,11.566163,9.422515,10.062781
1001.425781,12.939712,10.736151,14.409063,13.021992
1001.429688,9.496903,5.830452,11.204224,9.391580
1001.433594,11.851148,7.047221,11.959596,14.375759
1001.437500,8.105415,10.714880,4.571048,7.596047
1001.441406,6.565993,4.993435,-1.491112,10.845495
1001.445312,8.650509,-3.860621,-0.961041,-0.788946
1001.449219,0.199623,-0.579683,-0.841752,6.032611
1001.453125,-2.119081,-1.166948,1.130939,2.741015
1001.457031,-6.056906,-1.626450,-0.119640,-8.463505
1001.460938,-7.773937,6.298885,-11.333303,-9.930172
1001.464844,-4.438183,-13.516299,-6.052604,-8.593240
1001.468750,-9.164445,-16.470119,-10.577316,-14.095144
1001.472656,-4.629674,-6.026480,-6.906146,-12.439760
1001.476562,-10.684267,-12.746888,-6.919565,-9.059767
1001.480469,-12.646939,-11.986902,-6.381249,-11.217237
1001.484375,-8.884531,-6.563026,-5.691826,-10.158413
1001.488281,-9.613115,-11.735255,-9.135198,-5.080508
1001.492188,-2.315708,-1.888978,-6.350254,-2.561592
1001.496094,2.109809,-1.640457,-7.446403,-5.427637
1001.500000,-5.283052,0.821160,-0.898659,-0.039100
1001.503906,4.632313,-1.822778,0.940384,-7.459943
1001.507812,11.633976,3.809015,3.678428,13.419791
1001.511719,1.307776,4.948653,11.006807,10.581873
1001.515625,3.995879,4.240795,6.147659,13.242206
1001.519531,9.437918,7.231518,11.531929,8.121192
1001.523438,13.605471,13.266136,6.601109,7.465608
1001.527344,12.148637,8.582069,14.987969,14.572365
1001.531250,2.231293,4.672648,9.173100,12.493060
1001.535156,7.590969,10.685692,5.656599,5.716957
1001.539062,12.546959,10.343598,9.108245,5.506631
1001.542969,-2.236790,6.041627,0.639304,4.233250
1001.546875,4.031339,1.812668,1.038094,2.879633
1001.550781,1.837234,2.513359,-3.419596,3.385540
1001.554688,-1.774925,3.699189,-5.182739,1.318028
1001.558594,-3.790667,-8.244054,-1.883470,-6.990415
1001.562500,-7.494557,-1.464180,-9.507471,-6.426166
1001.566406,-8.535086,-6.142597,-3.486279,2.441330
1001.570312,-14.075833,-11.824985,-6.615743,-10.755594
1001.574219,-14.901496,-11.589550,-2.392779,-17.423297
1001.578125,-16.614751,-5.056369,-3.183958,-5.037126
1001.582031,-3.613744,-12.234932,-14.263779,-13.812515
1001.585938,-7.255751,-6.576948,-11.019949,-8.864495
1001.589844,0.163665,-7.138169,-8.262925,-6.558150
1001.593750,-1.707809,-6.856092,-0.458104,-6.185310
1001.597656,-2.506007,-2.759419,-0.695535,-6.707177
1001.601562,-0.482483,5.951374,0.672564,0.193986
1001.605469,4.570859,5.677746,2.791511,8.209399
1001.609375,4.642777,8.716555,1.049316,4.191834
1001.613281,1.353075,7.204168,7.839834,6.607262
1001.617188,3.191442,6.588625,19.804511,8.378374
1001.621094,5.861657,6.483274,10.064933,11.737558
1001.625000,11.438298,9.630027,9.481104,9.825919
1001.628906,2.883157,11.355943,11.183619,11.681943
1001.632812,8.689298,3.742609,11.040775,4.045170
1001.636719,8.042975,6.082907,11.512185,4.163303
1001.640625,3.384082,5.666383,8.580710,4.218042
1001.644531,9.257597,5.818614,3.076700,-1.431863
1001.648438,-0.900793,0.554297,-2.662394,0.407017
1001.652344,-1.744425,-2.197851,-5.414339,-2.478174
1001.656250,-3.910464,-1.134408,-10.395807,-6.357083
1001.660156,-9.378758,-7.477210,-9.853762,-6.956980
1001.664062,-9.916112,-12.566231,1.626560,0.228282
1001.667969,-12.176918,-8.407862,-8.767806,-8.581659
1001.671875,-2.566196,-6.238285,-9.177981,-14.970623
1001.675781,-9.016821,-11.457830,-5.532212,-9.662195
1001.679688,-9.317586,-8.574611,-12.236327,-10.204935
1001.683594,-5.917049,-6.220538,-13.873184,-2.483546
1001.687500,-0.726313,-0.401026,-1.086893,-9.061646
1001.691406,-4.619311,-3.049527,-5.606837,-6.915150
1001.695312,-2.891615,-2.012118,-6.826298,3.690595
1001.699219,2.203303,-2.210483,0.802795,8.963184
1001.703125,-1.225366,2.114777,8.497739,5.727134
1001.707031,10.203260,2.377327,7.045777,0.353628
1001.710938,8.972880,1.243461,0.424978,4.192861
1001.714844,6.040009,11.705556,14.007601,3.903708
1001.718750,7.216504,3.057930,6.485856,7.796943
1001.722656,13.149236,15.488507,8.880517,5.960400
1001.726562,11.602786,5.989441,16.933425,10.693880
1001.730469,6.802897,1.376075,6.202283,8.069594
1001.734375,13.007924,5.970001,9.017493,9.873599
1001.738281,-3.275352,6.900833,5.268695,2.044153
1001.742188,4.616141,4.507538,6.461145,9.813491
1001.746094,-7.604918,-0.048375,6.410868,-1.525101
1001.750000,-5.531840,5.410228,0.298837,4.292348
1001.753906,-3.172569,-0.890828,-0.875365,-0.392612
1001.757812,-5.625290,-5.309574,-5.015872,-3.856216
1001.761719,-3.164303,-9.560784,-0.030521,-8.967580
1001.765625,-7.946700,-12.871411,-11.480591,-8.313651
1001.769531,-16.559888,-9.679334,-6.700830,-18.435938
1001.773438,-14.723500,-15.643042,-5.806436,-2.188185
1001.777344,-10.940178,-7.514354,-7.075256,-9.863275
1001.781250,-5.366989,-10.454263,-10.637938,-10.876599
1001.785156,-6.563385,-11.858490,-9.779458,-8.609412
1001.789062,-11.907700,-6.523337,-4.979986,3.887398
1001.792969,-8.769738,-7.414138,-5.051562,5.455632
1001.796875,3.980165,-5.877290,-7.148338,-5.058565
1001.800781,-2.026411,3.402745,3.486662,4.779842
1001.804688,2.978964,7.996105,3.527573,5.812637
1001.808594,9.782209,3.737475,0.001334,-4.391241
1001.812500,10.706242,5.084329,12.175321,9.423874
1001.816406,9.827967,6.266176,2.972714,7.190965
1001.820312,9.229739,12.402221,11.050148,6.906189
1001.824219,11.442780,12.956820,11.325429,19.273312
1001.828125,11.938134,11.934358,9.727747,4.192141
1001.832031,10.485391,3.900027,9.254175,9.551826
1001.835938,8.775673,10.977003,3.819328,10.708831
1001.839844,6.958468,5.954815,4.456800,6.289243
1001.843750,10.701543,1.251882,4.572096,9.363263
1001.847656,0.150752,6.453711,0.264168,5.864120
1001.851562,-0.407444,-4.288949,-1.928728,-5.322016
1001.855469,-7.472593,0.260324,-5.088368,-3.435746
1001.859375,-7.384952,-8.264994,-1.989345,-6.363567
1001.863281,-4.429092,-11.015018,-14.882589,-3.539671
1001.867188,-10.528657,-7.331246,-7.362012,-17.191654
1001.871094,-10.253684,-0.507784,-9.244036,-7.917668
1001.875000,-14.106641,-8.129947,-7.350891,-12.000217
1001.878906,-4.934135,-6.308896,-12.138062,-12.931337
1001.882812,-10.130881,-2.664864,-6.999814,-6.945536
1001.886719,-4.681190,-13.125974,-3.584039,-4.827478
1001.890625,-5.428369,-7.948652,-8.128526,0.795713
1001.894531,-6.685841,-8.711294,-7.196303,0.883299
1001.898438,-0.281960,-1.156048,0.183298,-3.360239
1001.902344,3.448028,6.924469,6.382685,3.194325
1001.906250,2.037414,3.797356,1.105213,-6.938037
1001.910156,3.727388,6.695407,7.446637,1.907578
1001.914062,6.872730,12.074474,6.137901,4.323077
1001.917969,5.617591,7.393390,9.601447,18.112102
1001.921875,6.365597,9.017807,7.799852,5.711361
1001.925781,13.715839,9.784493,16.715507,11.779878
1001.929688,17.999581,8.481738,10.650848,12.783472
1001.933594,1.151118,10.389430,5.668338,5.372334
1001.937500,2.539761,4.962972,9.374908,13.964691
1001.941406,-4.536666,1.050538,7.244767,-4.359310
1001.945312,6.115219,2.399732,0.482362,4.587869
1001.949219,0.047498,-2.546505,-2.889976,3.239852
1001.953125,-10.848520,0.409886,-4.718624,2.874818
1001.957031,-4.952045,-3.545131,-4.992503,-2.699753
1001.960938,-4.930367,-10.878749,-12.215978,-5.545913
1001.964844,-9.319351,-6.738386,-6.528425,-9.572610
1001.968750,-12.337273,-12.574585,-11.062005,-10.058686
1001.972656,-3.430106,-8.876406,-8.032669,-12.418178
1001.976562,-12.496491,-10.489755,-11.299622,-10.746324
1001.980469,-7.687296,-8.717798,-12.197762,-8.221553
1001.984375,-10.328936,-11.300995,-15.933657,-5.086034
1001.988281,-4.726850,-5.824768,-7.061565,-12.149336
1001.992188,-5.835373,-3.932525,-7.989822,-0.453147
1001.996094,-9.846221,-3.862522,-0.383330,-2.471158
1002.000000,2.080760,4.121449,-4.426475,-6.294260
1002.003906,3.825483,-2.207005,0.823326,-0.062318
1002.007812,4.280332,8.476499,-0.078163,0.752197
1002.011719,10.997292,6.977321,2.790323,8.546077
1002.015625,12.355804,3.401752,10.880719,6.680792
1002.019531,11.239883,7.044077,10.043716,7.893197
1002.023438,10.249627,7.849786,8.522850,7.517944
1002.027344,14.461660,12.320379,12.383919,13.857382
1002.031250,9.047841,7.463433,12.144179,8.071548
1002.035156,6.202777,15.518815,2.485043,5.304650
1002.039062,8.088750,6.552859,4.733802,0.850646
1002.042969,2.718105,9.109637,8.246081,5.021904
1002.046875,5.348889,3.082386,3.776723,1.077825
1002.050781,2.965674,5.738379,0.073785,-11.788902
1002.054688,-10.372108,-4.367773,-2.101096,1.035730
1002.058594,-0.543969,-10.209285,-0.415633,-4.614414
1002.062500,-2.120530,-10.925289,-7.702201,-9.130870
1002.066406,-8.232754,-4.914615,-3.494241,-2.795344
1002.070312,-15.224388,-9.908614,-4.724628,-8.575993
1002.074219,-16.509927,-7.065417,-13.214690,-11.095718
1002.078125,-14.870202,-16.323831,-9.286309,-9.085272
1002.082031,-14.554323,-3.230472,-11.024160,-7.924142
1002.085938,-10.291617,-8.856522,-6.240642,-12.452006
1002.089844,-13.056743,-1.628953,-4.784880,-2.891971
1002.093750,-6.933790,-5.802656,-1.839459,-7.454036
1002.097656,-6.116844,-2.434270,-5.825980,-5.279419
1002.101562,3.304529,1.114426,1.706635,-4.019018
1002.105469,1.566918,4.327885,8.414295,1.329549
1002.109375,3.142698,-2.616133,3.140887,-1.445092
1002.113281,5.482217,11.876108,2.436046,13.360064
1002.117188,9.679093,12.584123,11.440512,7.155818
1002.121094,0.409549,11.957223,7.878255,13.531680
1002.125000,7.784564,9.058287,6.428158,16.024619
1002.128906,11.029686,9.061305,7.044688,6.081362
1002.132812,5.217565,7.959333,7.317682,8.639038
1002.136719,4.751378,10.007158,11.351119,4.489694
1002.140625,9.443235,6.691517,-0.148536,4.465241
1002.144531,6.403510,4.219968,2.169564,2.013563
1002.148438,-1.283021,-3.135196,-2.797376,1.697545
1002.152344,-11.472927,-2.502933,-3.041572,0.868849
1002.156250,-9.768390,-13.900979,1.745442,-5.322471
1002.160156,-7.583656,-12.473921,-9.670945,-8.372479
1002.164062,-7.756029,-12.198748,-2.499810,-5.742631
1002.167969,-7.484466,-1.632572,-9.492813,-8.078999
1002.171875,-12.504831,-3.245943,-8.816690,-5.993223
1002.175781,-6.801118,-7.818938,-17.623613,-17.511189
1002.179688,-10.518122,-12.387342,-13.469567,-6.900097
1002.183594,-9.345394,-9.786957,-8.794614,-1.472030
1002.187500,-9.887952,-12.698066,-9.760162,-3.206646
1002.191406,-12.087346,-2.127708,-11.490133,-8.807510
1002.195312,-3.555378,-2.826437,1.005765,-2.950867
1002.199219,2.160967,2.655749,-3.950869,-4.640317
1002.203125,-0.386321,9.115371,7.391450,2.002536
1002.207031,7.817253,-0.056563,11.179953,-0.467137
1002.210938,2.933449,6.736838,-0.610645,7.218916
1002.214844,15.390359,11.041927,0.230288,8.177434
1002.218750,7.587742,7.137356,5.160984,15.720718
1002.222656,10.897118,4.087427,12.588009,8.616018
1002.226562,7.038682,11.944763,14.839503,8.772343
1002.230469,9.732535,7.102365,10.077909,9.674162
1002.234375,10.454501,8.807007,2.352138,6.787210
1002.238281,4.501397,9.445778,9.568895,6.391336
1002.242188,-1.355408,7.407150,10.669403,1.208546
1002.246094,-5.977634,4.181820,2.098495,5.447623
1002.250000,1.422773,-3.791121,-1.968211,-2.504632
1002.253906,-5.153092,-8.131623,-7.097850,-7.129223
1002.257812,-6.004748,-0.972294,-1.168762,-6.569365
1002.261719,-14.703332,-3.701259,-6.135269,-7.343720
1002.265625,-14.302713,-6.587363,-9.999526,-7.770285
1002.269531,-10.848902,-11.852940,-7.761330,-6.504853
1002.273438,-14.153341,-14.862538,-13.691390,-9.403418
1002.277344,-13.309967,-15.924614,-8.860929,-16.874479
1002.281250,-11.714737,-8.904088,-14.866974,-12.560052
1002.285156,-7.241831,-5.897453,-5.333341,-10.420962
1002.289062,-8.298953,-6.085934,-5.191386,-2.484179
1002.292969,0.071310,-7.911604,-1.602897,-0.921622
1002.296875,-3.390318,-2.794980,2.075733,4.099610
1002.300781,2.993072,-1.036392,-0.330701,1.570615
1002.304688,-0.401706,3.549199,0.817576,-1.111154
1002.308594,6.769319,4.951773,10.241958,8.656615
1002.312500,6.462044,13.072088,4.681560,9.975387
1002.316406,13.969087,0.349799,15.743359,9.080145
1002.320312,11.634804,16.384539,12.509975,6.149922
1002.324219,7.564041,18.306139,12.081271,10.485784
1002.328125,9.129227,11.635308,8.789509,12.652265
1002.332031,5.440778,11.135742,7.191511,20.616693
1002.335938,3.040871,9.771620,5.691412,8.064192
1002.339844,7.387238,9.583915,4.766790,4.985400
1002.343750,5.394838,1.465556,-1.050759,4.361460
1002.347656,2.229787,-2.089803,3.298666,5.400180
1002.351562,-1.019324,-4.389256,0.780660,-9.524202
1002.355469,-1.048906,-7.746344,-4.018490,-2.904938
1002.359375,-5.490897,-1.597964,-8.201849,-7.881459
1002.363281,-8.793384,3.452699,-9.949873,-12.714480
1002.367188,-17.413950,-9.524739,-9.727714,-13.569629
1002.371094,-16.155294,-11.395712,-14.377426,-9.735108
1002.375000,-8.606402,-10.615818,-12.939430,-12.842286
1002.378906,-9.018249,-7.207232,-8.778286,-13.138370
1002.382812,-11.185869,-11.313293,-14.310454,-10.795583
1002.386719,-7.423336,-3.441319,-8.903686,-7.144744
1002.390625,-13.641262,-7.986221,-7.277689,-9.284997
1002.394531,-3.161897,-6.249375,0.495856,-4.837756
1002.398438,2.037315,2.114515,-2.631855,1.314181
1002.402344,3.727604,-2.211386,7.296329,-4.471798
1002.406250,5.838764,3.594312,2.399771,2.143411
1002.410156,12.161058,9.170968,8.067363,3.310531
1002.414062,5.598585,3.484119,4.187826,8.808338
1002.417969,4.373531,12.060313,7.337725,7.280996
1002.421875,12.431053,0.718274,6.932977,11.616608
1002.425781,7.923533,10.048102,11.951869,12.683240
1002.429688,18.749457,8.998312,10.898147,9.897585
1002.433594,11.066221,7.714668,6.144521,9.307695
1002.437500,5.648487,8.462087,4.391038,8.632172
1002.441406,6.472272,0.283136,5.145891,-2.554759
1002.445312,6.496950,3.372991,-2.267758,3.949248
1002.449219,0.582020,4.525920,5.464767,-9.390224
1002.453125,-5.882129,3.228769,-3.700974,-3.899591
1002.457031,-8.258838,-0.760359,-4.879342,-3.084449
1002.460938,-9.239323,-0.551673,-6.000934,-4.915270
1002.464844,-11.107213,-4.611792,-6.721491,-7.837750
1002.468750,-6.185986,-12.878753,-16.517826,-11.751460
1002.472656,-8.530360,-4.335880,-8.220975,-8.176003
1002.476562,-11.043716,-11.190077,-6.204427,-16.502446
1002.480469,-17.055960,-3.566174,-4.453315,-5.110046
1002.484375,-5.737301,-1.003385,-1.872829,-9.926388
1002.488281,-11.139865,-0.920222,-1.287849,-15.183513
1002.492188,-9.580243,-0.247369,-8.587236,-1.098000
1002.496094,1.548253,-0.612858,2.748231,-5.121439
1002.500000,1.842527,-3.749946,-10.402096,1.728728
1002.503906,3.563829,2.108384,4.607153,-0.631922
1002.507812,0.610761,-2.113993,6.530132,5.454494
1002.511719,4.501786,11.652889,10.046844,2.204149
1002.515625,13.989973,3.488764,13.096496,9.632695
1002.519531,7.035851,3.779501,7.839742,1.642625
1002.523438,15.021244,8.369197,11.066153,13.151053
1002.527344,8.353412,10.705242,8.259825,13.182159
1002.531250,11.091370,8.983545,14.110556,8.283052
1002.535156,7.715301,7.173106,4.954293,3.113915
1002.539062,12.936901,7.612754,4.806256,5.204587
1002.542969,-0.990874,4.592194,3.243625,4.095415
1002.546875,5.831525,0.746572,2.254606,-6.368372
1002.550781,9.803509,5.426773,-5.902359,-3.712496
1002.554688,3.115841,1.615125,-2.015254,2.088256
1002.558594,-11.599857,-8.226165,-6.295035,0.038189
1002.562500,-5.878974,-10.865390,-10.884927,-2.875134
1002.566406,-5.594474,-5.363208,-12.145037,-11.228475
1002.570312,-14.993184,-16.036631,-5.594449,-1.633411
1002.574219,-9.257907,-4.087378,-14.268583,-11.607224
1002.578125,-14.775706,-8.314687,-13.796715,-9.253202
1002.582031,-11.826491,-9.655355,-1.633531,-5.717671
1002.585938,-13.791275,-6.738850,-8.107930,-11.884840
1002.589844,-2.612833,-14.086939,-1.501228,-8.886201
1002.593750,-6.635489,-6.504348,1.244228,0.429210
1002.597656,-2.750071,-5.545615,1.371613,-4.749725
1002.601562,9.957965,1.246941,5.586836,-0.330217
1002.605469,7.259609,0.390452,-2.504695,4.287872
1002.609375,1.095082,9.987693,8.592367,2.823479
1002.613281,9.502270,14.191807,1.375326,12.360601
1002.617188,8.319199,9.303795,10.119709,14.744899
1002.621094,7.444340,9.715351,11.079969,11.510022
1002.625000,5.381167,7.270378,11.606334,11.240563
1002.628906,9.684830,7.250191,7.111348,8.189548
1002.632812,6.190187,12.139317,13.704468,9.962352
1002.636719,8.912226,1.890740,3.429256,10.486201
1002.640625,6.069735,9.760437,-3.374764,3.700829
1002.644531,2.766841,5.383498,2.042822,3.018214
1002.648438,3.420531,-0.069552,-3.869776,1.504704
1002.652344,0.561613,-6.440404,-1.043711,-0.595031
1002.656250,-0.670513,-11.226148,-0.485205,-6.131799
1002.660156,-6.644730,-4.043139,-6.439337,-6.283137
1002.664062,1.818388,-3.371549,-7.561559,-10.856465
1002.667969,-6.548841,-11.491210,-6.489967,-8.229267
1002.671875,-7.360966,-10.138918,-6.647311,-6.419162
1002.675781,-9.894839,-11.638935,-16.278262,1.155844
1002.679688,-8.293815,-15.006208,-10.087128,-7.174292
1002.683594,-6.966690,-6.271643,-7.553208,-10.166703
1002.687500,-11.721022,-0.528219,-9.954035,-3.293928
1002.691406,-5.747826,-4.461819,-8.617919,-7.435370
1002.695312,-5.385762,3.284434,-3.365905,2.020715
1002.699219,5.705006,5.736931,-0.008385,4.326000
1002.703125,3.837477,-0.622846,-2.185561,1.720996
1002.707031,9.246714,4.459682,-0.184522,4.696906
1002.710938,11.685370,4.302389,0.445726,9.459532
1002.714844,12.645369,4.835842,3.128303,6.332944
1002.718750,2.150464,12.769895,2.068386,15.934045
1002.722656,8.614874,16.997636,10.189351,8.618779
1002.726562,6.969614,0.471772,13.352134,14.251738
1002.730469,9.134525,5.266244,13.091313,10.770190
1002.734375,9.010270,11.313160,12.806102,17.615663
1002.738281,-0.194580,7.938656,2.164854,7.586861
1002.742188,-1.944187,3.271991,5.673643,4.253755
1002.746094,4.182992,5.579290,6.302785,0.671125
1002.750000,-2.654943,2.950078,-4.026534,-7.299080
1002.753906,-3.415463,-4.425184,2.219894,-2.180054
1002.757812,-7.185333,-4.400133,-3.118733,-6.619373
1002.761719,-3.042058,-10.128998,-2.956614,-5.086152
1002.765625,-9.662396,-5.755821,-9.260768,-15.259652
1002.769531,-7.422688,-7.157271,-9.286375,-2.300862
1002.773438,-12.854737,-4.148830,-16.208911,-7.385479
1002.777344,-7.052040,-15.234558,-4.887771,-10.107993
1002.781250,-6.972076,-10.194194,-4.688551,-6.013173
1002.785156,-11.857319,-16.264723,-8.951220,-8.570873
1002.789062,-12.064468,-4.360856,-3.909050,-15.585435
1002.792969,-2.923520,-10.841094,-6.853124,-9.574955
1002.796875,6.611660,-3.042610,-1.453587,-2.636740
1002.800781,-1.377110,-4.426015,0.517302,3.001790
1002.804688,-5.386231,12.559271,-1.941298,1.050391
1002.808594,-1.170038,5.924312,10.467229,-1.506032
1002.812500,10.431718,10.859861,2.689775,4.768700
1002.816406,1.512970,11.042452,7.176120,10.005196
1002.820312,6.846671,4.539892,9.036878,5.676554
1002.824219,10.920606,7.366726,12.665099,-1.596541
1002.828125,9.618830,14.510839,5.755874,12.553428
1002.832031,7.617018,9.577677,7.122879,11.238644
1002.835938,11.532661,9.233363,0.616027,-4.454619
1002.839844,-2.688671,5.583924,2.894584,5.124242
1002.843750,-3.568726,6.350853,6.652412,3.176652
1002.847656,4.306915,5.169633,-4.716038,2.483736
1002.851562,-6.886082,6.544213,-8.760628,-0.022995
1002.855469,-4.574064,1.761665,-6.456508,1.070307
1002.859375,-1.998636,-9.129644,-10.789715,-10.572234
1002.863281,-3.768064,-2.995612,-15.623515,-3.951519
1002.867188,-9.914963,-8.963160,-8.568006,-9.208455
1002.871094,-10.716267,-11.815341,-7.245001,-9.708855
1002.875000,-9.176823,-14.771136,-5.983432,-11.296506
1002.878906,-7.515206,-11.601919,-6.053700,-10.142472
1002.882812,-13.731594,-1.884222,-7.304147,-13.220912
1002.886719,-3.759301,-2.855038,-13.417376,-12.003873
1002.890625,-4.624088,-5.200173,-2.090119,-9.366529
1002.894531,-1.111445,-1.707495,-5.160627,-6.754470
1002.898438,-8.096640,-4.388915,4.130028,2.289996
1002.902344,-1.695214,1.782932,7.739007,-1.763315
1002.906250,11.801021,7.638029,1.543602,10.935422
1002.910156,4.281962,1.053616,2.919505,8.139829
1002.914062,4.280875,5.814741,1.016493,8.498892
1002.917969,9.522539,7.265617,13.362675,3.731038
1002.921875,11.724584,5.002613,12.609173,9.495815
1002.925781,14.844559,6.212579,6.089676,11.135671
1002.929688,8.444280,10.834703,7.460877,10.079498
1002.933594,12.118003,9.473199,10.463927,9.834217
1002.937500,-2.776942,9.773319,3.549867,9.190791
1002.941406,8.929871,3.301393,8.462869,5.991685
1002.945312,-2.368153,5.677443,0.896995,-1.040394
1002.949219,10.046069,-2.864297,3.306335,-2.338858
1002.953125,-8.600548,0.653769,0.095198,-4.783665
1002.957031,3.556887,-2.995751,0.643999,-4.873429
1002.960938,-4.206034,-8.098983,-4.569549,-4.279625
1002.964844,-10.960413,-12.316573,-9.415051,-5.653699
1002.968750,-12.823504,-15.676240,-10.781532,-9.341461
1002.972656,-11.925182,-9.750954,-8.377111,-3.009821
1002.976562,-13.391922,-11.823707,-11.969351,-13.798978
1002.980469,-11.858387,-11.186236,-7.063547,-5.609671
1002.984375,-6.459823,-5.244509,-8.762466,-6.680684
1002.988281,-4.140466,-9.089139,-11.885122,-10.598282
1002.992188,-11.290460,-10.640213,-12.937665,-7.446848
1002.996094,-5.789784,3.832570,-7.718822,0.933997
1003.000000,3.987877,3.974776,-0.855683,6.790016
1003.003906,-5.849012,-3.836555,13.562214,8.561630
1003.007812,2.803484,10.577300,-3.206633,0.629304
1003.011719,7.091194,8.338644,7.292533,3.549175
1003.015625,5.018193,14.553214,4.671918,0.259533
1003.019531,17.121647,7.817934,11.760709,7.024634
1003.023438,13.106890,14.031143,20.416484,5.506076
1003.027344,3.303575,4.680659,8.037916,13.520868
1003.031250,10.424779,4.124596,6.079477,12.307529
1003.035156,7.157888,9.371120,9.865994,10.410229
1003.039062,-3.070256,9.932641,-2.470233,7.600286
1003.042969,3.269795,3.726245,-0.570169,7.120235
1003.046875,-0.740721,1.271620,1.630755,1.368402
1003.050781,3.925218,-5.452032,4.645290,0.321890
1003.054688,-2.566334,-7.498474,-0.072863,-1.876789
1003.058594,0.737253,-0.869016,-6.122676,-5.286423
1003.062500,-7.179252,-13.690543,1.013105,-6.908124
1003.066406,-8.961302,2.169235,-5.042820,0.833694
1003.070312,-12.687704,-3.595165,-9.214196,-8.441465
1003.074219,-9.750855,-2.609698,-12.870447,-8.029609
1003.078125,-15.706889,-12.429490,-11.616689,-5.225079
1003.082031,-4.018708,-8.612698,-12.917241,-15.437918
1003.085938,-14.911305,-2.727146,-6.461836,-3.837550
1003.089844,-2.985085,-7.403795,-4.738400,-6.923500
1003.093750,-11.049096,-6.452191,-1.229985,-3.029347
1003.097656,4.467560,0.950457,-0.248521,-2.550692
1003.101562,-0.180516,-0.864592,2.640077,2.681849
1003.105469,3.841711,2.603881,3.078964,5.253992
1003.109375,-2.777763,5.067483,11.389041,3.485067
1003.113281,10.758393,9.944259,4.536160,9.159099
1003.117188,8.341140,2.571315,10.461031,0.269985
1003.121094,18.103210,11.724441,5.065328,-2.393951
1003.125000,12.492169,5.759277,2.725551,11.914313
1003.128906,16.644481,9.779105,14.198621,13.722734
1003.132812,9.672541,13.094339,14.024190,8.151245
1003.136719,11.615653,5.062606,2.984798,8.810872
1003.140625,5.254368,2.802217,5.004305,9.749839
1003.144531,9.795256,-4.265060,-2.038747,3.525511
1003.148438,7.807128,-1.335900,-1.777417,3.783113
1003.152344,0.107944,2.751851,1.561669,1.355737
1003.156250,-2.890224,-7.765784,-5.806605,2.861828
1003.160156,-7.032496,-8.691482,-12.106990,-10.466829
1003.164062,-13.766614,-5.304574,-4.542452,-7.619271
1003.167969,-14.017342,-6.993740,-13.072914,-10.903957
1003.171875,-3.591329,-6.200054,-6.642286,-3.453374
1003.175781,-8.202169,-14.475563,-12.240969,-5.612884
1003.179688,-10.950291,-8.292404,-14.784945,-17.631363
1003.183594,-7.521453,-9.700338,-14.078010,-11.750412
1003.187500,-6.209872,1.039481,-7.748034,-3.883467
1003.191406,-8.669539,-4.581171,-10.714856,-12.520647
1003.195312,-0.024689,1.852817,-1.450033,-2.449022
1003.199219,-4.554530,-0.163144,0.627824,-4.230310
1003.203125,9.041174,-0.992937,1.338140,1.308483
1003.207031,-2.947477,7.655118,6.835755,2.809847
1003.210938,8.352041,4.575377,8.220917,8.625736
1003.214844,11.268340,2.461407,9.429090,10.923327
1003.218750,3.225216,6.856562,11.665340,10.723177
1003.222656,13.042306,13.603076,12.974161,15.872564
1003.226562,5.051145,13.973587,3.859572,8.359163
1003.230469,7.324566,8.712301,14.575618,11.797696
1003.234375,8.239044,6.596595,6.448834,8.083425
1003.238281,3.769276,6.636444,3.718853,16.541060
1003.242188,6.042605,8.142629,4.021355,4.825761
1003.246094,-1.611293,0.800448,-1.264079,4.056354
1003.250000,4.327502,0.774920,-7.140929,4.662119
1003.253906,-6.920977,0.544901,1.013858,-4.679077
1003.257812,-5.219214,-9.899712,-7.217966,0.205069
1003.261719,-8.806487,-6.377419,-5.677802,-4.475860
1003.265625,-5.563311,-8.807084,-6.964125,-5.292819
1003.269531,-4.940462,-7.600832,-4.474639,-14.397603
1003.273438,-9.831859,-10.593554,-11.156978,-5.633428
1003.277344,-7.399068,-7.557920,-10.665514,-10.070212
1003.281250,-7.613981,-16.533249,-9.133307,-4.269674
1003.285156,-15.908388,-0.523261,-5.376622,-8.769437
1003.289062,-9.436873,-6.152864,-11.699301,-5.644561
1003.292969,-7.173273,-4.183226,-4.607644,-6.249209
1003.296875,-0.857140,0.961431,-3.704617,-2.942803
1003.300781,-2.566737,0.315160,-6.628830,-5.178113
1003.304688,1.499273,5.935579,2.145647,8.408382
1003.308594,2.149664,5.421167,5.742481,7.150124
1003.312500,3.428405,2.523111,10.548584,8.634390
1003.316406,15.486250,8.201318,12.211351,5.308241
1003.320312,12.160839,15.981478,12.138072,5.405022
1003.324219,8.879419,7.402277,8.231308,14.599869
1003.328125,12.311104,12.377551,4.499117,7.760722
1003.332031,20.871024,10.092662,13.907707,13.712231
1003.335938,8.787982,10.799321,11.354822,10.999589
1003.339844,9.868730,1.206643,13.322821,12.705663
1003.343750,6.577933,7.655380,10.526976,9.072844
1003.347656,7.518119,8.149012,0.687461,2.860314
1003.351562,-5.632899,-0.289287,-4.346702,0.601882
1003.355469,0.168716,-7.683398,-0.036392,-2.686966
1003.359375,-7.194693,-2.773272,-8.123333,-4.471021
1003.363281,-7.637671,-12.567846,-8.108664,-11.926404
1003.367188,-8.620961,-14.168120,-8.568189,-3.781253
1003.371094,-12.269071,-4.304643,-8.454195,-5.530167
1003.375000,-11.455957,-7.093709,-8.955881,-7.621792
1003.378906,-7.600802,-2.249312,-6.421321,-8.931714
1003.382812,-6.354606,-9.171885,-9.820969,-6.007736
1003.386719,-3.729974,2.821383,-9.021496,-10.854185
1003.390625,-2.760671,-1.508545,-14.631536,-3.599912
1003.394531,0.181502,-2.586728,-7.808547,-0.088255
1003.398438,1.792860,0.543751,-3.482716,6.503367
1003.402344,2.188497,6.345113,-2.712123,-5.272865
1003.406250,-0.015127,13.210271,0.971812,0.019146
1003.410156,4.792281,1.244487,4.791410,7.175203
1003.414062,3.591212,6.967713,5.525956,17.856451
1003.417969,5.803187,10.250071,4.750193,7.176018
1003.421875,9.625737,15.269694,9.239904,9.724258
1003.425781,5.778325,12.729865,8.367844,16.779364
1003.429688,13.071097,11.884688,9.736081,9.051006
1003.433594,11.574894,11.909689,14.059957,14.182533
1003.437500,4.803826,2.993047,12.339421,7.497431
1003.441406,-6.957550,9.844028,7.354101,10.674977
1003.445312,5.370477,4.037728,-1.608111,5.896908
1003.449219,2.176675,-0.693890,-11.072486,-0.168021
1003.453125,1.164578,-7.411452,-3.419604,-1.872765
1003.457031,-7.689521,-4.329991,1.310812,-6.544714
1003.460938,-2.825864,-9.965832,-5.960212,-3.598761
1003.464844,-14.583974,-14.148068,-7.204177,-7.205496
1003.468750,-12.076711,-7.580953,-8.344236,-10.111307
1003.472656,-12.116199,-13.576263,-14.497347,-11.179729
1003.476562,-14.376912,-10.162634,-9.029208,-10.446152
1003.480469,-3.920905,-5.536318,-7.663318,-0.432162
1003.484375,-6.614931,-7.296745,-7.012021,-9.560612
1003.488281,-9.553097,-12.521298,-6.976062,-6.536015
1003.492188,-4.566885,-4.359072,-13.450728,-9.465929
1003.496094,-4.612673,-8.347540,-5.044742,-2.309276
1003.500000,2.016104,-1.625306,-0.574575,1.135026
1003.503906,-4.536917,7.095733,2.590364,11.101587
1003.507812,7.389384,8.223585,8.048873,12.102993
1003.511719,3.339677,0.535047,9.383131,0.813455
1003.515625,1.699472,3.788999,1.865333,11.083135
1003.519531,12.359952,8.372828,10.706065,5.465277
1003.523438,12.634385,5.506098,17.128387,4.060395
1003.527344,11.280574,9.463580,11.811143,11.054030
1003.531250,1.963404,10.588110,0.170181,16.959341
1003.535156,7.477669,2.527889,11.394881,5.300124
1003.539062,3.809488,6.077236,8.767547,3.393257
1003.542969,0.862935,0.399234,2.098412,2.391618
1003.546875,5.607222,4.450452,6.894503,6.738611
1003.550781,-0.899003,6.994554,-3.999735,-0.412611
1003.554688,-0.107566,1.957256,0.945569,-5.703942
1003.558594,-8.232429,-10.055772,0.509710,-12.595419
1003.562500,-7.267227,-0.452306,-0.640478,-9.835653
1003.566406,-9.175699,-14.119167,-4.705835,-13.560201
1003.570312,-17.051129,-8.040151,-12.360667,-12.159750
1003.574219,-5.756751,-20.050724,-11.018571,-9.125665
1003.578125,-11.942003,-9.182020,-16.956364,-7.413114
1003.582031,-9.835675,-1.858943,-11.607342,-8.858362
1003.585938,-8.536664,-8.786695,-4.859598,-9.727550
1003.589844,-8.633575,-11.637734,-6.391308,3.967349
1003.593750,-4.153398,-1.562501,-2.932131,3.427544
1003.597656,-3.170141,-1.744276,-9.182883,0.420789
1003.601562,-10.551510,-4.662619,1.203017,6.550412
1003.605469,1.541527,2.774186,7.521878,9.304158
1003.609375,5.249006,3.854229,9.249447,2.551055
1003.613281,11.764866,8.663165,11.940491,4.437743
1003.617188,9.673025,8.548975,15.104592,10.000634
1003.621094,12.642739,14.372543,11.840193,7.414080
1003.625000,6.592737,9.707787,7.679250,9.669883
1003.628906,13.619279,7.805050,3.838085,11.704410
1003.632812,3.379658,12.647510,6.242318,14.838447
1003.636719,-3.434920,1.661425,3.180157,15.240202
1003.640625,4.705143,9.595318,6.436496,9.503311
1003.644531,4.322350,-3.031622,-1.643216,6.966080
1003.648438,-0.567391,0.388901,0.965694,1.949035
1003.652344,-4.254757,-3.396365,-2.327233,2.277461
1003.656250,-7.122266,-11.178101,6.572134,-8.230100
1003.660156,1.230168,-11.758169,-3.417168,-5.029279
1003.664062,-6.960259,-2.199079,-9.866712,-8.984559
1003.667969,-5.454560,-6.818045,-14.622322,-13.365653
1003.671875,-10.752497,-5.634197,-5.109053,-7.660684
1003.675781,-7.722063,-6.714523,-5.903890,-6.802734
1003.679688,-9.904280,-12.976316,-14.799922,-13.093806
1003.683594,-15.831399,-6.335587,-10.313589,-9.130634
1003.687500,-0.667426,-0.917903,-3.557805,-5.301544
1003.691406,-8.345479,-1.930689,-8.225228,-9.942302
1003.695312,0.705334,4.168221,-9.233735,-5.476696
1003.699219,-3.591412,3.397178,-7.687556,1.997812
1003.703125,10.526612,0.875012,12.266201,0.525940
1003.707031,3.396876,7.020594,6.420933,5.375350
1003.710938,6.301962,7.765783,8.053159,0.898168
1003.714844,8.199868,9.669520,8.823079,12.867929
1003.718750,4.598232,4.736945,7.281862,10.944356
1003.722656,7.654445,10.001115,5.962499,14.089095
1003.726562,16.036668,10.771546,15.717409,0.274597
1003.730469,8.543308,3.307257,13.985821,12.978458
1003.734375,6.921314,10.443949,12.123168,3.860985
1003.738281,4.985738,8.511503,6.528952,14.421509
1003.742188,5.047119,2.236649,14.264877,10.581656
1003.746094,10.898916,7.685007,-0.651796,0.702051
1003.750000,1.129238,-2.463684,-3.697117,1.163344
1003.753906,-3.270834,-5.245364,-3.238034,-1.145031
1003.757812,-6.903059,1.120840,-2.388837,-2.970827
1003.761719,-7.152894,-5.047847,-5.106782,-2.251398
1003.765625,-9.942104,-10.580465,-13.105264,-12.010001
1003.769531,-14.046211,-13.761922,-2.671885,-11.180770
1003.773438,-16.053562,-11.005612,-10.666933,-8.467550
1003.777344,-9.771182,-10.136126,-3.136978,-12.619646
1003.781250,-8.434737,-11.398045,-10.926981,-9.439574
1003.785156,-9.490784,-9.155141,-11.605268,-10.242789
1003.789062,-7.070481,-4.466231,1.096914,4.048208
1003.792969,-1.392259,-6.376295,-6.976609,-10.565058
1003.796875,-2.861466,-2.724345,-3.320799,-9.577420
1003.800781,3.085328,9.909633,-3.360773,2.560147
1003.804688,6.041113,7.261911,-1.873587,-2.286517
1003.808594,5.023881,9.744356,1.320920,7.105404
1003.812500,5.560921,-1.194602,5.645448,5.485451
1003.816406,10.399148,6.704515,5.226574,5.597489
1003.820312,9.103500,6.807202,4.452126,7.289306
1003.824219,13.215952,5.661407,7.150891,6.227879
1003.828125,9.553462,13.066247,10.050839,8.680301
1003.832031,10.769496,9.484553,10.995732,7.126803
1003.835938,2.456979,9.222871,-0.095924,5.372965
1003.839844,5.387332,2.450058,3.255366,0.545107
1003.843750,1.904757,3.175642,2.052750,9.009824
1003.847656,6.421280,-5.160899,12.350210,4.182788
1003.851562,-1.119915,0.464029,-2.588838,0.015418
1003.855469,-9.270290,-6.257348,-3.432655,-2.944527
1003.859375,-3.174202,-5.114769,-3.080348,-11.303030
1003.863281,-6.134398,-8.008869,-8.170693,-4.002207
1003.867188,-7.730473,-5.485645,-1.770511,-12.037574
1003.871094,-10.009326,-11.151616,-5.988202,-4.480503
1003.875000,-9.914547,-14.985468,-11.809280,-15.280961
1003.878906,-18.910566,-11.280653,-10.305198,-13.598820
1003.882812,-10.148120,-15.220725,-3.977441,-2.595000
1003.886719,-9.577490,-0.993574,-3.593180,-5.690456
1003.890625,-10.743606,7.375939,-1.439278,-15.756054
1003.894531,-2.928163,-6.902715,-4.213086,-10.693772
1003.898438,2.161995,-4.567939,2.978003,4.614875
1003.902344,5.802049,0.667559,6.048861,1.806115
1003.906250,7.712483,14.982128,2.356749,7.480616
1003.910156,2.528185,3.957872,8.472207,5.454614
1003.914062,9.966732,7.858354,3.572358,15.519437
1003.917969,7.735334,5.130581,14.911730,5.454384
1003.921875,10.989014,3.706306,10.178670,8.389477
1003.925781,16.102621,7.922811,2.722927,14.839357
1003.929688,17.517507,12.617938,11.089555,11.752874
1003.933594,8.103322,4.208789,13.322746,3.457401
1003.937500,8.521920,5.184648,10.352651,5.592126
1003.941406,9.382018,9.947377,3.827958,5.236951
1003.945312,0.351225,-1.012785,0.844824,1.994948
1003.949219,9.556001,0.539710,-1.197542,-1.026241
1003.953125,2.219226,-6.636714,-0.969508,-2.349044
1003.957031,-2.570934,-12.360105,-2.476441,-8.015051
1003.960938,-11.187280,-10.523026,-7.338495,-9.728436
1003.964844,-5.275117,-11.695280,-9.481918,-13.980134
1003.968750,-13.755845,-7.262060,-0.517653,-8.792077
1003.972656,-13.783965,-9.445130,-14.228268,-9.949879
1003.976562,-13.391103,-6.851231,-8.661657,-9.832135
1003.980469,-9.615012,-14.648077,-6.542330,-12.311458
1003.984375,-2.138702,-10.258462,-10.137922,-5.032936
1003.988281,-9.513624,-4.987303,-4.343628,-5.114382
1003.992188,-1.265974,-1.501941,-0.522188,-2.512888
1003.996094,0.424044,-5.796734,-2.563754,2.014545
1004.000000,-3.852597,-3.085779,1.602704,-2.658664
1004.003906,-0.576949,1.924834,-5.770736,4.539339
1004.007812,3.006621,5.447435,11.649297,6.711214
1004.011719,1.466264,3.865843,-1.763000,10.643688
1004.015625,6.273838,6.769349,10.341760,7.195330
1004.019531,4.428653,7.175876,10.718589,12.135537
1004.023438,8.038081,8.977458,15.515781,17.778714
1004.027344,6.323825,6.416280,11.890842,11.400189
1004.031250,6.724092,8.662082,9.944536,11.765593
1004.035156,3.948372,4.678592,2.806191,4.553542
1004.039062,-0.124943,6.034935,9.606328,4.423824
1004.042969,2.210366,4.957995,6.613128,3.106684
1004.046875,-4.966540,4.158412,-0.169192,5.791720
1004.050781,-2.599508,-4.211025,0.405970,-4.663706
1004.054688,-9.201583,-6.735685,1.378772,-12.386550
1004.058594,-7.484518,-10.794786,-11.419205,-8.667922
1004.062500,-10.892204,0.798339,-4.907515,-5.237083
1004.066406,6.119307,-4.505637,-3.459696,-8.894724
1004.070312,-12.397816,-3.877106,-10.663206,-10.407283
1004.074219,-9.236134,-14.775415,-12.708509,-14.913325
1004.078125,-14.087055,-2.001684,-16.004658,-10.959714
1004.082031,-14.298612,-11.063584,-10.494879,-11.689743
1004.085938,-9.444344,-4.873562,-0.510002,-4.642859
1004.089844,-8.105195,-10.058510,-8.548841,-1.349140
1004.093750,-5.790647,-8.044798,-4.933701,3.437423
1004.097656,1.968602,-2.763199,-2.056589,-2.497747
1004.101562,-3.212397,0.477674,-3.748382,-0.580416
1004.105469,6.149521,3.592266,-0.882547,8.110442
1004.109375,6.020365,5.584155,3.868327,10.447911
1004.113281,6.210071,7.498282,9.256035,5.083731
1004.117188,7.231332,12.290484,7.765995,6.618123
1004.121094,12.815033,3.682630,10.415707,13.125831
1004.125000,6.390580,8.097937,12.528595,8.845240
1004.128906,10.208754,4.411340,6.096810,14.186907
1004.132812,8.979457,17.022642,10.005549,7.047009
1004.136719,6.416757,5.427535,16.015666,5.551297
1004.140625,11.475458,2.108419,9.518508,7.280962
1004.144531,-0.362842,-0.733920,2.833250,3.771358
1004.148438,1.593017,5.035796,1.068435,5.847281
1004.152344,2.010028,-3.457255,-1.790507,1.649318
1004.156250,-10.274314,-2.403936,0.335411,-5.509329
1004.160156,-11.178864,-6.050114,-2.129475,-8.377439
1004.164062,-9.993964,-11.071556,-10.054903,-6.402833
1004.167969,-5.154880,-5.520206,-4.966833,-13.407136
1004.171875,-8.947830,-10.755785,-16.955855,-6.756590
1004.175781,-6.389072,1.420108,-18.863254,-4.414175
1004.179688,-4.652611,-5.956613,-3.239582,-6.119390
1004.183594,-6.498150,-7.801414,-9.664680,-11.490203
1004.187500,-12.526137,-0.374781,-4.580951,-7.371264
1004.191406,-2.299563,-3.827427,-3.317797,-3.222952
1004.195312,-2.311958,-2.108686,4.314410,-2.436157
1004.199219,0.080197,-2.635766,0.850788,1.686658
1004.203125,-1.790125,3.348430,1.643826,-2.527052
1004.207031,4.158962,-1.315768,7.786366,2.926208
1004.210938,10.672574,7.595593,3.060021,1.831702
1004.214844,9.231902,13.341394,6.227047,6.496937
1004.218750,0.854562,5.126707,10.785606,12.495037
1004.222656,11.355627,9.305798,10.616828,15.980986
1004.226562,10.833355,7.188857,2.801401,5.619012
1004.230469,3.123747,4.655736,9.920966,10.293870
1004.234375,6.845744,7.853688,10.644458,-4.596123
1004.238281,4.678156,13.908239,7.007098,5.013383
1004.242188,0.403648,5.612364,8.580654,7.407983
1004.246094,0.675870,3.080246,3.510354,6.730471
1004.250000,5.400765,-1.914883,2.798733,-1.472160
1004.253906,0.840680,-4.836359,-4.573594,-0.155378
1004.257812,-2.949981,-4.970893,-2.431370,-6.536830
1004.261719,-7.023656,-2.880050,-12.761740,-6.762309
1004.265625,-18.596669,-7.197399,-9.195922,-4.652546
1004.269531,-5.758889,-12.080325,-3.617374,-10.246733
1004.273438,-7.436261,-13.732788,-9.655914,-7.875146
1004.277344,-15.483596,-6.590281,-8.318493,-13.891262
1004.281250,-10.214253,-13.473657,-7.330069,-14.236614
1004.285156,-6.785690,-14.257193,-5.980339,-15.014794
1004.289062,-8.848808,-7.523136,-5.130954,-8.577188
1004.292969,-3.826675,-6.353608,-12.741983,-8.642269
1004.296875,-0.558064,-8.271958,-0.916730,2.088875
1004.300781,-4.665582,-1.321119,-8.747531,-0.847822
1004.304688,5.431856,5.346850,0.169032,5.615548
1004.308594,2.764398,9.280341,7.814111,8.043086
1004.312500,-1.165865,1.023549,10.379091,-0.680465
1004.316406,9.322408,4.404991,9.561037,12.260985
1004.320312,4.062755,5.041974,14.846361,7.030140
1004.324219,11.263165,12.286797,-1.840404,12.107778
1004.328125,18.465092,8.553618,10.523281,9.475789
1004.332031,8.606939,9.469709,5.059690,2.241299
1004.335938,-1.507868,7.506926,14.255425,1.292668
1004.339844,7.580971,1.168138,6.271734,7.745258
1004.343750,-0.615535,6.751933,13.487857,11.186980
1004.347656,-1.029938,5.403541,0.415425,1.483919
1004.351562,0.852557,4.226408,3.008319,-1.646760
1004.355469,-3.717696,-3.497581,-5.426450,-2.463114
1004.359375,-6.700085,-6.760692,-6.581343,-0.643082
1004.363281,-5.130873,-10.132455,-3.779946,-13.559915
1004.367188,-2.102534,-6.752985,-6.520532,-0.172777
1004.371094,-13.590345,-11.407448,-8.354698,-8.398670
1004.375000,-12.985821,-6.896826,-3.506068,-17.192193
1004.378906,-3.911523,-7.995251,-7.713735,-3.138377
1004.382812,-1.687709,-18.463739,-10.673958,-13.357063
1004.386719,-0.634048,-0.775656,-10.396778,-7.889141
1004.390625,-2.281997,-1.003080,-5.227814,-4.502839
1004.394531,-1.262310,-3.779819,-9.123839,-1.637170
1004.398438,0.553406,-0.542715,-0.284020,1.085321
1004.402344,-4.128210,0.598792,6.486680,9.363736
1004.406250,1.141966,2.333157,3.028256,5.410661
1004.410156,2.571438,6.591844,12.589784,2.445928
1004.414062,9.928457,13.834141,12.276180,11.507954
1004.417969,13.075674,7.529998,8.727254,1.548335
1004.421875,15.148013,12.091719,4.534754,5.552356
1004.425781,9.306200,10.751212,8.977569,4.750017
1004.429688,13.483381,14.591938,10.151808,10.810426
1004.433594,9.036041,10.456036,11.604469,10.038739
1004.437500,15.017317,3.654999,11.312236,7.284518
1004.441406,9.485648,5.426857,6.816921,7.769394
1004.445312,10.836855,-0.101210,-6.380886,1.375581
1004.449219,0.589568,-2.068463,0.634347,-4.112149
1004.453125,-5.750501,2.284303,1.393809,-3.823396
1004.457031,-6.228448,-10.006609,-2.702988,-2.222570
1004.460938,-12.214490,-7.932713,1.006622,-7.745335
1004.464844,-5.763862,-10.962050,-7.074988,-15.306816
1004.468750,-12.030170,-14.650225,-12.773944,-12.608421
1004.472656,-3.698804,-10.925872,-9.147327,-6.996376
1004.476562,-18.215322,-13.512934,-12.312927,-14.843639
1004.480469,-2.138267,-2.317774,-15.604456,-9.644925
1004.484375,-11.543353,-10.989886,-10.078620,-5.288787
1004.488281,-9.179671,1.166393,-9.800522,-1.881273
1004.492188,-3.224339,-3.580487,-5.343515,-6.518404
1004.496094,-4.233009,-7.430091,1.689793,3.674809
1004.500000,4.645570,-2.461625,0.011176,4.495798
1004.503906,12.964751,9.575214,12.196372,0.484651
1004.507812,1.903748,3.512810,10.607779,8.853333
1004.511719,10.197301,8.454289,14.609002,8.019725
1004.515625,10.198964,10.906693,5.813614,6.136887
1004.519531,10.319995,11.036845,6.628366,11.191480
1004.523438,12.978642,10.277468,13.068786,15.854760
1004.527344,6.073923,10.604047,7.801486,15.324655
1004.531250,8.750378,2.547752,5.179445,5.267809
1004.535156,8.140869,19.711800,-0.664009,5.612444
1004.539062,14.101142,4.743785,1.518579,3.792168
1004.542969,3.042778,3.538914,2.642738,2.884806
1004.546875,3.339371,2.505759,-1.454212,3.542044
1004.550781,-3.339508,6.270838,-1.193242,0.508713
1004.554688,-3.584667,-3.865750,-3.420301,4.827147
1004.558594,-1.046379,-9.140674,-2.062533,-6.254496
1004.562500,-7.497776,-8.286736,-4.229858,-9.322848
1004.566406,-7.787767,-10.705337,-6.312012,-5.967489
1004.570312,-12.814745,-10.927107,-7.859859,-6.202468
1004.574219,-15.504454,-6.451718,-8.719207,-11.003768
1004.578125,-10.518356,-10.150774,-7.933398,-12.034270
1004.582031,-7.343502,-10.416034,-10.240524,-20.269423
1004.585938,-6.271339,-6.409654,-6.329929,-5.346699
1004.589844,-0.633552,-6.540372,0.136469,-2.982852
1004.593750,-0.862055,-15.161259,-0.461944,-7.516375
1004.597656,-5.407448,-3.389127,3.802933,-1.052522
1004.601562,-1.561769,-3.535734,-5.142034,1.937990
1004.605469,2.540358,1.623993,6.898865,-4.576991
1004.609375,6.530946,0.223237,-1.263970,12.769182
1004.613281,11.396881,1.168556,8.931067,10.381756
1004.617188,7.378081,9.233384,6.105113,6.527080
1004.621094,8.034604,5.019152,11.087603,3.497986
1004.625000,13.374199,12.574235,5.048913,11.579200
1004.628906,10.060852,2.988230,11.842305,10.795078
1004.632812,17.169272,10.954571,8.017854,9.364003
1004.636719,12.995058,5.506784,2.716946,1.672514
1004.640625,7.799732,3.329459,1.268805,8.811969
1004.644531,1.921375,6.399317,1.932845,-2.274045
1004.648438,-4.915796,-6.798654,-1.332429,-6.104260
1004.652344,0.404184,-0.325462,-6.616580,-3.152000
1004.656250,-4.913685,-8.690148,0.658917,2.923301
1004.660156,-0.408092,-9.996040,-1.876296,0.303367
1004.664062,-10.976393,-13.018442,-8.128447,-0.768819
1004.667969,-4.540158,-8.367071,-6.286193,-4.403884
1004.671875,-7.551972,-9.780324,-12.105494,-6.260443
1004.675781,-9.017177,-12.886210,-12.820927,-7.746645
1004.679688,-9.211952,-2.695943,-14.961175,-9.399681
1004.683594,-14.826232,-9.243476,-2.931232,-9.624834
1004.687500,-7.562715,-14.196270,-8.375741,-6.284379
1004.691406,0.051478,-5.579089,-11.481859,-6.256809
1004.695312,0.131378,1.567711,-0.903109,-4.599458
1004.699219,-4.581407,0.377762,7.326618,-1.644760
1004.703125,1.732002,12.101121,-5.820677,-0.741424
1004.707031,0.310248,-0.589166,-0.075571,0.217051
1004.710938,8.542002,13.241379,5.660302,5.737301
1004.714844,9.111901,1.216693,16.778666,4.615888
1004.718750,11.896353,9.553283,12.214967,7.650119
1004.722656,12.059743,7.812269,13.084250,11.668897
1004.726562,5.201691,7.263824,6.270234,7.029572
1004.730469,4.843581,11.222972,1.601993,12.463934
1004.734375,10.877857,10.043991,2.604456,12.672733
1004.738281,9.299461,5.078175,7.999613,7.961227
1004.742188,4.392920,2.684975,3.786367,-2.419825
1004.746094,-0.013324,-1.589869,-0.459835,9.577078
1004.750000,0.267780,7.438092,0.163357,6.376487
1004.753906,0.781203,-3.978037,-8.587477,-0.813689
1004.757812,-0.956987,-8.915831,-6.135730,-2.553204
1004.761719,-5.589102,-3.166615,-4.908605,-5.225933
1004.765625,-11.827874,-12.636240,-14.328376,-10.185298
1004.769531,-8.879829,-13.007427,-12.891766,-4.555416
1004.773438,-5.531370,-4.071702,-6.881933,-10.265343
1004.777344,-7.387046,-6.522777,-21.933163,-5.973692
1004.781250,-3.883838,-2.861469,-14.025464,-9.056742
1004.785156,-0.544541,-6.483632,-4.994077,-2.049517
1004.789062,-9.032774,-14.685158,-8.121382,-6.822417
1004.792969,-5.990696,-7.888573,-6.369523,-13.040212
1004.796875,0.117492,1.054914,-4.658085,1.838405
1004.800781,-1.356587,-4.020357,-3.650571,-0.366415
1004.804688,3.370843,4.509121,11.589205,7.833069
1004.808594,6.182692,5.502889,0.502559,0.519939
1004.812500,1.481111,10.461850,9.961918,0.524194
1004.816406,9.441404,12.788084,5.899275,9.500313
1004.820312,14.892315,11.250947,12.934581,10.513633
1004.824219,8.239774,8.563068,3.837357,14.060535
1004.828125,10.385503,5.136420,7.932510,7.603456
1004.832031,4.323527,17.216493,8.904391,6.630604
1004.835938,7.449488,7.135906,12.276701,11.833319
1004.839844,1.863796,4.585924,8.507560,4.128203
1004.843750,-4.414730,0.635224,2.007859,6.321888
1004.847656,8.150862,0.057460,2.424062,-3.076621
1004.851562,7.851965,-4.259243,-6.863367,-5.203683
1004.855469,-7.388285,-6.105069,-18.809198,-3.832218
1004.859375,-4.301832,-5.798334,-11.123581,-4.741993
1004.863281,-6.290954,-9.568576,-1.733364,-6.781816
1004.867188,-8.774093,0.417237,-3.415557,1.246242
1004.871094,-5.727012,-9.360267,-11.476482,-7.853309
1004.875000,-10.659785,-16.475715,-10.267824,-6.784280
1004.878906,-4.305946,-9.133683,-5.975687,-15.451222
1004.882812,-5.950710,-8.091259,-9.013308,-9.543569
1004.886719,-5.916085,-4.435587,-12.556528,-7.006687
1004.890625,-4.993709,-2.292096,-1.309349,-10.627834
1004.894531,-6.154652,-3.383375,-3.776209,-2.370486
1004.898438,0.613066,0.676712,0.251805,-5.244810
1004.902344,6.099083,5.315661,0.717997,0.844632
1004.906250,9.626000,5.425882,2.630141,4.528605
1004.910156,9.406292,8.921347,1.129444,2.131362
1004.914062,2.833027,9.243336,4.698747,11.331357
1004.917969,8.584858,9.070370,-3.951090,6.626648
1004.921875,11.209339,8.568970,11.976827,4.893501
1004.925781,10.684446,15.136619,13.400982,12.333987
1004.929688,8.609473,8.987046,7.214542,14.403456
1004.933594,7.977775,4.672224,3.832287,12.092023
1004.937500,6.995028,1.259014,9.167175,12.513566
1004.941406,0.432349,4.869876,9.204015,7.018144
1004.945312,2.126169,2.364520,3.739776,1.030987
1004.949219,-5.744972,-2.255117,-2.369429,-5.197514
1004.953125,-6.306056,3.664757,-1.181070,-8.808931
1004.957031,-2.039578,-1.561925,-3.260544,-7.014926
1004.960938,-3.395842,-3.284786,-7.887005,-6.587048
1004.964844,-5.381142,-11.671418,-12.230363,-11.937108
1004.968750,-14.983795,-10.423319,-3.974623,-2.292637
1004.972656,-7.789391,-4.724331,-8.485309,-2.624766
1004.976562,-5.445870,-7.415061,-10.337277,-8.066231
1004.980469,-13.147881,-6.175356,-9.033903,-9.733556
1004.984375,-6.234183,-10.041355,-9.675152,-12.035579
1004.988281,-1.324988,-9.519550,-5.024257,-1.743369
1004.992188,-5.714556,2.637158,-6.911247,1.047720
1004.996094,0.557446,-4.234510,-5.829376,-3.672117
1005.000000,-1.784439,3.655755,-4.243694,-1.360695
1005.003906,0.896478,7.415283,0.838444,4.928454
1005.007812,1.422122,4.202364,6.735682,1.832519
1005.011719,4.497515,9.714995,5.078441,11.600364
1005.015625,11.455076,18.219894,7.072938,9.105452
1005.019531,14.538671,8.088320,5.869326,14.372013
1005.023438,16.030174,9.094305,13.528296,13.988420
1005.027344,9.630144,10.037195,8.817669,8.334546
1005.031250,8.000964,13.834380,5.845319,5.195595
1005.035156,4.317550,10.118565,16.699965,7.284262
1005.039062,8.043724,11.746178,4.154662,8.907489
1005.042969,7.207792,-0.191286,5.244974,0.569364
1005.046875,7.031015,5.212846,-1.017964,-1.184553
1005.050781,-1.053950,-3.916241,-3.510864,-2.191735
1005.054688,-0.486486,-5.304118,-2.694590,-1.293393
1005.058594,-6.677109,-4.015956,-2.313340,-5.308655
1005.062500,-5.143020,-4.775878,-7.935668,-6.468753
1005.066406,-13.085693,-2.701921,-8.378132,-12.113844
1005.070312,-8.821832,-6.062086,-9.667333,-7.404959
1005.074219,-8.797827,-12.913278,-4.187846,-10.647382
1005.078125,-8.730531,-4.222528,-18.110431,-11.670531
1005.082031,-10.922947,-9.323095,-11.108030,-9.966841
1005.085938,-6.652435,-5.598058,-4.875102,-7.870018
1005.089844,-2.226891,-6.181758,1.778986,2.442940
1005.093750,0.183541,-8.711729,0.140484,-8.057102
1005.097656,-5.004108,-9.896281,2.843407,0.622083
1005.101562,0.817369,-3.217660,0.883892,0.083944
1005.105469,5.951278,-2.376125,3.115466,3.418488
1005.109375,7.833071,6.814486,3.271567,3.013147
1005.113281,9.617657,4.828723,12.916954,11.210369
1005.117188,11.875687,11.187558,15.703395,8.447402
1005.121094,9.327732,10.928995,12.652050,10.843594
1005.125000,10.294621,5.469174,5.347776,10.123359
1005.128906,12.333510,8.560711,5.929500,13.713381
1005.132812,11.155523,5.118892,3.280861,4.744026
1005.136719,7.025948,6.391298,11.802120,3.389962
1005.140625,8.963748,2.606455,2.664616,7.908755
1005.144531,8.098106,4.563116,6.939101,0.798128
1005.148438,-2.171988,1.563408,3.400347,-3.321479
1005.152344,6.043369,-0.313356,-4.914667,0.378055
1005.156250,-2.044783,1.329368,1.101720,-8.732219
1005.160156,-11.208711,-3.226231,-3.885815,-3.357808
1005.164062,-14.381690,-6.784606,-12.224290,-5.188164
1005.167969,-7.784438,-0.002487,2.783659,1.437808
1005.171875,-5.327788,-14.473017,-6.128668,-7.544227
1005.175781,-10.295348,-9.900907,-13.593905,-9.465474
1005.179688,-10.298314,-6.719216,-9.429862,-15.612516
1005.183594,-11.370172,-14.401073,-18.818517,-11.710439
1005.187500,-10.527581,-7.623567,-6.060547,-0.919224
1005.191406,-1.100693,-6.297088,-9.516572,5.392994
1005.195312,-7.753564,-1.421615,-3.269859,-7.175521
1005.199219,0.945568,1.131393,7.764182,9.845755
1005.203125,0.296404,0.578322,2.164562,3.043152
1005.207031,-2.576574,4.033249,9.753226,3.775641
1005.210938,4.189901,6.759918,13.183109,1.461419
1005.214844,8.903801,4.357447,9.838683,0.971532
1005.218750,5.934560,9.302910,6.913212,8.591422
1005.222656,14.243381,14.622845,12.182903,9.256472
1005.226562,10.655904,4.603614,9.306725,9.488538
1005.230469,16.414786,7.148094,5.417863,7.495959
1005.234375,5.674005,4.767384,11.553854,11.248552
1005.238281,1.688155,6.100638,8.504440,8.186922
1005.242188,10.173791,7.689441,5.602455,7.705140
1005.246094,-1.802768,6.707653,7.043492,-1.641711
1005.250000,-4.522588,-0.551202,-1.502497,2.256447
1005.253906,-2.361841,4.962311,-1.219112,-1.393402
1005.257812,-8.425497,0.476445,-13.561445,0.321648
1005.261719,-5.553053,-14.979870,-4.975850,-5.554324
1005.265625,-3.486865,-11.494994,-9.089605,-10.982847
1005.269531,-5.397899,-17.787955,-11.366595,-11.280060
1005.273438,-8.397645,-15.460289,-10.580116,-16.938619
1005.277344,-9.037653,-10.710615,-9.112959,-5.902319
1005.281250,-15.492866,-7.942050,-9.471904,-12.364764
1005.285156,-4.730405,0.676072,-12.420827,-6.804990
1005.289062,-7.420794,-9.949390,-6.601763,-0.547900
1005.292969,-6.642708,-4.897627,2.160159,-1.114854
1005.296875,2.888799,1.359797,0.409162,-1.971282
1005.300781,-4.125181,-3.878362,1.452766,-0.039535
1005.304688,3.442049,1.640381,2.680868,2.106810
1005.308594,2.019234,1.739844,2.701119,-0.836546
1005.312500,6.641742,11.565233,5.603271,8.897177
1005.316406,5.853095,10.763660,3.843470,15.167913
1005.320312,12.798281,10.019358,6.453816,8.305483
1005.324219,7.714800,18.819584,4.227893,11.475577
1005.328125,5.862335,9.433447,16.708905,12.606720
1005.332031,6.888562,11.735732,12.034649,1.359954
1005.335938,8.453508,1.911396,3.964767,12.190419
1005.339844,1.585957,2.935878,13.900902,-2.781568
1005.343750,6.327580,0.473256,-0.995356,-4.455411
1005.347656,1.165188,2.924101,-1.660562,2.653121
1005.351562,-1.029574,-6.291226,-1.959453,0.071069
1005.355469,-5.151849,-0.405854,0.945659,-1.395544
1005.359375,-3.111652,-5.339992,-2.672052,-10.031584
1005.363281,-13.180246,-6.000255,-5.949513,-12.521083
1005.367188,-8.907282,-9.522290,-3.127345,-5.153145
1005.371094,-6.099220,-13.970453,-9.897108,-15.511766
1005.375000,-8.866638,-10.023203,-15.680577,-5.653341
1005.378906,-7.738039,-8.868969,-12.730167,-9.583009
1005.382812,-10.465323,-4.726347,-6.384653,-6.534682
1005.386719,-6.868751,-11.154353,-3.964557,-5.006918
1005.390625,-17.347354,-0.568913,-4.952123,-2.007093
1005.394531,1.018192,-1.137966,-2.972352,-0.684473
1005.398438,-3.520937,-4.795903,-2.010971,-3.138419
1005.402344,-4.440763,-0.826832,-1.229679,2.326318
1005.406250,5.702558,4.651721,6.733154,8.446874
1005.410156,1.809305,1.947233,4.142489,14.029768
1005.414062,9.994087,-4.218438,7.084497,11.536307
1005.417969,5.305606,9.907001,3.590497,4.656630
1005.421875,13.381353,12.614501,13.478095,19.680074
1005.425781,11.155226,11.354461,12.733104,13.607849
1005.429688,9.364437,6.852835,15.024096,8.491020
1005.433594,8.847948,12.511458,11.332746,7.883108
1005.437500,5.629661,3.340639,6.280296,12.940886
1005.441406,7.981943,5.095422,2.211115,5.116143
1005.445312,4.498549,1.760436,0.277977,4.789922
1005.449219,2.370231,1.541432,-7.678108,-2.126250
1005.453125,5.023606,-5.771982,1.358949,2.247091
1005.457031,-11.810576,-0.386181,-12.345308,-5.155666
1005.460938,-6.603805,0.572180,-11.035940,-4.954015
1005.464844,-1.864089,-12.687596,-7.385135,-10.365648
1005.468750,-6.988896,-12.829387,-14.421912,-5.322433
1005.472656,-8.390072,-16.421528,-13.293906,-18.615320
1005.476562,-2.537896,-19.477421,-17.050884,-8.439768
1005.480469,-5.519092,-16.970966,-12.969112,-5.698707
1005.484375,-9.808944,-12.169294,-12.602239,-9.416931
1005.488281,-17.280957,-6.668209,-10.854363,-4.827167
1005.492188,-7.357236,-3.636172,4.647077,3.115488
1005.496094,1.680288,0.572180,-1.044550,0.082748
1005.500000,-7.079131,4.217748,6.685675,-2.640504
1005.503906,3.624440,-6.588021,4.802919,3.278749
1005.507812,6.134881,7.335762,4.225419,8.920388
1005.511719,2.909020,10.815623,7.215265,6.381320
1005.515625,13.753111,2.286192,3.636693,3.471974
1005.519531,3.881660,9.133497,17.402528,15.374617
1005.523438,15.032682,8.279501,7.328611,8.182392
1005.527344,5.629029,3.885357,11.444774,6.382038
1005.531250,4.256854,8.863971,11.296063,6.999843
1005.535156,9.796932,14.118688,7.852641,8.143151
1005.539062,0.277936,0.074272,6.157669,5.018730
1005.542969,3.321387,4.611374,3.054325,6.115131
1005.546875,-1.929247,-2.629909,0.716111,-1.193205
1005.550781,-7.343686,-3.099820,0.822432,3.727916
1005.554688,-4.905287,3.927070,-0.291018,-2.398580
1005.558594,-7.888435,-5.801954,-2.002564,-2.677554
1005.562500,-6.040046,-6.609019,-4.176275,-3.180804
1005.566406,-12.634139,-5.779644,-7.775279,-15.542036
1005.570312,-1.867364,-9.349688,-9.712142,-13.506218
1005.574219,-6.031888,-10.098335,-10.461928,-11.390903
1005.578125,-11.481472,-7.298916,-8.279965,-6.203142
1005.582031,-13.817481,-5.690089,-9.073157,-15.405045
1005.585938,-9.660950,-6.092586,-3.336454,-12.548031
1005.589844,-10.078479,1.941881,-0.450382,-6.851490
1005.593750,-6.162757,-6.261627,-0.867384,-4.868564
1005.597656,-4.717483,-3.160357,-1.205720,-3.408543
1005.601562,-0.772573,-4.793250,-1.635856,4.869931
1005.605469,1.259641,-2.314711,10.180723,3.889994
1005.609375,7.904102,2.700472,1.263455,3.913152
1005.613281,6.366138,7.686439,3.780591,2.698032
1005.617188,15.581862,13.693892,8.416581,9.483680
1005.621094,10.857057,9.002396,9.739270,9.610076
1005.625000,11.763215,6.948676,15.886977,9.854965
1005.628906,16.893298,2.039467,10.351454,5.070419
1005.632812,2.805022,5.636592,9.529202,4.708302
1005.636719,5.532091,4.153505,13.945059,10.291089
1005.640625,2.877207,11.410105,7.351585,11.413422
1005.644531,-2.340088,1.341674,4.103883,0.943051
1005.648438,-0.706238,-9.167220,8.458998,-1.599219
1005.652344,-0.949894,0.064657,-9.910695,5.288704
1005.656250,-6.690736,2.536811,-6.774872,-11.664363
1005.660156,-4.668343,3.339208,-12.161015,-4.323843
1005.664062,-2.254355,-6.327887,-3.630947,-16.518755
1005.667969,-6.865441,-8.192051,-11.397957,-2.860151
1005.671875,-5.080309,-8.466705,-10.786031,-8.937513
1005.675781,-12.220994,0.055695,-4.009301,-16.447600
1005.679688,-8.135288,0.029794,-6.631733,-15.421114
1005.683594,-9.824437,-9.737858,0.033745,-11.534219
1005.687500,-2.112845,-10.940041,-6.944408,-14.425879
1005.691406,-2.715127,-3.419749,-1.461798,0.459906
1005.695312,0.451487,5.682138,-1.147292,0.875022
1005.699219,0.395605,4.459354,-2.788536,-2.700773
1005.703125,-2.355270,6.350124,1.937375,-0.265822
1005.707031,3.145023,10.218756,7.775312,3.679410
1005.710938,4.088059,5.979647,13.350630,3.702901
1005.714844,10.231084,4.609150,7.807563,5.812103
1005.718750,10.133845,1.393356,14.912830,8.372889
1005.722656,6.565393,6.449565,9.353689,6.974638
1005.726562,10.990773,10.468003,10.284139,13.312936
1005.730469,12.808357,3.681238,10.349425,15.657980
1005.734375,8.392968,7.435549,7.973093,7.248098
1005.738281,11.064215,1.042365,10.000354,9.760199
1005.742188,13.247344,7.934711,8.448252,8.711452
1005.746094,9.090392,-3.589409,1.085858,2.955085
1005.750000,3.841303,3.101473,1.984675,4.627080
1005.753906,1.385935,0.116015,-5.880514,-2.086215
1005.757812,-6.527073,-4.663247,-3.319289,-12.346276
1005.761719,-1.653534,-9.086630,-12.941165,-4.090343
1005.765625,-10.446035,-4.376637,1.147188,-0.571412
1005.769531,-17.791526,-1.811381,-7.887980,-11.039155
1005.773438,-8.652889,-8.304734,-18.199306,-17.738008
1005.777344,-9.346652,-3.142207,-3.504580,-8.664109
1005.781250,-8.419202,-7.361698,-6.446583,-16.927673
1005.785156,-5.136191,-10.520263,-4.324971,-6.764843
1005.789062,-11.980248,-6.959830,-3.163619,-14.531470
1005.792969,-10.262585,-4.425842,-10.529362,-2.013052
1005.796875,-1.840338,-0.565700,-5.633377,-2.810057
1005.800781,1.436913,2.788050,-4.069419,4.313673
1005.804688,0.675961,2.013900,9.323402,2.408618
1005.808594,5.951643,1.279477,11.155430,0.288290
1005.812500,9.783878,13.767016,11.166300,12.289701
1005.816406,6.604653,3.176704,6.885560,8.144220
1005.820312,7.921847,2.863714,11.229855,9.733373
1005.824219,17.748100,8.553482,12.456753,9.210469
1005.828125,7.160993,6.019010,4.677451,18.070243
1005.832031,5.888544,2.205237,9.773873,9.620563
1005.835938,-3.083369,5.299405,1.287738,8.364784
1005.839844,-2.383907,3.329195,-1.954291,6.653480
1005.843750,12.579189,12.116905,3.251995,9.580979
1005.847656,2.527639,4.771770,7.201774,0.990463
1005.851562,0.533976,-2.355119,-4.908106,2.895312
1005.855469,-8.282148,1.781146,-2.805797,1.182282
1005.859375,-8.846361,-7.984595,-2.514510,-10.769302
1005.863281,-3.669713,-12.228189,-6.845549,-8.337188
1005.867188,-8.895594,-13.971835,-3.843665,-10.100104
1005.871094,-14.488272,-13.116330,-5.777484,-11.897367
1005.875000,-1.952566,-6.426184,-6.476947,-10.632175
1005.878906,-11.403395,-11.964382,-8.478236,-12.665433
1005.882812,-9.085127,-7.038151,0.824824,-9.976346
1005.886719,-6.363712,-6.094161,-5.978163,-4.045523
1005.890625,3.358441,-7.763888,-3.150243,-1.955360
1005.894531,1.733496,-10.986665,-3.805035,-0.785557
1005.898438,2.867694,-3.277756,-0.046492,-1.659232
1005.902344,2.529168,4.214999,6.098500,5.428580
1005.906250,7.102991,3.360820,9.987604,2.692329
1005.910156,6.099998,9.719390,8.578044,7.004914
1005.914062,6.255937,4.540347,1.504361,4.771543
1005.917969,5.019614,14.591645,3.991789,12.658478
1005.921875,11.930459,6.240958,7.651764,12.582155
1005.925781,8.580075,7.785037,9.926298,5.647953
1005.929688,-1.348572,10.677784,8.401396,12.375144
1005.933594,2.185500,8.482977,9.551759,4.726187
1005.937500,12.225744,4.359679,-4.072640,9.525323
1005.941406,11.421821,3.602486,11.416866,3.298177
1005.945312,3.314572,4.786542,-6.272341,4.155910
1005.949219,-1.973908,7.375709,1.230596,-7.231254
1005.953125,-2.259434,5.500448,-3.624144,-3.682316
1005.957031,-5.008357,-4.097507,1.981058,-6.400841
1005.960938,-7.636852,-0.706033,5.234806,-3.050468
1005.964844,-6.972709,-5.196603,-10.606579,-4.754479
1005.968750,-11.727345,-3.874348,-7.458420,-17.223908
1005.972656,-6.699508,-17.116834,-8.008049,-10.288388
1005.976562,-10.750985,-14.313215,-7.759647,-4.630870
1005.980469,-8.878221,-13.917002,-4.834098,-6.496619
1005.984375,-5.239459,-3.760060,-7.697758,-14.156568
1005.988281,-18.115196,-6.176335,-9.571458,-4.007947
1005.992188,-3.003707,-9.738446,-8.890191,-1.917787
1005.996094,-1.060181,-5.229313,-9.036577,-4.424676
1006.000000,3.752951,-0.895009,-0.652237,-2.874107
1006.003906,4.812929,4.829257,5.308383,0.989419
1006.007812,5.342530,1.095010,4.194973,10.831080
1006.011719,8.667724,7.629299,12.886724,11.875726
1006.015625,8.559835,7.804163,8.466239,9.167934
1006.019531,14.408317,11.511808,2.290530,9.588196
1006.023438,13.683017,14.859866,14.022968,5.964634
1006.027344,18.256582,7.834566,6.242640,2.055788
1006.031250,11.893397,9.156125,7.884796,-1.099505
1006.035156,-1.026068,8.051729,7.087284,9.082926
1006.039062,8.350421,12.406220,1.792466,10.148048
1006.042969,5.118478,4.610028,2.795772,3.392751
1006.046875,2.343662,2.682102,2.420225,4.251157
1006.050781,-5.887610,-3.315106,-7.993929,-1.579398
1006.054688,-0.703595,1.432350,5.390691,-10.595972
1006.058594,-9.562190,-7.343959,-0.200948,-5.771410
1006.062500,-4.736533,-4.940365,-10.030159,-0.916839
1006.066406,-4.996142,-9.878540,-13.598944,-8.805205
1006.070312,-8.495042,-12.003905,-15.182485,-16.333876
1006.074219,-17.173859,-7.013322,-15.028044,-10.612492
1006.078125,-14.696413,-8.419608,-18.312156,-12.114667
1006.082031,-9.042177,-0.412977,-1.521623,-8.789551
1006.085938,-6.046573,-11.932100,-18.177414,-8.047630
1006.089844,-7.202273,-0.827281,-5.918663,-10.177226
1006.093750,-3.549687,-4.844355,-6.357074,-0.505302
1006.097656,-10.403731,-2.604573,2.451189,3.404556
1006.101562,5.579757,-2.563097,4.186822,-2.987808
1006.105469,7.903494,5.628395,-0.100379,-0.809764
1006.109375,-1.231803,3.817775,10.094687,8.187475
1006.113281,1.619830,2.839225,8.797405,6.507239
1006.117188,3.747525,12.965278,12.291043,10.040200
1006.121094,10.677656,6.557022,17.189575,8.416219
1006.125000,16.368027,14.727719,10.307369,8.284912
1006.128906,13.363693,19.337416,12.448084,16.377505
1006.132812,4.376020,8.929245,15.478561,11.867001
1006.136719,0.685944,4.155366,10.421222,6.776441
1006.140625,8.835071,3.938935,0.733770,2.891758
1006.144531,6.645861,2.979231,11.030220,5.066099
1006.148438,-1.266643,-1.042316,-2.957704,0.307779
1006.152344,5.070189,1.371620,1.525587,1.542851
1006.156250,-6.318140,-0.204506,-6.021173,0.493233
1006.160156,-5.567922,-7.344370,-10.523981,-5.425836
1006.164062,-6.944111,-7.098058,-4.378254,-9.460222
1006.167969,-13.261451,-4.468787,-12.677190,-6.489112
1006.171875,-9.760983,-3.020241,-10.148862,-5.278021
1006.175781,-9.887351,-8.929024,-9.632255,-14.873037
1006.179688,-5.931436,-11.448407,-1.994970,-5.766496
1006.183594,-7.641445,-11.426244,-10.250173,-2.527059
1006.187500,-13.967423,-14.224241,-6.587872,-3.506693
1006.191406,-7.954898,-8.732757,-2.049681,-6.564259
1006.195312,3.769414,-4.516928,-1.406976,-1.364443
1006.199219,1.655711,0.800940,-1.863635,-5.242476
1006.203125,-0.904797,-5.616771,-1.970400,5.499615
1006.207031,0.594106,10.092081,5.529510,0.771742
1006.210938,6.497438,8.260720,12.537346,0.562925
1006.214844,11.104106,5.214671,8.146970,9.257609
1006.218750,7.603294,7.000320,13.411788,2.277605
1006.222656,17.690759,9.992839,10.623738,2.884821
1006.226562,8.388129,7.916911,14.076192,11.663872
1006.230469,1.908387,8.578025,8.917515,1.763969
1006.234375,13.012978,11.923258,5.267148,10.819241
1006.238281,12.981546,12.297816,7.145107,6.833821
1006.242188,10.623193,8.142960,13.416345,1.338849
1006.246094,-0.788593,7.150136,4.452624,2.950225
1006.250000,-4.638008,0.164959,1.173039,4.586090
1006.253906,-7.624705,-5.953444,3.556848,-3.410603
1006.257812,-8.876040,-7.659217,2.887017,-7.142251
1006.261719,0.708016,-9.306726,-3.475153,-7.927152
1006.265625,-7.755773,-3.124687,-5.182577,-13.549776
1006.269531,-10.894244,-11.230145,-7.097143,-3.766907
1006.273438,-2.766091,-8.895234,-3.080056,-9.064619
1006.277344,-7.262396,-11.601761,-13.834399,-9.511450
1006.281250,-13.847645,-1.679456,-8.314010,-9.359512
1006.285156,-6.536651,-7.156507,-10.252853,-4.655285
1006.289062,-7.800515,-12.830041,-5.314522,-16.094063
1006.292969,5.034279,-11.107294,-0.760607,1.181783
1006.296875,-5.548152,-5.120126,1.672968,-0.678956
1006.300781,8.884132,3.517171,-1.257850,1.848192
1006.304688,10.291445,-2.132978,-1.147809,4.854879
1006.308594,4.782495,2.277918,4.906642,3.549784
1006.312500,13.464867,6.298687,9.748845,6.287246
1006.316406,7.143235,13.048145,11.963284,6.124760
1006.320312,3.399212,6.956203,8.584018,4.543512
1006.324219,9.354302,10.183633,10.735696,11.002102
1006.328125,8.965369,8.164055,6.579757,7.912947
1006.332031,2.102005,7.608788,10.409355,5.515942
1006.335938,-1.171651,2.220771,9.346823,5.670296
1006.339844,8.210387,0.029299,3.812584,6.688431
1006.343750,3.700239,2.398799,5.421464,3.194361
1006.347656,1.858371,-1.894569,8.545025,3.481200
1006.351562,0.957837,-4.928585,0.038477,4.254626
1006.355469,-1.110286,-5.483317,1.152947,-12.287104
1006.359375,1.853739,-8.364646,-2.411096,-11.581001
1006.363281,-4.682556,-3.854149,1.595745,-3.503174
1006.367188,-12.107921,-6.159105,-8.584783,-7.663040
1006.371094,-13.103815,-5.572491,-13.513955,-2.888686
1006.375000,-6.459939,-14.261032,-12.556432,-9.704422
1006.378906,0.992336,-9.174565,-6.808336,-4.746787
1006.382812,-2.782116,-3.522163,-13.694842,-12.687017
1006.386719,-2.898697,-8.572590,-3.294647,-5.855977
1006.390625,-9.050583,-3.229385,-5.707791,-3.137236
1006.394531,-4.520948,-1.631336,-3.037799,-4.763669
1006.398438,-2.229752,-2.895631,4.589813,-3.838258
1006.402344,-2.600341,-1.447966,-0.724020,-3.146912
1006.406250,4.244522,4.866153,3.265829,5.491539
1006.410156,9.809456,10.550086,9.253442,0.514512
1006.414062,1.335753,2.840293,6.131777,10.027711
1006.417969,7.308853,7.249356,8.778884,9.387648
1006.421875,11.298418,9.337928,10.101696,9.631080
1006.425781,6.697657,9.796029,14.298792,5.612658
1006.429688,14.651967,17.133329,11.941855,7.239162
1006.433594,14.335900,2.979223,4.571477,8.177472
1006.437500,4.050714,5.166174,4.537505,9.644627
1006.441406,0.823962,2.312070,2.572956,6.127718
1006.445312,2.656284,5.972684,6.682025,7.166056
1006.449219,-2.961153,8.710981,3.522762,1.483563
1006.453125,1.607276,1.345822,1.684233,-2.234111
1006.457031,-6.430626,-4.713067,-2.288918,-5.863834
1006.460938,-1.563232,-6.614709,-5.637514,-3.464617
1006.464844,-9.073417,-6.461211,-9.593026,-7.274834
1006.468750,-19.579725,-9.083290,-4.717170,-18.955816
1006.472656,-7.934786,-10.061906,-10.143951,-12.495295
1006.476562,-5.336167,-4.532805,-7.058613,-15.655356
1006.480469,-4.428623,-12.971360,-8.469764,-9.496300
1006.484375,-6.506134,-6.326453,-11.491680,-7.484683
1006.488281,-9.611840,-8.121980,-6.178055,-4.351950
1006.492188,-2.442770,2.222312,-6.732285,-4.891529
1006.496094,-9.919005,-5.407090,-9.453799,-4.836093
1006.500000,3.140111,-0.424853,2.045468,1.642871
1006.503906,6.419038,5.312041,-0.347644,0.294935
1006.507812,5.598429,5.590026,-0.283410,2.871717
1006.511719,5.057267,6.834730,5.253109,8.920077
1006.515625,13.838763,7.585685,3.590579,16.354948
1006.519531,7.174930,12.482970,8.277564,12.630615
1006.523438,10.697403,6.470564,6.403812,6.900952
1006.527344,12.919351,12.648702,13.960253,10.740164
1006.531250,17.147429,6.926050,9.960381,14.283919
1006.535156,4.302494,7.060860,4.696361,9.522205
1006.539062,2.611244,0.183825,2.053301,8.348284
1006.542969,0.254694,2.589106,4.018369,4.433816
1006.546875,1.332010,10.229196,-1.817996,0.911295
1006.550781,5.081571,-2.928360,0.222699,-8.422088
1006.554688,-2.524388,1.523599,-9.745266,-2.863779
1006.558594,-2.173227,-6.592388,-6.539377,-8.595893
1006.562500,-8.327661,-10.103918,-6.064813,-7.546995
1006.566406,-3.765990,-1.889152,-13.164337,-10.716026
1006.570312,-5.513806,-10.330582,-2.398614,-13.673574
1006.574219,-8.938723,-13.897652,-20.933013,-7.938791
1006.578125,-10.469592,-16.404599,-7.585476,-15.317291
1006.582031,-12.623483,-8.011941,-9.123024,-9.025896
1006.585938,-2.242172,-8.520482,-6.198556,-9.236276
1006.589844,-2.684688,-3.977137,-11.651163,-5.650338
1006.593750,-2.460625,-6.648132,-3.062468,-6.500888
1006.597656,-0.779558,-7.609261,6.244612,-0.468722
1006.601562,-0.747748,-5.933705,3.300396,4.117528
1006.605469,1.489125,3.266772,-1.874286,6.704904
1006.609375,8.629978,8.885725,0.539769,4.298497
1006.613281,5.333059,3.466610,9.767225,7.632682
1006.617188,9.309975,6.327416,8.634006,4.876468
1006.621094,7.950864,7.953521,10.974039,5.541039
1006.625000,9.054041,13.349469,11.511283,10.598009
1006.628906,4.388437,9.530083,2.472551,9.074452
1006.632812,10.461223,16.096758,12.053485,8.209547
1006.636719,8.761478,10.623476,9.607520,7.878563
1006.640625,0.090012,4.356178,1.746496,6.179053
1006.644531,-0.913571,5.032123,6.335768,4.804761
1006.648438,7.307317,-1.372364,3.430313,-6.501976
1006.652344,-1.670070,0.429051,6.715508,-1.988905
1006.656250,-2.523294,-0.538274,-9.110529,-3.315798
1006.660156,-7.783759,-15.823388,-6.150938,-1.909776
1006.664062,-8.843254,-12.359717,-9.288510,-7.940661
1006.667969,-6.417622,-6.360838,-7.428898,-7.214629
1006.671875,-10.592512,-10.897593,-17.051991,-6.375655
1006.675781,-10.142317,-14.126198,-11.383892,-10.671172
1006.679688,-10.479082,-12.344354,-6.946745,-15.847444
1006.683594,-14.977124,-4.369837,-8.978251,-9.355376
1006.687500,-4.592019,-6.147211,-2.175481,-10.785376
1006.691406,-9.776125,-5.962389,-8.954979,-6.695475
1006.695312,0.199990,-12.084399,8.768066,-1.432147
1006.699219,-4.575424,-6.893217,4.673107,-3.064628
1006.703125,4.838855,-3.837310,-6.892015,11.071572
1006.707031,-4.071359,5.440490,7.762113,-1.559056
1006.710938,-1.342438,0.585569,1.023541,6.573108
1006.714844,4.810178,8.591026,6.101510,13.662814
1006.718750,0.584876,13.731016,8.471255,13.505766
1006.722656,10.657187,4.448561,7.722495,15.177708
1006.726562,11.532912,6.546222,8.442484,12.768666
1006.730469,6.556517,4.786650,7.577116,8.387057
1006.734375,8.477539,11.761240,15.067980,7.055542
1006.738281,-6.355459,8.775384,12.028731,-1.651662
1006.742188,5.850393,3.207236,-5.455951,5.999253
1006.746094,5.926388,-1.103241,-2.369717,1.307755
1006.750000,6.077629,-3.120151,1.325909,0.861496
1006.753906,-2.806695,-2.610541,-7.343816,-4.715075
1006.757812,-1.893252,-0.260080,-10.478456,-6.391583
1006.761719,-8.468124,-4.135702,-8.758153,-0.579295
1006.765625,-9.803242,-4.493526,-0.416925,-3.778081
1006.769531,-4.359943,-16.515527,-10.024699,-8.702872
1006.773438,-8.429484,-15.780414,-8.507217,-14.837668
1006.777344,-8.350736,-8.582650,-15.768156,-19.107381
1006.781250,-9.107704,-7.299721,-12.015214,-6.225705
1006.785156,-6.650360,-7.852080,-13.537168,-9.515288
1006.789062,-4.778245,-1.980629,-5.652424,-6.092603
1006.792969,-4.933016,2.779869,-7.654451,-1.282378
1006.796875,-10.048323,-4.047005,-2.683936,-2.719111
1006.800781,-3.937969,12.674987,-0.562204,-6.942260
1006.804688,3.443396,4.654450,3.185836,3.415099
1006.808594,9.021824,-0.929621,4.648251,3.662218
1006.812500,15.746375,8.466416,9.154730,0.355998
1006.816406,15.625158,4.809155,7.881928,4.812923
1006.820312,8.399763,14.393419,12.216648,13.471140
1006.824219,6.198325,17.683138,5.681226,3.785461
1006.828125,9.766172,12.183412,6.053290,9.779319
1006.832031,6.924489,10.061875,10.474848,8.584977
1006.835938,0.910566,6.878401,6.049321,11.418280
1006.839844,10.709595,4.878780,3.844984,5.105366
1006.843750,2.762137,1.822179,3.100104,2.715291
1006.847656,-4.757147,0.474219,-2.458166,-1.833016
1006.851562,-2.558186,-1.827307,0.508690,-0.179502
1006.855469,-6.047902,-3.157302,-15.389297,-3.813769
1006.859375,-7.894279,-7.551784,-1.619899,-5.584507
1006.863281,-15.488466,-7.200148,-9.525467,-8.301816
1006.867188,-11.294320,-4.441358,-2.447694,-6.083416
1006.871094,-16.102983,-5.928600,-4.835252,-9.141971
1006.875000,-13.757690,-7.191639,-9.947203,-8.527212
1006.878906,-3.497449,-8.778688,-9.361220,-4.604686
1006.882812,-8.112685,-1.382410,-8.973945,-8.333110
1006.886719,-2.611876,-9.424909,-9.382079,-9.327057
1006.890625,-2.281587,-5.125592,-7.826770,4.353368
1006.894531,-5.223164,0.502031,0.172943,-1.156380
1006.898438,0.407366,-11.239629,-5.849246,0.690568
1006.902344,3.500861,3.918260,4.175589,3.552723
1006.906250,-4.231806,4.737644,8.589828,2.779865
1006.910156,3.407557,8.356409,0.369302,0.808221
1006.914062,7.100338,8.059453,8.509266,1.708572
1006.917969,8.011574,3.489946,11.128173,12.334075
1006.921875,13.477517,12.999288,9.918989,7.890000
1006.925781,9.687665,12.771600,6.049599,16.525952
1006.929688,10.047340,6.280783,7.962645,12.179203
1006.933594,10.280724,3.706885,10.192295,5.571733
1006.937500,19.973495,5.513301,-1.320505,5.019549
1006.941406,2.577196,8.011468,5.863516,4.935520
1006.945312,5.797705,-1.034373,1.230415,-1.146390
1006.949219,-3.453037,1.613419,-1.330799,-2.915375
1006.953125,3.758820,-0.882189,0.510327,-4.790441
1006.957031,-2.135073,-0.262729,-4.947032,5.081355
1006.960938,-8.067861,3.068650,-0.208425,-5.554805
1006.964844,-11.273432,-10.188647,-8.904224,0.392914
1006.968750,-11.072698,-11.067949,-5.228360,-16.641394
1006.972656,-6.440202,-11.389564,-8.927031,-8.368821
1006.976562,-5.928552,-6.645937,-10.386958,-13.819393
1006.980469,-7.978861,-4.529947,-15.817734,-6.854596
1006.984375,-7.353538,-9.703686,-7.299514,-13.410003
1006.988281,-5.825205,-4.314085,-5.343976,-2.573547
1006.992188,-2.883240,-4.569601,-0.587622,-9.573413
1006.996094,-4.456488,-3.856761,-5.718543,1.201990
1007.000000,-2.962609,4.362427,4.986454,7.336860
1007.003906,0.416332,-1.750274,4.650686,-1.159074
1007.007812,8.211022,1.236392,8.711745,1.745011
1007.011719,6.974879,6.972730,7.897986,6.300799
1007.015625,5.896929,8.023569,17.742745,6.322190
1007.019531,8.267033,7.581527,17.264595,8.038851
1007.023438,10.486698,1.163796,10.639081,12.348064
1007.027344,14.060771,4.298265,9.384687,17.477207
1007.031250,10.965598,2.900885,5.259920,8.861586
1007.035156,10.971074,13.218836,6.453560,13.674346
1007.039062,5.892879,2.827548,2.408800,5.366155
1007.042969,5.045929,-0.670560,12.776184,0.687765
1007.046875,-1.220430,0.118441,4.672870,0.951255
1007.050781,7.396747,-4.098242,2.352655,-2.696131
1007.054688,-1.101741,-5.096447,-3.040587,-0.942528
1007.058594,-0.515406,-5.845134,-0.319029,-5.801681
1007.062500,-1.845177,-0.160237,-3.828445,-4.117954
1007.066406,-4.893725,-7.558894,-10.561203,-3.706573
1007.070312,-9.043305,-13.037626,-11.113493,-6.590211
1007.074219,-1.549049,-12.185547,-7.863654,-13.997122
1007.078125,-8.685990,-10.946500,-13.684845,-16.659811
1007.082031,-6.146917,-16.205862,-2.428646,-9.248907
1007.085938,-5.956711,-17.871377,-6.821068,-8.843775
1007.089844,-14.049255,-1.740637,-9.219323,-7.666952
1007.093750,-3.782108,-2.477766,-0.974808,0.949011
1007.097656,-6.296160,-3.369154,-9.056321,3.171215
1007.101562,3.292723,3.691388,0.630337,-6.310108
1007.105469,0.821232,-4.920022,1.087733,9.387035
1007.109375,-2.888405,4.877855,-4.805144,8.061852
1007.113281,2.335436,6.726694,9.869013,2.230538
1007.117188,4.762030,10.377962,7.250320,17.304764
1007.121094,16.894942,5.991383,0.418678,9.594095
1007.125000,9.041646,12.820597,16.684406,13.292784
1007.128906,11.761399,11.399892,11.498593,13.609071
1007.132812,0.348677,4.689530,11.724828,4.948182
1007.136719,6.734320,4.496590,13.995753,10.251361
1007.140625,5.736299,6.528600,5.138746,2.461546
1007.144531,1.480109,-3.626285,5.514570,1.030709
1007.148438,0.353555,1.347699,-0.347829,2.429572
1007.152344,3.179222,-0.770155,1.742833,4.874047
1007.156250,-3.091523,-4.542444,-1.347761,-1.317913
1007.160156,-13.290797,-2.472661,-12.755884,-6.151003
1007.164062,-15.028879,-1.772651,-10.980717,-11.120159
1007.167969,-8.174471,-8.949092,-9.819403,-12.608100
1007.171875,-14.698272,-8.786279,-14.976471,-12.364830
1007.175781,-11.217832,-18.578663,-12.848688,-7.385293
1007.179688,-9.893535,-7.846072,-4.843443,-8.619128
1007.183594,-9.561522,-10.287149,-6.271467,-11.176565
1007.187500,-6.447606,-7.289194,-5.149233,-8.227197
1007.191406,-6.816779,-5.088535,-10.310758,-6.313834
1007.195312,-1.850140,-6.831342,-2.837797,-1.547929
1007.199219,-2.414744,-0.680260,0.915011,2.876313
1007.203125,4.071361,-1.383898,1.722136,4.918922
1007.207031,0.489579,2.691737,4.396085,4.270108
1007.210938,3.457432,1.472554,4.387760,9.149413
1007.214844,11.126342,9.941783,2.112844,8.996943
1007.218750,8.131615,-2.475680,10.544069,6.976893
1007.222656,10.593117,14.991026,12.370935,10.628674
1007.226562,13.199442,8.539551,14.516969,4.547987
1007.230469,10.242216,14.934962,10.426786,7.527984
1007.234375,4.788155,11.675152,7.596763,13.524435
1007.238281,7.015548,3.075263,2.942341,6.251319
1007.242188,1.456171,3.592925,4.131626,3.825319
1007.246094,4.038116,-5.793460,2.256744,3.587953
1007.250000,-2.498112,-2.754214,-1.467552,-4.134153
1007.253906,-7.126564,-5.061834,-9.222865,2.235521
1007.257812,0.402547,-10.852916,1.149824,-6.775914
1007.261719,-7.805427,-5.318642,-4.696897,-5.020635
1007.265625,-3.920225,-8.649545,-5.048464,-8.293016
1007.269531,-11.156866,-13.655235,-14.380386,-15.960255
1007.273438,-9.876186,-14.974536,-11.011531,-10.019621
1007.277344,-15.838835,-7.314340,-17.520858,-10.162416
1007.281250,-10.367959,-6.996210,-8.148986,1.380164
1007.285156,-6.339498,-2.318676,-7.285478,-10.303613
1007.289062,-9.783108,-11.887386,-5.932621,-8.268143
1007.292969,-9.781235,-0.028422,-9.610434,-13.792753
1007.296875,0.420050,-2.059144,3.657931,0.404136
1007.300781,1.183765,6.155846,-0.637347,6.034699
1007.304688,7.095880,2.182804,1.775105,-0.227789
1007.308594,0.898041,0.183020,4.843234,4.635515
1007.312500,6.027142,7.253451,8.094338,4.655517
1007.316406,9.745477,11.103278,3.607882,11.681128
1007.320312,5.904026,8.887536,9.262983,9.971100
1007.324219,6.408861,12.327818,11.673745,5.522336
1007.328125,7.875212,8.413443,6.598858,10.402299
1007.332031,7.531720,9.667738,6.078461,5.491660
1007.335938,7.007306,7.938179,5.288102,9.082387
1007.339844,11.359541,5.920264,14.987103,-1.456967
1007.343750,-5.559792,-0.306319,2.825624,-0.482212
1007.347656,3.804105,7.985363,2.836818,2.388343
1007.351562,4.721554,-7.763586,6.340537,-2.043449
1007.355469,-5.378654,-3.922296,3.665551,1.067960
1007.359375,-3.279645,-7.063277,-2.251518,-6.612204
1007.363281,-4.042967,-13.637472,-2.112711,-9.591260
1007.367188,-5.818091,-8.806951,-12.575374,-6.578049
1007.371094,-5.193273,-8.429693,-11.540805,-7.272085
1007.375000,-10.319297,-11.748316,-14.620682,-7.904569
1007.378906,-2.942702,-15.300040,-11.163489,-8.269097
1007.382812,-12.012321,-14.329594,-11.634123,-9.225384
1007.386719,-10.228134,-10.622374,-3.297591,-4.764308
1007.390625,-14.636981,-9.437486,-9.683044,-5.342922
1007.394531,3.477735,-4.732317,2.821485,-1.700590
1007.398438,-5.730794,2.436675,0.823741,2.317702
1007.402344,1.721160,-1.298447,-0.866528,-1.882039
1007.406250,8.114610,1.222441,-0.887521,5.258191
1007.410156,1.858986,6.505925,7.589226,10.783363
1007.414062,14.930884,11.502032,10.653374,11.070192
1007.417969,5.075904,9.590358,5.458960,11.439588
1007.421875,9.204419,7.686339,16.480564,6.061439
1007.425781,8.205722,9.708228,11.319051,6.316657
1007.429688,10.032299,10.950854,7.116807,3.609127
1007.433594,8.604567,5.287973,5.995241,8.975667
1007.437500,3.646386,7.270492,7.213964,2.683691
1007.441406,2.543780,4.588385,10.216943,5.752858
1007.445312,1.438089,2.405271,8.841684,2.956142
1007.449219,-6.691952,3.998440,-4.943613,2.503018
1007.453125,-6.164357,-1.149627,-4.343422,1.181693
1007.457031,-2.568723,-9.547292,-2.940423,-5.585148
1007.460938,-5.113807,-8.073179,-6.672281,-3.093903
1007.464844,-7.778179,-6.101701,-9.834925,-9.288235
1007.468750,-11.732568,-7.395312,-8.948631,-9.275224
1007.472656,-9.962880,-0.311445,-10.853024,-13.107643
1007.476562,-9.747935,-8.249599,-15.149013,-4.634585
1007.480469,-3.865925,-7.124216,-13.545359,-12.329454
1007.484375,-9.326001,-5.157105,-8.307305,-9.847583
1007.488281,-12.573245,-8.892019,-12.015738,-13.423404
1007.492188,-8.380116,-4.759916,1.589367,-4.711148
1007.496094,-2.554396,-1.980617,-5.528406,0.233603
1007.500000,-5.363165,-0.436368,1.124037,-1.010961
1007.503906,4.929851,4.878541,3.452027,7.589045
1007.507812,6.671760,-0.484105,1.030744,8.622773
1007.511719,1.552758,1.095111,10.506570,7.730507
1007.515625,12.562758,7.643319,6.475615,10.103373
1007.519531,9.371006,10.098906,13.442852,-0.408837
1007.523438,6.592405,5.707018,6.219544,9.475118
1007.527344,7.866476,7.817133,10.763306,7.827699
1007.531250,9.239348,8.058792,4.607896,5.947569
1007.535156,7.416074,5.757994,9.093981,0.421395
1007.539062,5.199610,10.250876,5.689521,8.915853
1007.542969,8.666803,1.891910,1.097785,0.651788
1007.546875,1.464863,1.869026,0.357025,12.103482
1007.550781,-2.569818,2.107042,2.494089,1.537263
1007.554688,7.089759,-5.324384,0.001559,-1.438718
1007.558594,5.587055,-8.749004,-9.514456,-6.785048
1007.562500,-11.198432,-8.749636,-12.199599,-1.598325
1007.566406,-7.620357,-16.022515,-2.125301,-2.074669
1007.570312,-7.305796,-10.257141,-10.236193,-7.254145
1007.574219,-6.405354,-13.492128,-14.911578,-8.679951
1007.578125,-13.989346,-8.003300,-12.741683,-16.282793
1007.582031,-8.614724,-11.298134,-8.626886,-5.180742
1007.585938,-1.746355,-3.345439,-6.951031,-8.769801
1007.589844,-0.750717,-6.991047,-1.198158,-8.277882
1007.593750,-2.567870,-1.611761,-7.945296,4.365408
1007.597656,3.309586,-3.468879,-2.607139,4.361323
1007.601562,4.146834,3.872688,-0.600182,-1.806888
1007.605469,4.759408,7.881526,7.845627,5.651522
1007.609375,4.976889,0.777898,11.417748,-0.319358
1007.613281,8.555743,8.031559,10.085297,2.618529
1007.617188,0.343327,11.513673,9.349073,11.889563
1007.621094,13.985258,8.444039,8.760171,13.644642
1007.625000,12.923295,3.421192,6.345143,6.724828
1007.628906,15.005483,8.374803,3.077450,3.640731
1007.632812,10.423371,2.816813,6.139303,3.850871
1007.636719,8.175551,7.062081,10.263893,8.335512
1007.640625,11.338172,6.714709,-0.081374,9.066759
1007.644531,5.905487,3.866246,8.452857,6.559563
1007.648438,4.088320,-2.996146,-3.383571,-1.645602
1007.652344,-5.398206,1.328343,1.949504,-1.632930
1007.656250,-6.307074,2.165315,4.984386,-3.261681
1007.660156,-8.083774,-2.207267,-8.237229,-6.382428
1007.664062,-4.442374,-2.413512,-4.673516,-3.888998
1007.667969,-13.239600,-6.266409,-3.429291,-16.562531
1007.671875,-6.857478,-8.435087,-7.676786,-8.456457
1007.675781,-4.172833,-7.859019,-2.337069,-6.775798
1007.679688,-8.234695,-5.916576,-14.854885,-9.297000
1007.683594,-10.219191,-7.961975,-3.997004,-3.082192
1007.687500,-3.166260,-9.856592,-8.415434,-10.156307
1007.691406,-7.000726,-10.230351,-8.041768,-2.914948
1007.695312,-1.862436,-2.429504,-3.392813,-0.909879
1007.699219,-1.055746,-1.626537,5.954500,3.987963
1007.703125,-0.664987,3.263515,-4.469710,5.931568
1007.707031,-2.207899,2.878594,1.513327,0.799764
1007.710938,4.783950,7.961546,11.301544,0.594670
1007.714844,6.400149,3.958405,12.431618,5.236210
1007.718750,11.974218,14.054568,5.690238,7.192424
1007.722656,10.837731,7.328407,13.347700,12.124971
1007.726562,9.627954,3.693527,7.284913,14.291336
1007.730469,7.132819,5.969654,14.366688,4.890932
1007.734375,11.060727,10.445076,2.114465,12.388358
1007.738281,7.410944,9.893304,3.091716,3.969835
1007.742188,4.146621,7.323269,2.348733,4.912858
1007.746094,5.226489,0.239780,-2.302871,0.424934
1007.750000,-5.413042,3.189562,-0.199764,6.958624
1007.753906,-9.997654,1.877708,0.356048,-2.033809
1007.757812,-9.212133,-10.329677,-8.978419,-8.524676
1007.761719,-8.612798,-5.810430,-8.163584,-4.187888
1007.765625,-1.829258,-2.505852,-11.126630,-10.920985
1007.769531,-8.854695,-6.976343,-13.558240,-14.144207
1007.773438,-17.631502,-10.603227,-5.303289,-7.020161
1007.777344,-9.281262,-14.850779,-7.871460,-10.536434
1007.781250,-15.153130,-16.537596,-10.168769,-10.790588
1007.785156,0.338368,-9.768623,-5.417868,-11.059202
1007.789062,-6.357268,-8.893926,-12.059734,-10.787188
1007.792969,3.790819,-1.922764,-2.856387,-2.083105
1007.796875,-4.445809,-7.953991,-1.420918,-3.604992
1007.800781,-2.742980,-0.044742,0.013445,-7.124272
1007.804688,2.545938,-0.916334,-0.993036,0.681662
1007.808594,4.348319,13.881123,9.346141,7.502803
1007.812500,-1.869989,3.910887,11.920793,5.769416
1007.816406,2.785455,9.386107,-0.352994,5.700277
1007.820312,11.166678,12.748161,15.905195,1.989753
1007.824219,15.393761,-0.356797,3.599007,5.064378
1007.828125,11.554104,7.563440,8.621590,6.361754
1007.832031,10.146893,6.749590,4.275869,7.318341
1007.835938,3.378739,6.562307,1.821928,3.360476
1007.839844,6.748617,3.562452,11.932314,8.928325
1007.843750,6.365314,4.384170,-2.156883,4.972526
1007.847656,-2.154450,2.576707,3.419232,-1.925539
1007.851562,0.733667,-0.906069,8.418753,-4.266101
1007.855469,-8.261901,-2.833228,-4.533363,-1.645182
1007.859375,-16.020246,-4.080853,-6.493481,-1.037303
1007.863281,-6.164916,-6.716855,-2.011807,-2.808860
1007.867188,-4.053475,-11.510697,-15.061857,-5.923098
1007.871094,-6.570040,-14.020768,-7.992819,-16.533423
1007.875000,-6.762717,-9.704421,-9.913111,-7.804471
1007.878906,-5.394007,-10.132004,-8.151571,-7.417624
1007.882812,-10.859786,-6.495275,-16.179963,-8.550773
1007.886719,-2.086152,-0.928573,-14.245423,-10.788935
1007.890625,-2.656363,-9.583470,-6.290790,-12.733710
1007.894531,-1.447614,-3.209903,1.301028,-9.007108
1007.898438,2.167907,3.208422,-2.128601,-2.122041
1007.902344,-3.617476,4.433609,-6.241243,3.827397
1007.906250,2.293184,4.461593,2.268330,3.462890
1007.910156,6.433385,4.215134,6.734057,6.004816
1007.914062,13.226415,5.034157,10.304457,16.531959
1007.917969,10.972721,12.310097,9.443417,10.634007
1007.921875,9.662182,7.275767,10.906124,9.489504
1007.925781,7.638119,11.444846,11.486261,10.663403
1007.929688,9.365461,10.804739,10.363368,13.001023
1007.933594,10.197393,10.033216,11.357732,0.690880
1007.937500,9.295174,4.857344,8.296360,12.730417
1007.941406,5.946074,4.907788,11.457339,5.369782
1007.945312,-1.389872,9.261126,3.845288,4.830117
1007.949219,1.322084,6.145333,12.058127,-3.389334
1007.953125,-0.340249,-3.417372,-2.960222,3.358521
1007.957031,-3.829801,-0.418283,3.647769,-6.510907
1007.960938,-6.828269,-9.484689,-5.727051,-7.446429
1007.964844,-10.857662,-15.215072,-3.975963,-6.795978
1007.968750,-0.637078,-6.793537,-8.422596,-19.385837
1007.972656,-6.255209,-15.181852,-5.688075,-16.376921
1007.976562,-6.805912,-8.278899,-11.929400,-9.270782
1007.980469,-10.881302,-12.249952,-11.500801,-12.215344
1007.984375,-3.959646,-13.906955,-7.697615,-5.501815
1007.988281,-7.682688,-4.498916,-9.805027,-2.535128
1007.992188,-6.505245,-4.000015,-8.055886,-5.785850
1007.996094,-6.309014,7.919380,-3.957713,-0.460657
1008.000000,2.430479,7.284016,-5.555645,-5.445927
1008.003906,0.663346,-3.242982,3.253574,6.121042
1008.007812,3.282306,6.271498,7.071394,2.651691
1008.011719,2.465741,7.023160,6.128005,5.792721
1008.015625,3.437181,13.049006,10.018815,7.164347
1008.019531,13.372265,14.271740,5.904532,9.505305
1008.023438,11.725906,8.601907,14.302257,15.980034
1008.027344,9.089654,14.277145,10.418895,11.365405
1008.031250,13.585888,17.243181,15.523299,9.151213
1008.035156,13.524907,10.006672,15.531225,5.695304
1008.039062,14.584259,7.314417,7.918273,16.108394
1008.042969,10.155358,6.985206,-1.032677,11.010730
1008.046875,-3.533946,-2.822069,2.415843,3.110779
1008.050781,2.453232,-2.065853,1.843811,-1.425310
1008.054688,-5.002290,-2.993078,-6.816873,-7.177775
1008.058594,-6.425293,1.385203,-5.847471,0.100088
1008.062500,-4.828592,-5.185584,-10.519089,-12.012133
1008.066406,-2.962033,-14.038000,-6.682513,-6.828011
1008.070312,-5.883581,-4.468053,-11.685879,-5.348483
1008.074219,-7.051800,-10.138670,-13.950780,-8.296834
1008.078125,-8.407979,-8.476658,-5.095489,-3.944628
1008.082031,-17.195480,-10.319650,-10.415728,-11.161673
1008.085938,-11.218018,1.522217,-7.927106,-11.403809
1008.089844,-3.914574,-3.958877,0.179023,-5.993837
1008.093750,1.222825,-6.976034,-8.208532,-7.826054
1008.097656,-6.523723,2.066213,1.836263,-7.197400
1008.101562,2.154468,-4.115226,-1.601736,6.156579
1008.105469,5.595388,4.685262,0.747217,5.539421
1008.109375,8.986100,7.841009,6.034194,3.419093
1008.113281,8.071919,9.494625,2.433743,16.756886
1008.117188,13.400746,4.825506,5.251224,5.280081
1008.121094,8.425967,9.084783,12.145466,10.377796
1008.125000,3.631464,5.939751,10.080606,11.994701
1008.128906,4.880790,1.308962,15.939929,6.364374
1008.132812,-2.214120,9.185396,6.839935,8.058533
1008.136719,2.154861,4.267461,1.805605,3.370962
1008.140625,8.995702,5.452003,0.438494,-0.309483
1008.144531,-1.538157,-2.458634,6.590738,-0.564814
1008.148438,3.150480,-0.539897,-1.278224,-0.393046
1008.152344,-1.633068,-0.845520,0.302750,-6.514401
1008.156250,-1.273745,-3.046648,-2.226477,-7.492587
1008.160156,-11.002972,-11.205246,-5.742928,-6.307526
1008.164062,-13.300843,-10.277381,-7.984847,-4.024866
1008.167969,-3.210039,-0.379501,-14.025366,-10.028385
1008.171875,-11.659248,-13.172851,-6.842573,-14.473684
1008.175781,-6.245808,-10.050282,-11.139371,-3.042895
1008.179688,-7.046282,-9.228899,-7.819327,-13.716411
1008.183594,-1.318385,-6.187561,-5.056457,-5.784549
1008.187500,-6.443781,-9.309937,-10.733774,-6.668020
1008.191406,-1.883966,-4.246109,-3.880383,-2.186219
1008.195312,-4.668500,1.016600,-3.872257,-6.435810
1008.199219,1.280530,4.544433,0.243883,0.168673
1008.203125,8.048680,3.209287,5.086158,7.676634
1008.207031,-3.973306,4.188674,-0.425187,9.292897
1008.210938,7.632686,9.040112,4.267311,6.172901
1008.214844,9.319834,9.338860,9.559425,7.817839
1008.218750,9.174776,7.026339,6.556021,-0.061260
1008.222656,11.300970,13.133764,14.896569,9.698455
1008.226562,12.412759,8.036949,6.626697,12.636099
1008.230469,8.230739,4.361996,17.933032,15.917293
1008.234375,1.676524,8.378837,12.871678,13.694215
1008.238281,2.923131,6.121929,6.967329,9.022984
1008.242188,11.036314,8.947449,7.351075,6.128876
1008.246094,8.375804,3.051341,4.192353,0.883770
1008.250000,-1.368855,2.404648,3.258405,-0.833462
1008.253906,-2.694572,-6.375136,0.662254,-4.409017
1008.257812,-8.759733,-11.022075,-4.426725,0.529477
1008.261719,-11.904941,-6.413955,-7.192814,-10.102905
1008.265625,-9.844165,-3.256075,-4.373002,-5.271379
1008.269531,-9.499307,-8.906225,-13.001901,-11.998792
1008.273438,-17.869583,-8.027694,-6.845162,-9.869127
1008.277344,-10.276050,-12.862395,-10.176384,-11.772386
1008.281250,-8.944829,-4.822984,-0.114591,-13.469891
1008.285156,-7.665871,-6.742970,-4.233792,-3.274285
1008.289062,-2.024825,-2.423396,0.736286,-8.868310
1008.292969,2.205535,-8.772193,-9.239498,-12.026603
1008.296875,-3.812015,-1.246646,-7.537989,1.283884
1008.300781,4.221408,2.102758,-2.251150,-0.504238
1008.304688,-1.972452,6.269987,3.331719,-2.401043
1008.308594,0.572821,1.506071,4.086420,9.073580
1008.312500,2.294494,5.709471,5.183626,7.670227
1008.316406,5.731494,8.722828,1.465522,5.794063
1008.320312,13.142905,7.665703,14.416836,5.225918
1008.324219,6.086848,14.839639,10.790528,9.676707
1008.328125,7.706947,15.361179,6.394729,14.414626
1008.332031,14.061425,9.654539,7.698401,3.855704
1008.335938,13.443697,4.977259,4.153903,5.391777
1008.339844,7.959923,5.982136,4.028102,6.124119
1008.343750,-1.636101,5.694595,-1.862842,7.864826
1008.347656,3.912827,0.754396,-0.225266,9.946512
1008.351562,7.440265,0.110364,5.638824,-2.287150
1008.355469,-2.292610,-0.860317,-6.948352,-0.490516
1008.359375,-10.904160,0.753072,-4.295086,-1.674048
1008.363281,-5.343006,-8.529917,-11.410774,-2.358493
1008.367188,-4.676202,-5.735632,-5.653009,-12.660068
1008.371094,-10.237193,-15.571989,-11.160973,-7.471998
1008.375000,-14.164400,-7.507566,-6.145205,-19.856523
1008.378906,-7.989496,-8.845217,-1.274688,-10.641280
1008.382812,-10.238550,-12.230198,-7.389583,-8.555029
1008.386719,-6.164139,-1.000979,-1.166373,-7.436904
1008.390625,-2.187335,-6.261427,-4.052622,1.325839
1008.394531,-5.288061,2.118517,-5.653488,-7.164767
1008.398438,0.007385,3.832794,6.693318,-3.377038
1008.402344,-6.360943,4.165063,7.845301,-9.435982
1008.406250,3.664642,3.556285,1.769505,5.870208
1008.410156,7.190543,5.555261,3.191015,6.271129
1008.414062,-0.581868,16.616417,2.602821,8.284767
1008.417969,9.050122,9.468175,10.329920,11.148773
1008.421875,15.422319,14.748772,15.493752,11.079909
1008.425781,15.385525,14.259497,4.250938,10.360659
1008.429688,7.825828,2.173687,3.681644,3.171735
1008.433594,14.253938,-1.034462,12.053376,7.717118
1008.437500,12.365197,10.455285,10.985562,5.370442
1008.441406,7.969353,0.234823,11.794557,2.769949
1008.445312,-1.072679,-5.997360,-2.547636,7.308048
1008.449219,-2.653016,3.782189,-4.784505,3.293015
1008.453125,-3.041644,4.411631,-4.450997,-6.382738
1008.457031,-1.437042,-2.456288,0.067093,-3.126426
1008.460938,-3.647481,-1.486526,-5.922360,-11.902923
1008.464844,-7.917675,-5.474332,-2.677748,-10.498550
1008.468750,-8.871857,-7.510508,-11.121467,-7.658979
1008.472656,-6.697317,-4.937083,-9.913588,-10.594921
1008.476562,-5.478312,0.679415,-13.571836,-8.258789
1008.480469,-5.849605,-12.082246,-5.624840,-6.505094
1008.484375,-8.687952,-1.007295,-9.683156,0.636508
1008.488281,-13.688038,-0.799629,-8.460519,-11.643423
1008.492188,-5.761859,-3.179107,-11.669829,-4.528167
1008.496094,-7.123334,-1.325679,-2.881995,3.070701
1008.500000,0.268295,-2.050472,9.314728,-1.688996
1008.503906,0.478491,3.859233,4.022993,10.932261
1008.507812,6.964614,7.622058,8.906605,7.300415
1008.511719,5.944542,8.083210,7.437072,13.248371
1008.515625,9.680577,5.970271,15.490334,8.629358
1008.519531,5.735508,20.754408,5.335517,5.729377
1008.523438,12.677580,8.619769,7.774603,7.946439
1008.527344,6.804866,5.757536,17.613898,12.369910
1008.531250,12.874064,8.422066,9.508904,12.463355
1008.535156,4.752641,12.281888,11.214321,9.567943
1008.539062,2.692504,1.041780,2.326517,-0.446194
1008.542969,-4.702178,4.457640,2.535797,2.138377
1008.546875,2.886070,2.904406,7.071251,8.989765
1008.550781,5.634068,4.207760,-2.123375,1.859408
1008.554688,-8.747281,-2.323139,-2.081556,-7.419938
1008.558594,-2.865394,-0.873338,-6.205874,-7.456715
1008.562500,-14.059544,-11.414265,-6.029635,-9.530690
1008.566406,-7.244249,-5.407446,-6.188972,-10.504385
1008.570312,-11.080638,-9.907729,-13.239400,-10.761456
1008.574219,-7.343899,-4.292526,-9.710493,-14.743275
1008.578125,-6.526293,-13.731211,-5.322368,-7.776211
1008.582031,-11.172092,-6.676359,-5.866035,-14.671337
1008.585938,-5.236806,-9.972475,-12.591700,-2.466412
1008.589844,-12.078644,-9.997993,-7.959676,-13.505032
1008.593750,-8.017900,-10.335724,-5.758599,-1.749491
1008.597656,-9.649054,-2.911429,-2.161432,1.479524
1008.601562,0.360945,3.506156,1.362418,2.991548
1008.605469,1.187874,2.902101,8.660008,5.092644
1008.609375,9.520769,6.697488,10.043459,2.009252
1008.613281,4.929275,5.565697,-1.292627,10.280777
1008.617188,7.410346,11.862388,15.027188,3.973435
1008.621094,6.292402,2.624236,1.832839,9.245448
1008.625000,5.205925,12.065539,4.859759,3.752423
1008.628906,9.803003,11.569198,16.627909,8.657026
1008.632812,11.042219,9.618445,6.372397,5.905126
1008.636719,3.823119,5.727689,6.750047,14.422741
1008.640625,7.102570,3.382886,10.287766,8.437504
1008.644531,2.016156,8.132215,-0.901393,-1.490618
1008.648438,2.286639,-1.363123,4.666920,-1.265089
1008.652344,-5.550123,-6.806323,-5.574721,-0.948229
1008.656250,-2.884612,0.246036,-8.214532,-10.944888
1008.660156,-7.258682,-3.981679,-3.268022,-6.095805
1008.664062,-7.392429,1.025366,-7.214856,-5.069683
1008.667969,-14.097363,-10.388611,-7.952209,-9.600616
1008.671875,-9.962822,-11.376317,-12.187597,2.456174
1008.675781,-14.568689,-15.733079,-13.194731,-14.135633
1008.679688,-5.508335,-9.530534,-7.868341,-16.177371
1008.683594,-7.073676,-15.280609,-2.120228,-4.548402
1008.687500,-5.877730,-10.336272,-5.935925,-7.524510
1008.691406,-0.771017,-7.632022,-6.386222,-12.809273
1008.695312,-7.626470,-0.776449,-4.532410,-6.019960
1008.699219,-2.735895,11.215536,-4.600026,-1.583016
1008.703125,1.558928,2.199624,7.710804,5.759375
1008.707031,3.553088,2.340318,4.500215,13.283557
1008.710938,6.890614,6.382718,3.446195,-1.296545
1008.714844,3.848575,11.978115,13.679148,5.640692
1008.718750,14.088991,13.087103,4.677186,5.378565
1008.722656,10.414912,14.048634,10.155767,11.468538
1008.726562,12.295271,18.424779,9.096517,5.886506
1008.730469,9.254315,6.184888,16.257981,11.874924
1008.734375,7.723063,5.185922,7.988917,-0.003874
1008.738281,6.635398,6.761104,13.161370,14.586608
1008.742188,5.546679,0.911326,-0.633143,7.503168
1008.746094,1.327222,3.036147,5.280002,3.782621
1008.750000,1.934174,10.415696,-4.497278,-1.269803
1008.753906,-2.745119,-5.921277,-2.819290,3.944942
1008.757812,-1.363072,-0.986223,-7.145358,-5.114933
1008.761719,-3.696174,0.525029,-9.179287,-3.416150
1008.765625,-9.522086,-7.402710,-13.362321,-15.121363
1008.769531,-6.200095,-8.733243,-13.839442,-8.681165
1008.773438,-5.043008,-4.773363,-16.158193,-14.183725
1008.777344,-5.703919,-13.801547,-9.021608,-13.923718
1008.781250,-7.136472,-12.419659,-13.087458,-2.989650
1008.785156,-17.141131,-4.488075,-6.992259,-13.880929
1008.789062,1.491749,-11.730583,-4.032875,-3.565502
1008.792969,-8.665360,-3.373120,-7.754382,-10.790301
1008.796875,-0.348331,3.651247,-2.559600,-2.284296
1008.800781,5.834868,7.173626,-0.062418,-1.498482
1008.804688,1.454362,10.407270,4.036978,-0.560187
1008.808594,11.306161,4.524528,0.341059,5.207751
1008.812500,14.693636,12.321870,0.434834,5.373476
1008.816406,9.216355,6.784381,9.996291,4.382178
1008.820312,12.507887,7.688940,7.588052,13.235694
1008.824219,10.636255,22.797241,9.558383,-0.821654
1008.828125,11.447586,13.651593,15.225988,5.828553
1008.832031,9.588252,6.624889,8.833507,15.678204
1008.835938,9.483906,9.406537,-0.464082,5.645378
1008.839844,9.072172,3.651289,1.865587,2.849008
1008.843750,4.257970,5.784238,6.394475,-2.596928
1008.847656,3.668712,-1.206155,6.008810,-4.279262
1008.851562,-0.592545,-8.000801,0.512963,-5.973214
1008.855469,5.682604,-0.145923,-1.011795,-6.515934
1008.859375,-0.741541,-2.319319,-6.774712,-7.222206
1008.863281,-13.577716,-7.242939,-6.828775,-9.146510
1008.867188,-8.512706,-10.331730,-1.890934,-11.404103
1008.871094,-6.720418,-9.546545,-8.866608,-14.537020
1008.875000,-6.217334,-13.450772,-11.404881,-14.834199
1008.878906,-13.015988,-12.926439,-10.481177,-9.938769
1008.882812,-7.943218,-9.204512,-15.259478,-11.206141
1008.886719,-4.942450,-9.005417,-6.704740,-7.867432
1008.890625,-8.461066,-0.564145,-10.937342,-5.828805
1008.894531,-9.736740,-7.616442,-4.303358,-0.958853
1008.898438,-4.928119,-2.195201,-7.377663,-1.971554
1008.902344,2.609887,3.459187,3.861898,-1.397872
1008.906250,0.520562,2.066344,3.861848,4.094514
1008.910156,1.620880,9.939491,2.346710,7.749579
1008.914062,9.140224,15.798592,12.804742,10.205825
1008.917969,7.775974,7.077093,5.239395,6.927933
1008.921875,9.981299,11.493814,6.047505,16.482998
1008.925781,16.813831,10.960812,3.003823,5.259816
1008.929688,12.806378,9.119783,14.902316,6.984143
1008.933594,10.240566,8.919435,13.679875,14.166046
1008.937500,17.023697,7.486992,3.872436,0.108337
1008.941406,2.115989,7.658233,2.853752,4.803764
1008.945312,-6.955804,11.062763,3.024007,4.000825
1008.949219,-1.738571,-11.016784,1.081421,-6.056816
1008.953125,1.281784,-7.474161,0.317015,0.735773
1008.957031,5.505841,-9.927822,-4.916874,-8.060347
1008.960938,-4.408576,-9.484358,-0.147124,-5.841334
1008.964844,-9.150986,-8.771866,-4.775533,-8.682593
1008.968750,-9.388275,-8.535266,-9.309507,-6.874485
1008.972656,-8.639244,-9.182494,-9.920976,-9.966001
1008.976562,-9.210663,-6.986403,-12.750114,-9.615286
1008.980469,-14.328070,-9.583196,-1.484669,-3.786711
1008.984375,-5.656804,-3.199794,-5.869768,-13.439593
1008.988281,-6.206438,-2.178743,-6.056449,-8.870132
1008.992188,-3.122100,-7.069731,-7.365890,-5.458951
1008.996094,-5.542213,0.916652,-1.832418,-6.264714
1009.000000,-2.505837,1.218772,-1.877099,-2.352217
1009.003906,8.242156,-0.744400,0.033318,5.414470
1009.007812,10.105630,1.308214,6.253340,3.661858
1009.011719,8.841171,9.817544,15.147061,2.442038
1009.015625,13.784500,8.137541,4.129856,8.392125
1009.019531,2.482073,12.699903,9.004700,8.041184
1009.023438,3.588189,14.680939,15.883766,13.883079
1009.027344,3.389790,10.491781,7.394820,8.680877
1009.031250,11.310984,13.006396,13.687181,6.776812
1009.035156,4.981642,9.437419,14.756494,6.013248
1009.039062,13.696737,7.981717,11.625638,5.191037
1009.042969,3.279903,8.271070,-5.459758,2.386935
1009.046875,5.634787,4.257405,4.212443,-4.520563
1009.050781,1.752288,0.953022,-0.766028,3.717906
1009.054688,3.940737,-0.690467,-3.132631,-4.106523
1009.058594,-7.248731,-7.653269,-10.296246,-10.879090
1009.062500,-15.204049,-10.953199,-7.421622,-1.029995
1009.066406,-15.031548,-13.807631,-5.712613,-2.396058
1009.070312,-4.925602,1.524421,-7.544173,-10.830702
1009.074219,-3.826707,-15.071161,-2.871131,-11.972200
1009.078125,-10.479527,-17.188714,-8.211292,-10.446060
1009.082031,-12.382165,-3.300368,-14.246147,-8.404484
1009.085938,-3.750605,-4.064319,-12.669660,-8.154602
1009.089844,-6.244955,-11.094763,-6.318372,-1.908802
1009.093750,-3.021728,-9.936527,-8.414665,-5.818626
1009.097656,1.142281,-1.583375,-2.789466,0.232985
1009.101562,2.063596,2.521484,-0.768680,5.923907
1009.105469,2.524137,1.575733,-1.878008,2.736630
1009.109375,3.487537,11.134524,2.466220,8.401405
1009.113281,7.862823,8.844971,6.823811,4.044906
1009.117188,7.264902,8.102694,7.249527,11.045412
1009.121094,6.401214,8.506848,13.192263,11.696544
1009.125000,5.314029,2.922888,14.044295,12.889120
1009.128906,9.036369,-2.325858,5.781023,3.622057
1009.132812,6.307056,3.660504,7.652030,2.298830
1009.136719,11.385096,9.665754,3.265700,8.545705
1009.140625,4.277237,4.876612,0.678418,3.908999
1009.144531,5.684750,-4.494177,8.487823,3.460769
1009.148438,2.137972,3.619908,-5.846929,4.583047
1009.152344,1.986418,-7.264886,-2.847791,0.886422
1009.156250,-2.901810,-5.995397,-4.705162,-6.031182
1009.160156,-12.246829,-9.143563,-7.708145,-11.827008
1009.164062,0.529033,-10.311099,-12.269612,-2.142017
1009.167969,-14.155403,-10.069998,-12.115834,-5.060673
1009.171875,-13.277789,-11.680709,-13.745737,-16.997523
1009.175781,-12.272555,-7.931321,-17.523016,-14.677776
1009.179688,-11.006996,-9.072761,-8.836941,-7.411569
1009.183594,-16.817992,-7.456015,-6.322241,-12.200994
1009.187500,-12.289099,-10.738133,-7.600055,-12.197057
1009.191406,-4.474320,-8.932887,-9.137834,2.467728
1009.195312,2.014561,1.251806,-2.952413,-4.106005
