timestamp,TP9,AF7,AF8,TP10
1000.000000,-8.074334,1.615933,5.315366,-1.736704
1000.003906,-1.344802,2.829779,0.919509,6.645741
1000.007812,8.284987,8.364576,9.751132,3.930886
1000.011719,12.905475,13.512626,8.757699,2.261459
1000.015625,9.129975,8.227445,8.098661,8.677401
1000.019531,7.639684,8.089274,6.864952,10.109603
1000.023438,9.987096,10.483184,9.718684,12.713394
1000.027344,8.481432,9.279982,14.735854,9.887748
1000.031250,6.510996,8.443101,10.987492,8.439618
1000.035156,9.493202,17.293927,11.783300,2.922136
1000.039062,7.174433,7.856344,1.315075,9.743939
1000.042969,6.488324,2.527301,-2.506363,0.240260
1000.046875,-6.732580,12.096322,-3.251247,3.884602
1000.050781,7.588023,-5.418463,1.058641,-5.728729
1000.054688,0.601164,-3.559890,-2.448470,-3.341272
1000.058594,-3.398749,-7.050826,-4.089759,-8.092510
1000.062500,-8.953888,4.580044,-8.984004,-7.107723
1000.066406,-6.481580,-2.921740,-13.802985,-2.812655
1000.070312,-1.367012,-14.524394,-10.878865,-1.617623
1000.074219,-11.028541,-12.355663,-6.464940,-9.556490
1000.078125,-12.178687,-13.644277,-11.730153,-6.132454
1000.082031,-3.556918,-16.594279,-7.815546,-10.096923
1000.085938,-9.858181,-10.162512,-9.688136,-4.113996
1000.089844,-2.662011,-1.673654,-7.700657,-12.217893
1000.093750,-7.394564,-2.925377,-3.283530,-0.972152
1000.097656,-8.805535,5.384984,-2.713478,1.563289
1000.101562,-0.213100,1.389743,-3.202568,0.963849
1000.105469,-1.345809,2.920825,7.334925,2.999697
1000.109375,1.102682,8.802468,6.519299,10.824011
1000.113281,15.293600,5.049088,10.262716,6.622703
1000.117188,-0.516012,6.623754,8.336242,7.252852
1000.121094,9.043180,10.606854,5.354745,9.374356
1000.125000,7.747923,9.978974,10.238309,13.956111
1000.128906,9.839099,10.548770,11.435742,9.884082
1000.132812,7.001480,11.922220,8.615761,5.302644
1000.136719,12.146237,9.584177,7.088536,8.037510
1000.140625,2.785511,12.367162,9.195609,1.101246
1000.144531,-0.323708,5.615428,7.070814,3.934770
1000.148438,-1.636290,-1.549863,-0.114930,7.441162
1000.152344,-1.917815,-1.687425,2.324963,3.073576
1000.156250,-0.398817,-10.633036,-4.518294,-10.128035
1000.160156,-10.482520,-8.960288,-13.233996,-5.509671
1000.164062,-6.268377,-10.719566,-11.452253,-2.150724
1000.167969,-6.838717,-4.572514,-9.747183,-7.320695
1000.171875,-9.624203,-5.813926,-4.180117,-12.021046
1000.175781,-10.841940,-12.086389,-5.810886,-15.746828
1000.179688,-12.802916,-14.766265,-8.146540,-9.989483
1000.183594,-10.191928,-7.180439,-12.594738,-10.631092
1000.187500,-3.293629,-7.394505,-12.023465,-0.497902
1000.191406,-6.802186,-9.388709,-7.235576,-0.411311
1000.195312,-5.005290,-1.663025,-0.146128,0.101894
1000.199219,-3.751967,0.939039,2.803242,-3.034807
1000.203125,7.991894,-0.880952,1.814577,5.137608
1000.207031,1.920792,1.421140,-6.393582,8.899414
1000.210938,-5.045416,12.213311,3.823879,13.653054
1000.214844,13.659760,3.771833,11.550923,9.042542
1000.218750,10.461843,11.105478,24.101191,6.481671
1000.222656,4.358391,7.897357,13.461076,15.050631
1000.226562,10.557291,12.333049,10.705497,14.469748
1000.230469,9.462550,8.810135,3.922725,17.483918
1000.234375,10.093319,10.944225,10.347006,14.629378
1000.238281,2.243733,1.719242,5.372008,7.591221
1000.242188,-1.582014,0.791674,1.426154,0.226233
1000.246094,3.818400,4.465709,1.611522,0.127826
1000.250000,2.224221,-0.533975,2.410249,-2.127337
1000.253906,-5.165316,0.034346,-6.291346,-6.971984
1000.257812,1.026836,0.017325,-3.106722,-3.864558
1000.261719,-5.408569,-8.932371,-10.339619,-11.049912
1000.265625,-6.515859,-8.631368,-10.895495,-7.759229
1000.269531,-5.344030,-8.670046,-6.600835,-8.342788
1000.273438,-9.004721,-9.901004,-13.250930,-8.583242
1000.277344,-5.437383,-16.914796,-8.540159,-11.967864
1000.281250,-4.872780,-6.343636,-14.670146,-4.648311
1000.285156,-2.617305,-9.232968,-11.124268,-5.515795
1000.289062,-7.403388,-8.549844,-5.069874,-5.358703
1000.292969,-9.600150,-0.321611,-3.049106,-3.314246
1000.296875,-4.317642,-6.211744,-0.760687,-5.591780
1000.300781,1.343856,6.916405,5.223821,5.065603
1000.304688,-7.947963,0.551558,11.178993,4.210708
1000.308594,10.489182,4.904908,10.568968,7.734801
1000.312500,11.157270,4.147469,17.669941,12.264551
1000.316406,11.100655,5.236177,11.478073,3.114460
1000.320312,7.836506,11.909686,8.563276,11.552235
1000.324219,9.083501,1.753342,5.243821,8.138531
1000.328125,8.282201,6.602603,5.103966,15.295774
1000.332031,7.348971,11.646862,9.515966,9.092578
1000.335938,8.770268,12.358915,7.783852,8.014538
1000.339844,10.417353,6.474104,0.615165,13.255239
1000.343750,7.496488,4.363239,11.424150,2.420644
1000.347656,7.608280,0.245535,-2.301619,2.027016
1000.351562,0.710573,-4.371662,0.534011,-3.072945
1000.355469,-3.600246,-2.440134,-1.344530,0.376232
1000.359375,-12.957997,-8.882828,-10.603746,-2.278990
1000.363281,-5.527530,-10.683330,-6.915284,-5.301972
1000.367188,-11.262117,-12.195515,-12.305689,-8.634068
1000.371094,-8.120776,-9.485804,-7.783077,-10.374504
1000.375000,-7.680215,-4.575501,-11.295435,-13.040750
1000.378906,-7.280474,-13.648638,-12.860221,-5.027166
1000.382812,-4.164712,-5.687451,-5.225445,2.844010
1000.386719,0.498829,-6.181775,-9.575575,-4.277596
1000.390625,-12.152705,-5.696077,-10.114736,-1.019010
1000.394531,-1.646424,-9.444722,-3.881103,3.674608
1000.398438,-1.417332,-4.594045,0.311392,-4.259356
1000.402344,2.661211,1.711781,4.981917,2.173080
1000.406250,6.853335,3.458068,2.198573,3.300272
1000.410156,2.572280,8.082255,0.980801,3.201501
1000.414062,6.453001,6.408760,8.051405,4.516318
1000.417969,2.244025,13.267311,5.832380,11.286402
1000.421875,10.563958,10.769612,12.293872,21.254777
1000.425781,8.722058,16.219314,4.617810,3.730283
1000.429688,8.634917,17.139258,20.479836,7.077487
1000.433594,10.345888,12.739965,11.707533,15.609224
1000.437500,10.108629,6.720319,-2.429198,10.294309
1000.441406,12.165853,3.959043,11.308766,4.280130
1000.445312,1.857517,6.742628,9.697049,2.745600
1000.449219,0.966860,-5.730878,-0.244582,-5.122501
1000.453125,-0.599268,-1.238336,-2.719242,-1.116533
1000.457031,-5.617972,-2.843093,0.097790,-4.386710
1000.460938,-7.149693,-5.315120,-2.690853,3.176116
1000.464844,-13.963067,-4.762472,-5.120850,-7.572325
1000.468750,-11.274941,-8.014753,-16.651974,-9.660380
1000.472656,-13.213276,-7.837893,-10.759542,-4.273387
1000.476562,-9.630659,-8.942015,-5.683112,-7.495657
1000.480469,-9.560942,-16.037969,-3.629543,0.254950
1000.484375,-16.016736,-2.422194,-9.102315,-4.113349
1000.488281,-6.786779,-8.783739,-4.376255,-3.152322
1000.492188,-12.323330,-3.403887,-8.515485,-2.550348
1000.496094,-0.305165,-0.549042,-6.992247,-6.801538
1000.500000,7.037675,2.919418,3.077111,-7.095215
1000.503906,6.501558,4.839440,4.558211,4.412207
1000.507812,3.712649,6.329845,5.490644,5.335116
1000.511719,7.307595,3.772283,10.410440,6.726645
1000.515625,9.707409,12.199259,10.399346,11.106472
1000.519531,13.423760,14.395057,9.290871,7.741718
1000.523438,20.338494,10.617601,7.372683,11.295443
1000.527344,8.151797,10.912713,3.470145,3.016343
1000.531250,12.588853,7.803633,12.359636,10.022186
1000.535156,12.514485,7.266235,8.825204,13.330363
1000.539062,11.037379,7.934265,5.045213,3.831149
1000.542969,9.824921,12.116161,-2.726595,6.056266
1000.546875,6.930351,2.044098,6.782582,0.871918
1000.550781,3.665339,-2.849065,-4.315506,-4.362591
1000.554688,5.746949,0.197874,3.725704,-6.737882
1000.558594,-4.575125,-9.211777,-7.270908,-8.836172
1000.562500,-10.871006,-5.533254,-4.489226,-6.868912
1000.566406,-12.392633,-3.802515,-12.445844,-12.836855
1000.570312,-6.012725,-15.109027,-11.294224,-6.495119
1000.574219,-6.639141,-8.372001,-8.494230,-4.623932
1000.578125,-10.197718,-6.238360,-14.986079,-16.308143
1000.582031,-9.109007,-4.510836,-5.799159,-3.325999
1000.585938,-13.614715,-12.953464,-10.609209,-7.255882
1000.589844,-4.305633,-2.225964,-8.380878,-10.214771
1000.593750,-5.772257,3.610482,-11.178517,-1.680053
1000.597656,-2.366565,1.487322,-7.073639,-0.223507
1000.601562,3.757727,-0.216392,2.521110,6.895711
1000.605469,2.471617,3.380874,7.271055,2.138216
1000.609375,9.655225,10.849443,2.371129,1.150263
1000.613281,1.757952,7.845919,4.544933,4.196456
1000.617188,10.708844,13.213964,1.620252,10.088016
1000.621094,5.447056,9.866086,13.906313,11.940439
1000.625000,5.425138,19.737420,11.969362,16.237528
1000.628906,15.371366,14.728356,6.753098,11.863240
1000.632812,12.475705,1.804764,9.209040,15.107211
1000.636719,17.762207,11.483582,1.419539,9.477860
1000.640625,4.804498,8.009514,1.709331,-0.160661
1000.644531,-0.869209,1.587370,6.649201,6.831688
1000.648438,-1.054416,-2.187425,3.449571,-0.681354
1000.652344,3.968257,0.529530,-1.135101,3.285754
1000.656250,0.382247,-7.004040,-0.510840,-2.911810
1000.660156,-2.437471,-7.715774,2.218776,-4.275181
1000.664062,-8.731204,-9.572540,-4.742465,-7.525279
1000.667969,-9.639800,-8.353341,-9.647145,-0.920007
1000.671875,-11.044314,-6.673129,-6.225180,-19.341784
1000.675781,-16.661187,-4.900397,-16.759750,-10.222784
1000.679688,-16.854095,-8.325033,-10.785422,-12.663421
1000.683594,-7.300424,-7.655022,-14.507601,-12.452825
1000.687500,-3.225238,-10.924941,-3.311585,-4.454189
1000.691406,-7.844222,-6.422186,-3.731770,-8.980375
1000.695312,-9.129837,-0.685462,1.882008,-3.058925
1000.699219,-0.963024,0.497373,-2.840809,-0.314970
1000.703125,5.143229,-1.764051,5.497639,11.514244
1000.707031,4.029497,1.104450,4.982848,-1.429980
1000.710938,-1.871294,6.687450,-0.089971,6.275011
1000.714844,3.257621,1.512590,11.856598,9.790596
1000.718750,11.199623,10.303561,15.772781,-0.756078
1000.722656,8.650611,8.853559,5.459313,11.628108
1000.726562,12.231829,11.349208,3.334016,8.759316
1000.730469,11.000337,11.642561,11.581289,7.804587
1000.734375,14.860162,5.824658,5.887164,4.160993
1000.738281,2.677219,11.003241,-5.159022,3.223471
1000.742188,-4.572251,-3.629439,5.321818,9.544767
1000.746094,-4.278869,6.388206,1.486465,2.677988
1000.750000,0.144619,-11.435526,-1.594892,-10.064831
1000.753906,-1.164704,-0.368185,-7.392443,-2.133992
1000.757812,-6.597102,1.882411,0.646987,-2.493860
1000.761719,-1.129752,-10.293364,-6.918078,-8.307286
1000.765625,-12.497033,-4.269523,-6.069940,0.467711
1000.769531,-7.758668,-9.250506,-11.187851,-6.445357
1000.773438,-10.501521,-12.865737,-11.134738,-8.143753
1000.777344,-8.963755,-4.947213,-6.623890,-5.277356
1000.781250,-9.524219,-9.341244,-11.667707,-10.598218
1000.785156,-9.237401,-5.706830,-6.216965,-11.635168
1000.789062,-6.063312,-3.963532,-6.311478,-9.821703
1000.792969,-9.774418,-4.701459,-3.268827,-7.085341
1000.796875,-9.958200,-6.702670,1.675190,-3.225480
1000.800781,-2.402419,-0.196699,-1.168932,-1.549065
1000.804688,4.214985,-0.295432,8.101738,1.912019
1000.808594,0.235169,5.113490,9.537684,-3.302879
1000.812500,6.430727,0.892730,4.445937,2.554377
1000.816406,7.760148,10.119203,7.403873,7.659842
1000.820312,2.486483,12.452171,7.376429,5.885237
1000.824219,11.243735,6.685074,5.848920,13.098645
1000.828125,8.073691,9.023923,4.239587,14.721229
1000.832031,14.591822,11.035557,0.464268,5.595231
1000.835938,5.040518,16.843538,11.266490,16.703270
1000.839844,1.712200,3.187208,4.798042,7.925149
1000.843750,4.820012,11.155516,-2.542974,11.311235
1000.847656,-2.294647,1.291476,0.206157,2.052609
1000.851562,-0.733893,-2.305085,-1.412618,-0.911400
1000.855469,-1.854983,-5.103344,0.644371,0.464031
1000.859375,-2.980295,-6.316304,-10.319157,-3.971699
1000.863281,-6.240562,-3.067289,-4.055488,-7.904090
1000.867188,-13.489720,-11.376505,-9.475213,-5.927686
1000.871094,-5.332613,-13.152824,-15.493082,-10.824425
1000.875000,-12.923932,-12.896269,-5.729706,-3.404242
1000.878906,-15.533975,-8.672610,-4.394722,-5.699217
1000.882812,-13.094047,-11.039736,-8.420884,-9.644090
1000.886719,-12.559457,-12.591959,-2.793495,-4.299318
1000.890625,-11.188306,-4.051380,-5.395509,-4.576431
1000.894531,-5.159523,2.284715,-1.456784,-7.738342
1000.898438,-2.940397,4.545964,-3.455887,0.635217
1000.902344,0.575353,-4.001429,1.896139,-0.852803
1000.906250,13.712279,-3.273176,0.054139,10.949237
1000.910156,6.695637,7.323485,4.817478,-1.055066
1000.914062,-0.452212,7.355879,8.398141,6.900837
1000.917969,10.527178,8.857564,13.662032,1.160905
1000.921875,6.311293,11.468684,13.094128,10.092523
1000.925781,3.846602,13.973040,10.105463,14.493732
1000.929688,6.471893,15.596363,9.049720,14.841613
1000.933594,11.475590,-1.885109,7.591650,8.253398
1000.937500,8.202038,8.732383,6.597418,4.247038
1000.941406,6.731134,-1.228149,2.613931,0.917789
1000.945312,-0.183164,2.425714,5.731905,-0.848591
1000.949219,1.048324,4.031488,-1.905881,1.439642
1000.953125,-6.960257,-2.203254,-12.463105,-8.183223
1000.957031,-7.302634,-7.201874,-9.383011,-3.544392
1000.960938,-2.055971,-7.083740,-4.001991,-7.766397
1000.964844,-8.198275,-7.120946,-11.158167,-11.025752
1000.968750,-11.650472,-9.231721,-7.704384,-9.237444
1000.972656,-6.658815,-13.866088,-11.222496,-11.439863
1000.976562,-8.047348,-7.295232,-2.368013,-10.535547
1000.980469,-5.367753,-8.733928,-14.663800,-2.984095
1000.984375,-4.079136,-3.944604,-18.477098,-12.080834
1000.988281,-10.506395,-8.814539,-1.608591,-8.781328
1000.992188,2.169864,-6.318471,-0.721681,-5.201670
1000.996094,-0.617053,-2.832291,-0.808020,-5.134643
1001.000000,3.233348,-7.896261,4.414830,-2.453833
1001.003906,4.332138,4.018641,2.557900,3.363874
1001.007812,7.901650,3.938230,-1.345575,11.148795
1001.011719,7.785884,7.876072,6.002258,8.090499
1001.015625,8.264648,8.633835,11.066016,5.219922
1001.019531,9.229300,8.000877,11.410417,13.030124
1001.023438,15.812733,7.186516,9.224489,10.021547
1001.027344,8.523758,3.132725,14.320938,6.153026
1001.031250,9.863031,7.976906,7.101679,5.381618
1001.035156,2.072896,9.147590,9.488827,6.130869
1001.039062,6.945924,6.704268,11.149085,8.052315
1001.042969,9.109931,9.245058,4.838662,9.440796
1001.046875,2.995440,5.712811,1.948424,7.843885
1001.050781,3.682816,0.410281,-2.237997,-1.738029
1001.054688,-5.158923,-6.191172,-1.634698,-3.901582
1001.058594,-8.247155,-6.823330,-1.082855,-7.194328
1001.062500,-14.578356,-10.444466,-9.491831,-7.795850
1001.066406,-10.417554,-3.969861,-7.512872,-5.597629
1001.070312,-8.049006,-18.548300,-12.229156,-13.354485
1001.074219,-18.808312,-14.265633,-8.647854,-5.157709
1001.078125,-10.702183,-13.245282,-16.041864,-12.712356
1001.082031,-12.830247,-10.520952,-4.915842,-7.986278
1001.085938,-7.294381,-8.782632,-6.062552,-11.826765
1001.089844,2.190331,-0.490866,-9.697036,-5.196545
1001.093750,0.539648,-3.850081,0.401756,-2.216922
1001.097656,-6.711930,1.783513,2.081700,1.302988
1001.101562,-5.491687,-4.767730,2.727986,-2.849467
1001.105469,-3.320749,-1.497812,3.321083,3.890480
1001.109375,8.030443,-0.827624,6.528269,1.782052
1001.113281,7.748219,10.657687,11.112103,10.306807
1001.117188,6.763497,15.255784,7.832383,4.467736
1001.121094,9.730070,6.031925,10.851150,9.035980
1001.125000,6.520276,8.686690,14.082480,13.843360
1001.128906,6.295045,13.708894,5.991148,11.463910
1001.132812,3.843807,4.540049,5.034765,4.571375
1001.136719,3.500421,15.415556,12.238473,6.492615
1001.140625,4.910012,6.740333,6.201457,7.005839
1001.144531,5.178693,11.878981,9.202950,4.705759
1001.148438,2.661609,1.340380,2.288243,-1.885678
1001.152344,3.835271,0.321486,0.174442,-2.620518
1001.156250,-3.348260,2.125373,-9.078247,-5.486930
1001.160156,-5.258250,-4.491973,-8.214924,-5.072151
1001.164062,-8.459987,-10.538109,-5.776880,-9.301780
1001.167969,-2.210373,-10.341767,-9.457214,-14.112748
1001.171875,-8.864319,-9.338219,-11.777088,-2.698939
1001.175781,-4.659956,-5.819600,-5.007843,-16.612350
1001.179688,-9.393121,-5.834784,-8.740990,-10.428650
1001.183594,-11.845383,-7.746065,-9.944225,-4.666853
1001.187500,-6.901864,-13.130730,-4.212266,-6.348216
1001.191406,-11.057551,1.087536,-3.619173,-2.544598
1001.195312,-1.466211,-8.779875,2.470368,-5.284924
1001.199219,5.020942,0.140126,-5.780774,-4.911860
1001.203125,0.538633,7.214789,1.631424,1.312818
1001.207031,-2.015530,5.897906,-0.671545,5.402925
1001.210938,6.467901,7.357600,8.224910,4.855210
1001.214844,6.457074,8.619160,3.947867,3.737021
1001.218750,4.587858,11.853435,8.547784,12.410248
1001.222656,5.308211,13.303921,6.829665,17.719202
1001.226562,13.262116,9.767970,10.349206,16.724247
1001.230469,13.424542,6.178236,7.349752,12.189595
1001.234375,7.073699,10.434026,5.109606,13.026275
1001.238281,4.751387,9.180627,7.844705,6.399587
1001.242188,4.865763,3.441594,7.154006,-2.306564
1001.246094,-1.350157,-2.400479,0.170830,0.230817
1001.250000,-4.888390,-1.416881,-3.192903,-2.875093
1001.253906,-3.250792,-1.655176,-3.022921,-0.217307
1001.257812,-12.012671,-7.046204,-11.116172,2.809396
1001.261719,-4.739597,-6.926426,-6.875980,-8.543202
1001.265625,-5.257728,-9.380862,-5.952997,-11.360723
1001.269531,-3.409891,-12.229735,-5.704513,-11.038270
1001.273438,-15.866444,-8.125336,-15.627944,-17.235898
1001.277344,-9.558582,-4.548341,-11.523176,-6.709178
1001.281250,-7.224926,-7.850773,-10.401560,-10.178018
1001.285156,-4.812655,-4.119094,-7.986097,-2.444298
1001.289062,-4.177860,-5.066678,-11.237861,-15.023750
1001.292969,8.317069,-7.470369,-6.166827,-2.343339
1001.296875,-4.743888,-1.253221,1.927714,-7.215007
1001.300781,-2.379169,1.540491,3.737493,3.200278
1001.304688,0.638984,5.415020,4.401008,9.372294
1001.308594,11.202694,4.249236,-1.038118,-0.110628
1001.312500,7.410652,-3.037580,5.171187,9.729220
1001.316406,11.887423,6.477045,11.644699,6.526296
1001.320312,16.824062,11.517581,13.892611,13.660655
1001.324219,8.709081,6.589241,6.151662,10.278390
1001.328125,9.640910,12.652876,9.720046,11.774486
1001.332031,10.020317,4.639090,4.651667,1.863758
1001.335938,10.194729,11.750895,13.802699,10.196460
1001.339844,0.704171,3.649922,6.982938,5.341981
1001.343750,3.049224,1.071372,6.666259,5.162860
1001.347656,1.504732,0.729675,2.309539,4.169768
1001.351562,5.080884,1.742938,-0.875039,1.730175
1001.355469,-4.591454,-0.784263,-6.551844,-2.994096
1001.359375,-1.508893,-4.997077,-4.027087,-7.846716
1001.363281,-8.985433,-7.828775,-2.045380,-11.034411
1001.367188,-9.787674,-8.713227,-5.820737,-6.256155
1001.371094,-12.752106,-12.876237,-16.519530,-10.571361
1001.375000,-10.902896,-10.606709,-12.356734,-8.881645
1001.378906,-8.092613,0.873300,-20.227396,-4.032802
1001.382812,-14.634716,-13.146948,-12.438425,-11.199557
1001.386719,-7.960850,-7.488452,-10.369296,-5.173073
1001.390625,-5.510354,-8.058189,-1.086834,-7.666122
1001.394531,-4.091404,-0.258719,-8.590094,-4.525040
1001.398438,7.475341,-3.403963,6.399142,-3.496208
1001.402344,3.559860,-2.499765,6.893296,-2.708904
1001.406250,2.187682,5.545947,3.049342,-2.359834
1001.410156,-1.548037,1.569089,2.789486,4.238246
1001.414062,7.698123,6.567492,8.346765,4.594118
1001.417969,11.270771,11.762115,16.782182,13.788534
1001.421875,9.883803,-0.711327,3.613366,12.342972
1001.425781,11.897020,11.562074,13.295993,17.555902
1001.429688,12.620729,5.667196,11.702056,4.941345
1001.433594,10.190801,8.808309,10.508634,7.722088
1001.437500,9.281156,2.905852,3.319792,9.464904
1001.441406,7.242366,11.038306,4.127307,3.523021
1001.445312,-3.931230,5.177150,-4.784952,10.708823
1001.449219,3.375543,-2.494607,2.345373,-0.472886
1001.453125,-0.219530,3.275468,-4.182733,0.750831
1001.457031,-3.566284,-3.712741,-6.990019,-10.365718
1001.460938,-0.763606,-9.518381,-2.510966,2.983814
1001.464844,-6.853481,-4.789370,-8.445006,-8.377948
1001.468750,-7.384978,-8.217787,-5.995640,-13.088417
1001.472656,-12.527245,-9.232560,-12.958248,-8.488029
1001.476562,-2.161853,-12.496667,-13.462832,-9.975863
1001.480469,-1.181402,-2.673935,-4.828071,-4.023268
1001.484375,-5.037447,-9.041298,-16.554469,-9.551337
1001.488281,-6.632306,2.336138,-9.324184,-0.505588
1001.492188,-5.665784,0.202462,-10.967010,-5.780137
1001.496094,-4.227478,-4.339058,1.506890,-8.325934
1001.500000,1.189828,8.702093,-0.064712,1.435098
1001.503906,0.807076,7.356651,-1.513287,2.811035
1001.507812,2.893419,3.021009,4.515154,3.553519
1001.511719,2.384972,4.963032,0.957759,3.404466
1001.515625,10.840785,10.484872,4.626399,5.775053
1001.519531,13.261977,11.452015,8.045449,7.973830
1001.523438,8.922476,6.111160,9.994588,8.291034
1001.527344,14.578155,8.542763,16.193841,12.661480
1001.531250,9.548033,10.388352,8.856576,8.225780
1001.535156,14.052465,11.545626,6.583080,13.726994
1001.539062,11.821728,7.570594,7.588117,-0.337252
1001.542969,3.794274,4.224901,-0.655961,5.263262
1001.546875,2.647520,1.468595,3.460315,-1.895617
1001.550781,-7.502871,1.651026,2.739264,0.530782
1001.554688,-4.408312,1.438014,2.896606,-6.457288
1001.558594,-6.412075,-9.018508,-2.754943,-1.249655
1001.562500,-9.627422,-10.423413,-8.260303,-10.043242
1001.566406,-8.776563,-14.663555,-11.265836,-15.061990
1001.570312,-8.457679,-8.786752,-14.299002,-5.555088
1001.574219,-8.944796,-9.317010,-6.154182,-11.007412
1001.578125,-5.236151,-9.304974,-10.860408,-9.261583
1001.582031,-3.069934,-5.521449,-12.771696,-13.214985
1001.585938,-11.761706,-6.343995,-5.474534,-10.353829
1001.589844,-5.851470,-13.780916,-7.280167,0.212051
1001.593750,-2.439605,-5.872493,-3.481399,5.757695
1001.597656,-0.867469,2.250792,2.936071,3.712491
1001.601562,-1.237317,1.592391,4.238737,3.182165
1001.605469,3.469403,12.961041,7.606371,-1.598723
1001.609375,3.941973,2.713368,9.452905,3.796890
1001.613281,11.509050,4.603874,8.160079,10.121089
1001.617188,2.183105,14.481932,6.307736,8.426885
1001.621094,8.049071,8.589618,5.096595,2.945362
1001.625000,14.187869,4.367931,8.010217,13.381990
1001.628906,11.948808,8.061010,4.877475,11.152719
1001.632812,12.797480,14.850462,11.650829,3.404306
1001.636719,8.985854,9.797763,7.068561,14.162264
1001.640625,2.758158,8.685352,4.284901,6.466473
1001.644531,2.052463,-1.467366,2.935047,-1.111793
1001.648438,-1.954056,3.934758,3.037090,0.945915
1001.652344,-7.568414,1.678047,-11.404271,-0.806984
1001.656250,-1.967353,-1.866972,4.325273,-2.710772
1001.660156,-1.670661,-8.508875,-1.481888,-1.881394
1001.664062,-11.245702,-8.093588,-9.457205,1.473115
1001.667969,1.053749,-10.189182,-8.233544,-7.356492
1001.671875,-5.799604,-1.755159,-16.319837,-16.812023
1001.675781,-6.384581,-14.406722,-12.397313,-10.418966
1001.679688,-4.700614,-11.474353,-2.469386,-9.860245
1001.683594,-4.283402,-13.944967,-14.445014,-6.307560
1001.687500,-14.519870,-6.388599,-10.481886,-4.313410
1001.691406,-4.601964,3.075557,-1.803468,-12.829321
1001.695312,-3.877536,-0.189623,-1.220167,-4.606135
1001.699219,1.661227,-0.456092,-7.750430,-2.818045
1001.703125,-5.550434,0.019996,-3.995535,-0.867437
1001.707031,1.161003,6.819760,0.959353,8.516819
1001.710938,6.541547,-2.068039,4.676495,10.329404
1001.714844,4.237513,9.303371,5.470336,1.538170
1001.718750,12.152181,3.829006,13.612503,7.506360
1001.722656,8.551259,8.604967,13.278259,9.297570
1001.726562,10.205582,5.254488,14.036072,10.356298
1001.730469,3.253540,8.917519,10.650552,11.557847
1001.734375,4.879137,11.844874,6.569195,4.393033
1001.738281,6.735373,1.245304,13.776643,0.285500
1001.742188,2.915651,7.726168,-0.481333,2.409227
1001.746094,6.799017,9.687327,-5.945483,1.026885
1001.750000,-2.777311,-3.968094,-6.645776,-0.150209
1001.753906,-3.066503,-1.016310,-5.250853,-5.138542
1001.757812,-8.936676,-4.360094,-7.104252,-6.159312
1001.761719,-12.085956,-7.572161,-7.087510,-8.633507
1001.765625,-14.489930,-10.475426,-9.824635,-9.110064
1001.769531,-16.559596,-10.499341,-11.893677,-8.475445
1001.773438,-12.618554,-0.105006,-11.933117,-16.655407
1001.777344,-4.680385,-9.932378,-3.559074,-12.950188
1001.781250,-10.597462,-12.474422,-4.840273,-8.344341
1001.785156,-11.056342,-9.183871,-9.579497,-6.661452
1001.789062,-8.364536,-8.530681,-3.674309,-10.886087
1001.792969,-10.869611,-0.453463,-1.101832,-4.826822
1001.796875,1.026775,5.027497,-7.419352,-1.626126
1001.800781,-3.324954,4.913085,2.332329,1.674478
1001.804688,8.554993,3.002665,-2.804636,0.529177
1001.808594,7.177125,9.703325,8.203380,3.432480
1001.812500,4.235372,3.773881,-1.431466,6.504577
1001.816406,4.239369,10.672140,6.322105,16.835989
1001.820312,2.668404,9.822667,11.689598,5.522842
1001.824219,11.785845,13.445077,7.664349,13.004742
1001.828125,8.240105,9.996233,5.108543,18.279607
1001.832031,9.275824,8.869666,4.326306,15.366211
1001.835938,6.130648,15.576940,15.620501,12.770782
1001.839844,-0.748672,2.861151,1.692707,6.304668
1001.843750,8.228805,7.598396,6.345424,1.931238
1001.847656,-1.543692,2.894660,4.820436,-3.155544
1001.851562,-2.209147,0.894823,-2.287044,0.791589
1001.855469,-3.465873,-9.606574,-0.847049,-2.028092
1001.859375,-9.479041,-0.716241,-11.120835,-5.489815
1001.863281,-6.403634,-1.499720,-8.781916,-3.740965
1001.867188,-9.168652,-8.723957,-2.997702,-6.328374
1001.871094,-18.356618,-0.023448,-9.867418,-10.134512
1001.875000,-11.745649,-12.533930,-14.115965,-6.288448
1001.878906,-6.400213,-10.599619,-6.204827,-11.219076
1001.882812,-8.048723,-1.662101,-5.297382,-5.879806
1001.886719,-5.114340,-7.063125,-11.935523,-0.024764
1001.890625,-9.425998,-4.413436,-5.575154,-3.804661
1001.894531,1.534735,-6.586445,-3.978148,-1.805712
1001.898438,-2.469494,-3.836768,7.655113,1.476869
1001.902344,0.154260,1.329949,-0.329097,-1.138906
1001.906250,3.078079,4.888838,4.871458,3.869885
1001.910156,7.535446,2.995607,9.674570,8.592469
1001.914062,11.348453,14.716531,0.743899,12.141630
1001.917969,8.984898,11.206846,6.924848,12.845705
1001.921875,9.321574,11.783054,8.736370,7.384946
1001.925781,9.452025,11.200000,12.022750,5.627589
1001.929688,16.918091,5.084800,19.509851,3.807274
1001.933594,11.772517,2.413415,8.849151,13.154455
1001.937500,6.874590,11.711909,9.368747,13.063271
1001.941406,6.495970,9.627420,1.676654,4.504046
1001.945312,-0.072648,4.457954,4.626684,-2.903218
1001.949219,-2.549016,2.317515,8.108187,7.483835
1001.953125,-3.312583,-4.899473,3.878161,4.474398
1001.957031,5.078015,-0.192402,-5.622370,-9.388481
1001.960938,-4.473241,0.117165,-4.495681,-7.875905
1001.964844,-6.936286,-8.011009,-7.033086,-10.523496
1001.968750,-5.679292,-15.245154,-9.807170,-10.056975
1001.972656,-8.454557,-1.913310,-6.906237,-19.764321
1001.976562,-12.637663,-10.615569,-9.579305,-7.541685
1001.980469,-5.191592,-7.732745,-11.369554,-9.590568
1001.984375,-17.662180,-2.279355,-5.955704,-4.008136
1001.988281,-8.587386,-10.448610,-6.750490,-12.611157
1001.992188,-10.567724,-0.854489,-4.409689,-7.240555
1001.996094,-2.746158,-8.923496,8.180991,-5.096648
1002.000000,7.971132,-4.622533,3.275047,8.457520
1002.003906,8.949999,2.122665,3.493742,3.361721
1002.007812,4.552299,7.986274,8.208550,5.214972
1002.011719,8.888935,3.672299,9.767193,6.551216
1002.015625,6.611182,5.289219,2.441080,2.223855
1002.019531,12.227443,7.129631,3.616296,3.453033
1002.023438,11.723987,0.585701,16.918687,13.367195
1002.027344,11.481708,16.969816,8.295864,22.544953
1002.031250,3.034341,7.631011,11.308929,11.098983
1002.035156,7.755456,4.866320,13.641276,13.248540
1002.039062,9.381593,5.375043,7.131153,7.103996
1002.042969,5.626589,-2.367620,11.656460,0.970990
1002.046875,0.317559,0.513939,-0.589329,2.312533
1002.050781,2.492543,-4.980892,-3.479332,-9.592935
1002.054688,-4.680298,-2.372470,-3.973464,-2.311678
1002.058594,-6.133099,0.732113,-8.657254,-9.020176
1002.062500,-7.358722,-4.465440,-7.697139,-1.064956
1002.066406,-11.868128,-7.660358,-9.324198,-8.946938
1002.070312,-8.511353,-14.216562,-9.814780,-11.839700
1002.074219,-10.449378,-6.047028,-14.184085,-14.463798
1002.078125,-5.031261,-11.774094,-12.327811,-18.622939
1002.082031,-4.098399,-4.744180,-10.411026,-9.003568
1002.085938,-10.435528,-8.879946,1.465087,-12.218450
1002.089844,-7.501170,-3.443080,0.222006,-4.679967
1002.093750,-5.841443,-8.374944,-4.427917,-5.432299
1002.097656,3.032328,7.669319,0.745012,-6.366219
1002.101562,-1.261396,-2.742416,-2.202081,-2.802008
1002.105469,1.403200,8.575263,-0.152721,-3.054407
1002.109375,10.018285,7.065712,3.751516,7.020853
1002.113281,11.427615,6.052876,12.454173,10.445079
1002.117188,9.979826,4.597179,12.415542,-0.624662
1002.121094,9.992582,6.489580,17.517886,11.304703
1002.125000,9.593618,7.573437,5.473384,5.777417
1002.128906,13.567695,10.253232,7.764221,13.212398
1002.132812,10.165750,1.556349,10.454545,7.761253
1002.136719,2.277452,5.333694,9.562306,10.245566
1002.140625,3.516358,3.364766,8.096277,7.613438
1002.144531,1.338246,3.025671,11.438101,6.994602
1002.148438,4.238091,-1.159944,-0.609667,0.325018
1002.152344,1.834346,-2.284745,0.189148,-10.953237
1002.156250,-5.443006,-4.501082,-1.743448,3.201872
1002.160156,-3.497217,-8.566158,-8.043267,-4.301735
1002.164062,-5.861976,-8.828646,-9.668679,-11.828344
1002.167969,-9.331766,-10.035881,-10.565287,-9.077633
1002.171875,-2.302978,-14.436992,-13.422585,-10.575661
1002.175781,-15.137216,-7.341574,-12.366013,-7.053025
1002.179688,-5.825554,-10.845463,-12.186314,-7.601979
1002.183594,-7.680951,-15.213415,-7.993432,-10.100865
1002.187500,-12.268605,-4.304632,-8.376506,-5.531990
1002.191406,-4.712765,-7.205107,-11.462560,0.063044
1002.195312,0.857162,-0.871204,-0.541217,0.542041
1002.199219,1.899172,2.917981,0.025651,4.563741
1002.203125,-6.752683,9.611310,7.830229,-0.772593
1002.207031,3.464469,-0.512039,6.290431,5.974915
1002.210938,8.184937,-1.217302,8.064613,4.538043
1002.214844,4.188067,4.060835,9.542567,9.310038
1002.218750,4.411276,2.895272,5.896615,7.538177
1002.222656,11.518205,7.722599,4.774471,2.650762
1002.226562,10.106635,7.003054,16.263118,8.330308
1002.230469,7.013338,3.881465,9.842358,7.536583
1002.234375,7.856406,4.648149,5.643085,6.420109
1002.238281,6.060715,6.852059,11.693149,1.803781
1002.242188,0.574626,8.718781,8.887948,11.879439
1002.246094,0.973074,2.373012,8.997421,2.264809
1002.250000,1.096968,-1.377071,-0.394739,1.244742
1002.253906,-0.623501,-1.293219,-3.719228,-3.911903
1002.257812,0.377040,-1.361594,-2.312246,-1.793203
1002.261719,-10.591944,-11.949626,-3.816097,-7.592723
1002.265625,-7.956164,-5.417619,-7.766070,-12.216021
1002.269531,-7.091246,-10.131817,-11.084529,-8.798654
1002.273438,-7.686857,-12.404155,-11.533032,-11.755737
1002.277344,-6.109117,-13.284739,-11.497111,-12.057824
1002.281250,-10.844185,-2.719467,-7.042401,-1.704360
1002.285156,-7.397847,-7.087317,-5.456795,-5.091307
1002.289062,-6.703389,-5.729077,-5.257864,-2.175176
1002.292969,-2.670235,-1.840355,-8.912008,-3.407805
1002.296875,-2.197874,5.505275,0.416018,0.968426
1002.300781,-6.451853,-3.544516,-6.837775,3.504150
1002.304688,5.665229,0.903152,3.030483,2.358532
1002.308594,2.847072,9.116235,4.256553,8.828489
1002.312500,7.848424,8.391063,5.404197,10.851339
1002.316406,5.391473,11.087137,6.469632,9.925896
1002.320312,12.268213,5.824853,20.623330,12.159784
1002.324219,3.211656,15.001449,10.817568,7.121204
1002.328125,10.975075,6.737272,10.648363,10.855166
1002.332031,7.154623,5.302372,9.858261,9.779801
1002.335938,5.483668,11.333285,6.917259,8.718453
1002.339844,13.415030,7.680062,5.188115,5.911958
1002.343750,6.459842,3.822487,1.615871,0.141429
1002.347656,3.141994,5.669310,2.350865,-1.446937
1002.351562,-4.893836,-2.994598,-4.411869,-1.135424
1002.355469,2.457409,-1.873425,4.307744,-2.805312
1002.359375,0.537585,-2.307005,-6.762559,-5.705026
1002.363281,-6.413089,-2.364387,-14.708162,-9.198009
1002.367188,-14.052097,-6.534341,-10.613313,-6.120323
1002.371094,-9.206107,-17.691119,-4.409542,-10.236706
1002.375000,-6.220363,-10.290686,-15.224018,-15.523102
1002.378906,-7.257153,-12.009694,-8.291147,-15.603119
1002.382812,-16.178447,-10.685560,-9.712267,-6.857293
1002.386719,-12.011175,-12.479984,-6.321661,-16.208125
1002.390625,-9.727381,-9.595252,-2.322244,-3.515921
1002.394531,-9.386609,-12.154393,-6.866167,-9.321920
1002.398438,4.007961,-2.983096,-1.455031,11.545517
1002.402344,0.647126,4.812962,5.437063,5.287924
1002.406250,5.906775,0.491462,14.972225,8.700379
1002.410156,3.072913,7.936450,5.925982,16.125687
1002.414062,2.162882,8.062827,10.226567,5.238908
1002.417969,8.240297,11.297983,5.456748,8.505222
1002.421875,4.418210,13.226065,9.714522,16.127494
1002.425781,14.495617,8.694348,13.391813,8.173262
1002.429688,8.803863,8.716692,13.121780,6.727013
1002.433594,1.525437,6.536147,5.433230,5.245512
1002.437500,-3.483642,9.780982,10.941789,15.973271
1002.441406,10.516575,2.910264,10.245379,7.806936
1002.445312,0.056047,2.671456,1.161250,7.434032
1002.449219,1.067034,-2.908156,1.618308,-5.288424
1002.453125,-0.342903,-0.541485,0.191353,-7.924750
1002.457031,2.478796,-6.373853,3.241240,0.078243
1002.460938,-3.282387,-5.796627,-14.301409,-6.198651
1002.464844,-9.706945,-1.874800,-4.590103,-11.355769
1002.468750,-5.651027,-15.702456,-3.766916,-14.985221
1002.472656,-1.314425,-6.808652,-10.085331,-2.053991
1002.476562,-18.196537,-10.402598,-4.424631,-12.664017
1002.480469,-14.199491,-17.986733,-11.308166,-0.896103
1002.484375,-3.658708,1.904875,-11.280046,-4.916105
1002.488281,-4.555919,-3.518495,-7.599289,-11.379730
1002.492188,-7.030675,-4.489602,-6.839937,-4.289498
1002.496094,-4.338645,0.460160,-0.827685,-7.106396
1002.500000,0.271478,1.909529,0.713910,5.350293
1002.503906,2.919607,-2.593762,1.561237,9.686404
1002.507812,10.791531,4.787842,6.820747,6.795043
1002.511719,4.391906,2.999659,3.487726,13.573601
1002.515625,9.847779,4.525966,10.690505,7.341102
1002.519531,8.328572,15.051391,9.236036,12.551114
1002.523438,5.223200,16.066921,9.169317,4.488598
1002.527344,10.012434,3.397267,12.541249,4.392617
1002.531250,7.286257,10.090213,7.787251,10.347794
1002.535156,9.150205,10.380725,6.566749,7.953435
1002.539062,10.835975,-0.847713,12.587273,-5.188794
1002.542969,5.433782,1.599587,1.314644,1.206129
1002.546875,11.236386,8.961666,-0.064661,2.910379
1002.550781,7.158248,6.643739,-0.916389,7.220786
1002.554688,-5.465252,-2.942809,0.233558,-6.930490
1002.558594,-7.116054,-6.331549,0.187707,-1.595203
1002.562500,-10.495925,-10.233493,-4.839991,-12.505412
1002.566406,-7.923604,-3.681823,-9.787172,-7.665461
1002.570312,-11.967622,-9.177688,-1.509359,-7.440909
1002.574219,-7.327556,-13.444141,-11.791627,-14.777687
1002.578125,-11.818673,-1.516341,-12.947385,-11.589144
1002.582031,-14.691843,-4.497942,-9.963920,-8.706840
1002.585938,-9.766629,-16.882251,-7.465681,-3.920103
1002.589844,-6.961911,-12.055857,-3.255977,-5.921780
1002.593750,-8.382230,-0.780957,-0.824552,0.019200
1002.597656,0.913998,9.537235,-2.365675,0.060649
1002.601562,6.378969,2.952522,3.740678,-3.199961
1002.605469,1.534171,-0.471923,4.698156,1.401753
1002.609375,5.575626,11.385581,3.376513,2.724913
1002.613281,13.311363,3.294996,7.772996,11.207882
1002.617188,10.710935,7.949851,2.894536,9.046198
1002.621094,4.412664,17.659693,6.159651,11.597619
1002.625000,4.689223,11.515253,12.381438,7.504381
1002.628906,11.908766,4.606088,14.489829,6.548772
1002.632812,12.920321,6.624154,5.307226,12.793837
1002.636719,8.594167,9.065727,4.519438,9.647924
1002.640625,8.820675,7.940275,2.316570,7.220595
1002.644531,-0.874458,3.701193,7.303128,6.264253
1002.648438,2.526086,1.579264,-10.073069,0.664820
1002.652344,-5.928255,9.563606,-6.967706,3.645570
1002.656250,-2.471383,-7.778837,-4.948024,-6.251912
1002.660156,-10.451733,-2.834881,-2.256773,-5.505103
1002.664062,-2.747767,-4.275182,-14.038577,-11.646045
1002.667969,-11.186658,-14.389144,-8.533689,-1.903992
1002.671875,-6.858970,-4.453965,-15.568715,-14.905523
1002.675781,-9.164967,-17.680478,-10.293783,-6.578207
1002.679688,-5.428825,-13.446085,-16.284164,-13.312191
1002.683594,-5.362965,-3.731871,-14.599855,-8.726553
1002.687500,-10.117798,-5.623195,-12.538058,-6.698204
1002.691406,2.582843,-5.037142,-5.716553,-6.675192
1002.695312,-2.661106,0.108145,-8.813412,-9.481328
1002.699219,-3.419033,-1.368369,4.388415,-0.989048
1002.703125,0.790837,-1.636486,1.997600,0.751465
1002.707031,8.064937,0.511511,2.761556,3.407265
1002.710938,6.756139,-5.292147,2.772015,1.729420
1002.714844,8.584097,6.763692,13.532138,11.626307
1002.718750,10.458551,12.126457,15.801225,0.560131
1002.722656,10.962889,10.133731,11.000933,5.568766
1002.726562,12.433167,7.453353,6.340109,10.602502
1002.730469,7.354963,1.514668,7.035958,10.696724
1002.734375,4.790765,9.351039,6.733275,8.299654
1002.738281,9.999892,8.530238,1.681139,0.453985
1002.742188,-0.344485,3.340596,3.479329,3.408011
1002.746094,13.309947,5.508367,2.443490,7.158559
1002.750000,4.755586,-3.137255,-4.758440,2.175375
1002.753906,1.912974,-6.347103,-1.506169,-1.450611
1002.757812,-4.829156,-3.698234,-8.247100,-1.820286
1002.761719,-16.474363,-10.096173,-16.104046,-4.568315
1002.765625,-17.627494,-2.489733,-4.405575,-7.092646
1002.769531,-10.082959,-10.639719,-4.429348,-9.217475
1002.773438,-10.092863,-9.899095,-11.736508,-5.717117
1002.777344,-14.620190,-9.615612,-3.536002,-8.035191
1002.781250,-14.607772,-10.932507,-20.474210,-6.650343
1002.785156,-12.169649,-8.906291,-5.833866,-13.979027
1002.789062,-9.328300,-3.662283,-6.664201,-9.239266
1002.792969,-7.523170,-0.473785,-10.025947,-2.750941
1002.796875,-2.542344,-5.219449,-4.305398,-5.435883
1002.800781,2.132209,-1.543772,2.353427,-1.586038
1002.804688,5.114707,3.160604,-5.742709,1.619930
1002.808594,4.971135,7.383695,10.005091,4.807151
1002.812500,6.270015,3.672344,10.717902,9.418729
1002.816406,6.386744,5.477812,6.065987,3.989680
1002.820312,7.519330,5.148194,6.940945,3.541156
1002.824219,3.322756,1.554599,13.024768,2.593026
1002.828125,10.919259,8.231318,9.289041,12.056872
1002.832031,8.385638,8.451691,17.374174,10.569957
1002.835938,9.390131,7.628143,-1.075915,4.026861
1002.839844,8.053212,9.338995,9.348579,0.997015
1002.843750,2.222529,6.026561,-0.625960,9.914219
1002.847656,4.645712,2.066118,-2.510786,-1.589852
1002.851562,3.295550,-6.105399,1.686349,0.930077
1002.855469,-6.836532,-7.862415,1.953799,0.890872
1002.859375,-0.808443,-5.406226,-7.353820,-5.381770
1002.863281,-10.685244,-4.929132,-17.588181,-6.223080
1002.867188,-12.660989,-3.793694,-14.127879,-10.337874
1002.871094,-9.321749,-5.012136,-12.285809,-8.731691
1002.875000,-17.482409,-7.838596,-9.290050,-16.125579
1002.878906,-15.614057,-10.566590,-7.856193,-11.803106
1002.882812,-15.510104,-9.013302,-11.920788,-12.186881
1002.886719,-14.205839,-1.909873,-8.597230,-15.770780
1002.890625,-2.747296,-6.360919,-9.924541,-5.184557
1002.894531,-0.869170,-5.051406,2.121211,0.648838
1002.898438,0.357868,-6.691016,-1.034590,0.947909
1002.902344,4.538869,4.182422,0.674577,0.188610
1002.906250,-8.772865,-0.499582,5.968671,-1.467548
1002.910156,4.734340,7.912627,9.160901,11.107021
1002.914062,10.097189,-0.466390,7.665313,8.331673
1002.917969,8.409922,5.431458,3.865617,12.688384
1002.921875,11.988762,11.715348,16.313922,10.222225
1002.925781,15.496655,9.123457,4.008994,6.638625
1002.929688,0.485230,2.700647,15.437359,6.672761
1002.933594,5.059593,11.069839,10.485140,12.426335
1002.937500,0.241437,6.941436,13.403287,3.078061
1002.941406,5.953406,11.879462,3.719774,6.757248
1002.945312,6.367029,-1.824298,1.150115,4.049004
1002.949219,5.769496,-8.205523,4.366602,-1.059687
1002.953125,-4.141667,4.526471,-2.072646,-6.827189
1002.957031,-1.987827,-4.618497,-1.920972,2.613788
1002.960938,-9.982828,-11.063559,-6.059245,-10.125626
1002.964844,-6.914884,-7.186831,-3.753343,-7.819003
1002.968750,-12.725971,-4.124249,-12.990082,-13.418233
1002.972656,-11.910921,-8.020846,-9.877608,-5.749877
1002.976562,-14.395607,-5.460800,-7.611851,-8.836180
1002.980469,-5.527904,-8.967146,-8.633945,-8.851200
1002.984375,-7.247300,-12.974112,-8.508344,-9.132895
1002.988281,-3.843046,1.392760,-4.008977,-5.864862
1002.992188,0.313941,-4.399804,-2.393924,-6.389640
1002.996094,0.512275,-7.069619,-8.808516,-1.952394
1003.000000,10.924376,-3.242022,-4.826741,-2.566655
1003.003906,7.745029,5.562298,0.133507,7.391137
1003.007812,6.623374,7.769067,6.593785,6.426847
1003.011719,4.504559,8.476344,5.631507,9.416300
1003.015625,7.932584,10.046284,9.332905,8.260899
1003.019531,4.844147,17.498602,6.098430,15.447649
1003.023438,12.142069,10.807628,11.404054,10.530723
1003.027344,7.295561,8.857826,14.135915,13.879358
1003.031250,12.260984,10.699069,9.929139,15.070759
1003.035156,8.547849,1.681083,10.951037,6.446782
1003.039062,6.168073,1.889140,2.025666,11.785763
1003.042969,4.335779,-3.591976,6.746218,-1.260294
1003.046875,6.686963,-4.670982,3.747298,1.644347
1003.050781,5.356018,0.755503,-0.785343,-2.330544
1003.054688,4.594869,1.754456,-7.416311,-7.488115
1003.058594,-9.489197,-2.645502,-9.260261,-3.798599
1003.062500,-14.048079,-11.775426,-9.388284,-6.283522
1003.066406,-14.960976,-3.381169,-1.762472,-3.846462
1003.070312,-13.705157,-8.457495,-11.508317,-12.615667
1003.074219,-16.676571,-12.338296,-13.440268,-13.305497
1003.078125,-13.873719,-14.939954,-19.447412,-8.046678
1003.082031,-13.774461,-5.428987,-4.749541,-10.722836
1003.085938,-6.600595,-2.184587,-8.673536,-9.352677
1003.089844,-14.636107,-2.587856,-14.532321,-2.082373
1003.093750,-8.795678,-6.087165,-6.013759,-6.440608
1003.097656,10.393789,-2.691828,-9.849125,-4.448832
1003.101562,1.675278,8.260431,2.447385,0.513927
1003.105469,-3.639252,4.304489,-2.991650,8.368539
1003.109375,4.994418,6.859004,9.062219,7.240466
1003.113281,5.910940,-1.227046,1.576466,5.902495
1003.117188,7.540750,13.062410,5.223580,15.208397
1003.121094,16.071539,9.386648,9.006463,6.260164
1003.125000,7.677235,14.843314,12.569193,4.059454
1003.128906,5.045333,12.160395,6.999594,15.904221
1003.132812,9.903781,12.168751,7.704925,7.685901
1003.136719,13.812900,-1.377914,11.154926,8.596717
1003.140625,3.889322,3.146504,6.128986,7.457992
1003.144531,-3.272226,-0.359450,10.251582,1.343339
1003.148438,2.249895,-2.301608,0.116463,-1.022883
1003.152344,0.600128,-5.636498,-5.257883,7.890652
1003.156250,-1.395894,-3.069058,-5.851331,-9.794974
1003.160156,-6.123111,-2.340285,-4.875399,1.195808
1003.164062,-3.003769,-8.481954,-7.724273,-4.705714
1003.167969,-11.712709,-4.610741,-9.129377,-9.589582
1003.171875,-7.572655,-11.938104,-5.533308,-8.637907
1003.175781,-7.238369,-15.145688,-11.431684,-8.248289
1003.179688,-7.157894,-5.904605,-7.602032,-12.780330
1003.183594,-7.989658,-11.296520,-5.079058,-8.910488
1003.187500,-12.959202,-5.058276,-13.119433,-6.636730
1003.191406,-8.659259,-9.446497,-2.445097,0.715923
1003.195312,-8.284837,-1.648841,-4.987135,-6.421311
1003.199219,-0.540630,2.753847,2.101719,-7.470112
1003.203125,-2.049851,6.697722,-4.547453,-11.261537
1003.207031,-3.225114,4.166935,6.064737,10.425775
1003.210938,7.184588,5.296557,2.566179,1.883381
1003.214844,12.159362,-0.403050,10.763722,10.258312
1003.218750,6.069312,0.902611,14.330272,6.973570
1003.222656,10.532280,9.618499,12.501485,6.527083
1003.226562,9.397111,5.994661,5.965955,4.175367
1003.230469,12.814574,12.231464,6.887987,8.729564
1003.234375,11.464140,12.521642,13.329718,5.636238
1003.238281,11.218798,8.854998,6.168177,6.435612
1003.242188,3.701383,5.105686,3.880583,2.428444
1003.246094,2.581441,6.115553,1.326942,7.529519
1003.250000,-0.399378,1.746037,-6.702329,2.186859
1003.253906,2.404551,-3.708107,1.022639,-3.304309
1003.257812,-5.428045,-7.939552,-13.470755,-7.037312
1003.261719,-8.375135,-8.009128,-5.985757,-11.764727
1003.265625,-6.024899,-11.639087,-5.280371,-5.529421
1003.269531,-6.738649,-7.224428,-10.957888,-13.378072
1003.273438,-13.569604,-18.267569,-4.666669,-15.315971
1003.277344,-10.021401,-15.983064,-14.929553,-5.228337
1003.281250,-0.503680,-11.398156,-3.858073,-18.099583
1003.285156,-13.715307,-8.380174,-5.388597,-8.366843
1003.289062,-2.915529,-1.703005,-0.704631,5.215039
1003.292969,-5.445821,-7.524591,-4.571535,-0.391709
1003.296875,0.767299,-6.870700,4.440033,-5.861497
1003.300781,4.531129,-3.546698,5.046818,3.382017
1003.304688,-2.196250,0.969216,2.466671,-0.989356
1003.308594,3.766421,6.487517,9.254060,11.135722
1003.312500,3.297398,6.272217,0.205193,13.902038
1003.316406,2.920621,10.048128,5.938564,4.001911
1003.320312,14.942927,11.135965,3.931814,9.410186
1003.324219,7.693701,9.187134,17.863420,11.868070
1003.328125,11.625215,16.377706,1.618405,8.378121
1003.332031,11.664279,8.875695,9.159581,12.193947
1003.335938,7.596522,15.600029,13.452970,6.780920
1003.339844,0.018392,3.789822,13.559168,3.674950
1003.343750,2.453308,-0.481228,-1.297656,11.256890
1003.347656,0.265475,12.524355,0.435201,9.357203
1003.351562,-2.776576,-2.306017,-6.968560,3.830230
1003.355469,0.597589,-5.850540,-5.303572,-7.906563
1003.359375,-12.435037,-8.204357,-0.010960,-0.327443
1003.363281,-8.412721,-8.708473,-4.261593,-6.327056
1003.367188,-7.140772,-11.453822,-11.019969,-5.790107
1003.371094,-7.551816,-13.478836,-9.723481,-7.498739
1003.375000,-12.835078,-12.280127,-0.772065,-7.854407
1003.378906,-14.902305,-8.729186,-16.738867,-9.652505
1003.382812,-7.495232,-9.136575,-3.214774,-7.427505
1003.386719,-8.487302,-8.840315,-5.624281,-6.881290
1003.390625,-7.610317,-2.767376,-13.147058,3.812092
1003.394531,1.048396,-3.230305,-0.772924,0.680562
1003.398438,2.647425,6.490995,0.596908,0.140979
1003.402344,8.223855,-2.631678,4.136719,0.514123
1003.406250,-0.394965,15.689714,7.300472,-4.662082
1003.410156,9.535178,11.130736,5.381790,6.762633
1003.414062,11.052462,10.764438,14.604032,11.385046
1003.417969,15.009542,14.112569,13.744195,7.227630
1003.421875,2.014883,14.747494,16.162565,4.376440
1003.425781,13.353797,4.740358,11.784836,14.798424
1003.429688,12.654114,9.081197,14.094532,9.026037
1003.433594,14.613372,10.715147,6.612935,3.759647
1003.437500,1.996580,8.896102,11.853437,1.850134
1003.441406,5.440065,4.600925,-1.763935,5.990958
1003.445312,-7.168850,9.222999,1.186031,2.691227
1003.449219,-3.435568,-1.597225,-0.944000,-2.573790
1003.453125,-7.617045,-5.723289,-1.151026,-0.490967
1003.457031,2.302495,-7.047338,-5.381820,-2.532439
1003.460938,-2.918255,-8.827992,-0.752044,-5.702670
1003.464844,-5.241969,-11.062150,-9.655743,-5.855537
1003.468750,-3.020978,-6.644204,-9.706028,-7.817625
1003.472656,-6.507097,-1.005225,-11.776935,-9.700594
1003.476562,-13.963039,-14.928590,-9.926793,-7.569769
1003.480469,-7.032812,-14.722425,-1.771085,-2.783714
1003.484375,-6.657634,-11.491165,-18.152482,-7.807029
1003.488281,-8.740156,-4.255633,-14.582974,-0.976268
1003.492188,-5.858533,-7.526133,-3.608620,-3.544831
1003.496094,0.662470,2.685414,-2.451888,-8.234163
1003.500000,1.101568,6.726084,1.400892,1.343562
1003.503906,1.180015,-1.053321,6.878595,-1.792506
1003.507812,6.571497,5.047469,-0.821624,5.017223
1003.511719,4.527893,2.360086,2.848101,9.224467
1003.515625,1.149288,10.106514,8.352453,1.975473
1003.519531,6.825034,12.444872,6.997915,3.682243
1003.523438,9.910339,10.797074,9.491603,13.652905
1003.527344,18.162527,11.651798,11.658865,5.091379
1003.531250,9.636993,13.286647,10.016488,16.810450
1003.535156,7.578589,3.002284,7.394495,5.464766
1003.539062,13.308638,6.583057,14.585900,6.065212
1003.542969,2.536425,3.113324,-0.643963,6.653678
1003.546875,0.933994,-3.181610,-2.577026,3.325515
1003.550781,1.182396,-2.256458,2.882510,-4.042251
1003.554688,-1.457290,-3.059948,-6.370777,-9.987971
1003.558594,-7.388947,0.837280,-14.071032,-4.020458
1003.562500,-7.318464,-4.367191,-3.605557,-12.980884
1003.566406,-11.497890,-8.080824,-11.139428,-1.885952
1003.570312,-7.148050,-12.885064,-13.291048,-7.886673
1003.574219,-1.986191,-12.598740,-5.642541,-2.210459
1003.578125,-12.720845,-7.208801,-13.587717,-9.251289
1003.582031,-10.793387,-8.564793,-9.595671,-12.198042
1003.585938,-8.834269,-9.065883,-11.859963,-6.507496
1003.589844,-11.557249,-2.678295,-5.335293,-8.247183
1003.593750,-3.584290,-3.473103,-9.398461,-4.476728
1003.597656,-1.751852,-2.431273,-3.432865,-3.220461
1003.601562,-2.770287,4.435721,1.428725,9.182150
1003.605469,0.041829,6.819249,-0.538290,0.090252
1003.609375,5.347674,7.854198,3.667282,4.793525
1003.613281,8.703312,3.107158,11.880997,11.129532
1003.617188,12.272975,9.027749,15.803433,12.296934
1003.621094,6.169326,11.386351,6.281541,16.227592
1003.625000,3.180831,15.030731,12.965585,9.592650
1003.628906,9.856371,9.548032,12.470172,10.711810
1003.632812,8.141088,7.585244,9.591346,9.180772
1003.636719,2.601895,10.315766,9.065031,9.994670
1003.640625,11.954359,6.781719,12.469814,9.047568
1003.644531,4.571831,5.105134,3.365616,-2.741134
1003.648438,5.176534,-0.586810,-3.802985,-5.117967
1003.652344,0.367552,-2.065288,-1.818607,-0.489726
1003.656250,-8.654431,-5.233171,0.218240,0.038329
1003.660156,-6.041571,1.571606,-1.463422,-1.091171
1003.664062,-14.883371,-3.085037,-10.960473,-7.197559
1003.667969,-4.494184,-3.469118,-10.463106,-12.406793
1003.671875,-11.203285,-8.503105,-9.610311,-5.065958
1003.675781,-11.251242,-12.137742,-19.002693,-6.670885
1003.679688,-14.642210,-14.569535,-7.973810,-14.486592
1003.683594,-16.141919,-3.947106,-11.009882,-8.252645
1003.687500,-8.082103,-14.883371,-11.579138,-7.452836
1003.691406,-3.026774,-1.951202,-5.403709,-3.107366
1003.695312,-3.963964,-6.982843,2.213452,-3.117837
1003.699219,-8.164240,-0.625408,-0.771228,-8.391089
1003.703125,-5.167422,7.831036,-2.920759,0.324128
1003.707031,0.748567,2.892607,2.221742,9.450962
1003.710938,7.118591,9.930275,9.504128,5.588103
1003.714844,10.584722,10.756283,3.321659,5.238975
1003.718750,12.989255,9.980844,11.991673,11.630297
1003.722656,11.037478,6.253406,2.750882,5.003574
1003.726562,8.683306,2.282807,16.893700,8.776892
1003.730469,10.954762,4.761400,8.669836,11.921606
1003.734375,10.787343,3.558348,8.701383,7.068188
1003.738281,-0.338556,2.977991,7.646922,0.094135
1003.742188,6.327106,5.340811,5.897288,4.475480
1003.746094,2.958112,3.785431,-3.376904,1.641616
1003.750000,10.550825,3.118932,1.553889,2.924399
1003.753906,-1.916580,-0.239692,0.475198,0.175526
1003.757812,-2.575598,-0.005558,-1.015633,-3.745556
1003.761719,-5.807266,-4.489115,-12.618666,-11.018249
1003.765625,-8.477777,-4.886052,-9.311458,-8.729306
1003.769531,-7.285464,-7.271219,-7.897809,-13.303612
1003.773438,-12.184204,-13.212428,-9.735424,-15.105889
1003.777344,-7.227949,-6.503808,-2.336533,-6.944385
1003.781250,-13.671804,-12.164422,-4.222596,-6.895893
1003.785156,-12.880930,-8.193738,-7.809320,-13.106966
1003.789062,-5.060328,-7.444137,-9.445393,-1.163254
1003.792969,-2.872158,1.933289,-3.720108,-13.050204
1003.796875,-2.049278,0.734178,-3.118434,-0.078273
1003.800781,4.475073,1.102617,-4.376476,-1.247961
1003.804688,0.217316,9.994429,3.547114,3.552280
1003.808594,2.919414,7.975152,3.402585,4.529352
1003.812500,10.805645,12.095138,7.379496,8.324144
1003.816406,1.886414,6.036823,8.900299,9.778832
1003.820312,8.045783,8.493666,6.026515,3.643499
1003.824219,7.054236,10.142604,9.249815,0.459605
1003.828125,3.985230,6.539367,8.924248,5.483528
1003.832031,2.862873,9.611307,14.711810,5.377888
1003.835938,8.809389,9.103620,11.218048,-3.514781
1003.839844,7.453133,7.761492,4.584509,12.794748
1003.843750,-0.247209,9.841434,5.050589,0.753766
1003.847656,0.380209,0.230299,-1.093605,-1.286519
1003.851562,-6.103611,-5.078872,-4.462577,3.552686
1003.855469,-2.981888,-7.455454,1.835514,-8.368720
1003.859375,0.703184,0.905520,-8.155639,-5.473275
1003.863281,-0.839531,-3.206028,-15.417400,-6.443663
1003.867188,-8.505038,-9.679855,-5.062630,-0.855218
1003.871094,-8.061282,-13.983311,-16.946731,-10.380239
1003.875000,-8.396758,-8.851705,-6.265533,-15.504163
1003.878906,-11.878407,-6.502717,-11.611101,-7.212027
1003.882812,-6.614631,-10.218241,-6.690619,-14.742514
1003.886719,-5.500751,-11.478998,-5.586601,-9.020674
1003.890625,-11.908834,-6.635317,-8.062458,-6.035752
1003.894531,-6.098782,-6.508895,-5.047816,-3.560652
1003.898438,-4.880128,-3.282321,-1.044655,3.558113
1003.902344,0.660292,8.225685,-2.408324,2.955762
1003.906250,3.248049,1.864565,-1.212135,6.677238
1003.910156,5.834281,5.496215,5.368119,6.233593
1003.914062,12.326820,9.683826,10.962703,10.248036
1003.917969,13.637807,11.031620,12.575674,4.879412
1003.921875,11.923484,5.816203,6.787167,13.780735
1003.925781,13.956222,8.418729,13.036594,9.638148
1003.929688,5.570115,17.108475,17.611158,9.252671
1003.933594,13.728891,8.331473,7.461545,11.780738
1003.937500,8.776563,8.099025,4.377579,4.716534
1003.941406,2.048615,0.554948,7.631657,2.439035
1003.945312,0.988894,7.373287,0.791047,6.843378
1003.949219,-6.448159,-3.140101,3.461094,0.582577
1003.953125,1.868556,-3.376181,-3.296324,0.528025
1003.957031,-3.758107,-5.547256,-5.908291,-1.675079
1003.960938,1.664575,-11.357827,-9.333720,-7.880319
1003.964844,-6.797505,-9.257699,-8.373564,-7.397322
1003.968750,-8.097617,-8.463269,-9.123663,-3.323094
1003.972656,-11.367214,-9.032062,-4.438931,-12.268118
1003.976562,-11.716928,-4.565163,-11.691939,-4.733463
1003.980469,-13.045386,-8.992067,-13.032707,-12.223059
1003.984375,-7.226747,-16.825105,-5.037003,2.544351
1003.988281,-2.519910,0.520098,-5.502756,-9.479108
1003.992188,0.615170,2.254905,-7.290157,-7.123250
1003.996094,-1.199539,-8.872245,2.536850,0.033503
1004.000000,-2.328974,-4.973606,-1.627902,2.574496
1004.003906,-0.871319,0.513432,-0.257612,1.613009
1004.007812,7.195654,1.922173,3.448100,5.318296
1004.011719,4.169130,9.355993,7.332554,7.865290
1004.015625,7.219247,5.150321,7.357087,4.792302
1004.019531,11.121919,12.272961,10.920883,7.497057
1004.023438,7.510555,8.630788,15.041213,-1.309334
1004.027344,5.759012,17.122037,14.297718,12.831356
1004.031250,7.781837,12.077384,16.518550,15.205292
1004.035156,5.328714,7.055108,2.500571,4.381769
1004.039062,8.966011,1.021791,9.572992,8.219411
1004.042969,8.723698,6.308298,4.561309,6.415619
1004.046875,3.869112,0.852346,-1.790734,0.302978
1004.050781,-3.499426,-1.170481,-1.208668,-3.546043
1004.054688,-3.742428,-3.424210,-0.843610,-1.309714
1004.058594,-6.989528,-8.203814,5.412580,0.273338
1004.062500,-4.022598,-1.682542,-13.710099,-5.794153
1004.066406,-9.861289,-11.037949,-9.586112,0.530946
1004.070312,-13.251839,-8.956125,-14.568378,-14.186348
1004.074219,-15.676820,-11.854981,-13.815737,-11.493750
1004.078125,-8.191037,-8.401788,-12.132803,-7.463925
1004.082031,-5.845105,-0.465389,-6.276779,-12.232272
1004.085938,-3.936682,-5.578299,-10.137684,-5.637055
1004.089844,-5.632334,-5.647433,-4.345132,-6.879319
1004.093750,-5.627178,0.725470,-4.285375,-2.300242
1004.097656,4.668058,-3.580427,-3.188177,3.556543
1004.101562,6.922914,4.156317,2.442250,4.468483
1004.105469,3.491148,8.227937,5.403670,-0.556705
1004.109375,8.322276,2.638343,8.201885,1.521702
1004.113281,-0.066216,10.132013,2.051281,0.754697
1004.117188,7.409963,8.425513,8.443917,17.088051
1004.121094,8.176116,4.080797,7.557334,7.734910
1004.125000,7.487149,10.004943,11.070250,9.685632
1004.128906,17.499668,4.724051,9.474374,11.107586
1004.132812,7.034178,13.224447,4.733058,6.703515
1004.136719,8.979766,10.184141,7.615196,3.111107
1004.140625,7.408419,6.951055,9.279359,5.361449
1004.144531,7.696572,2.163945,3.708222,6.556225
1004.148438,-2.321850,4.959217,10.506315,1.670713
1004.152344,-3.202794,-1.817362,0.299841,-1.113101
1004.156250,-3.624240,6.923872,1.306663,-1.617836
1004.160156,-0.663478,-4.829969,0.646519,-9.180115
1004.164062,-4.025365,-9.139976,-10.261793,-9.398321
1004.167969,-5.316007,-7.388970,-17.570674,-3.171624
1004.171875,-11.611656,-10.829111,-7.076770,-12.407129
1004.175781,-4.289894,-7.156553,-11.808428,-8.265491
1004.179688,-5.984167,-8.590767,-9.948633,-15.347179
1004.183594,-12.988780,-2.781851,-14.329599,-11.179743
1004.187500,-2.837536,-1.198311,-10.620025,-11.363531
1004.191406,-6.562956,-8.821064,-8.529063,-5.545167
1004.195312,-8.823459,-0.788154,-1.440123,-9.434673
1004.199219,-1.758879,-0.651607,-3.189942,-0.454347
1004.203125,-1.627216,8.452377,-1.289844,2.200206
1004.207031,9.896774,6.882196,9.623928,5.718384
1004.210938,9.055832,5.163763,7.792035,6.850291
1004.214844,8.498321,9.131518,5.901699,11.130456
1004.218750,10.974995,13.019588,16.222310,3.275287
1004.222656,7.888280,9.566498,13.188113,9.751110
1004.226562,8.285258,10.718931,16.183909,10.606967
1004.230469,11.226211,-1.053567,2.928259,9.804357
1004.234375,7.965658,5.655637,7.139738,4.710150
1004.238281,7.875222,6.519214,3.255994,5.220918
1004.242188,7.690901,6.376051,1.202364,3.541564
1004.246094,1.567140,-3.061998,6.270372,7.272822
1004.250000,2.877989,-4.070880,-1.444166,3.607781
1004.253906,-6.882179,4.177515,7.889679,-1.852324
1004.257812,-9.581463,-6.088449,-9.987184,1.219282
1004.261719,-3.381142,-10.500913,-7.551799,-13.032995
1004.265625,-12.727643,-3.818703,-11.293955,-1.633912
1004.269531,-11.422964,-12.062187,-7.441416,-15.042168
1004.273438,-9.024026,-5.759001,-9.617567,-7.064916
1004.277344,-2.836785,-8.674516,-12.015519,-6.238388
1004.281250,-11.952018,-6.473733,-8.156194,-5.879666
1004.285156,-7.861535,-18.286707,-6.571805,-0.027560
1004.289062,-5.269699,-8.524862,-0.135203,-10.600124
1004.292969,2.439972,-2.999842,-3.206353,-3.567091
1004.296875,4.092824,-4.383453,-7.585319,-3.194463
1004.300781,-0.885222,-1.303657,1.976684,-1.482978
1004.304688,3.648357,7.325733,9.736615,3.057941
1004.308594,-2.684255,2.571014,8.809567,-1.696145
1004.312500,13.353495,8.340420,-4.852008,5.419492
1004.316406,6.591258,5.373484,10.325799,14.039787
1004.320312,-2.752456,12.404670,15.421443,3.553329
1004.324219,12.665165,12.152174,8.555795,5.063786
1004.328125,10.739744,5.510983,2.908901,5.369716
1004.332031,9.356021,12.150617,-2.236231,11.273105
1004.335938,2.017744,11.407285,8.858206,9.573593
1004.339844,6.968137,4.655375,15.828864,13.344027
1004.343750,11.036835,5.673543,0.979038,-2.432774
1004.347656,2.280514,7.184390,-3.087217,1.844532
1004.351562,-6.393042,1.103652,-0.042016,3.407071
1004.355469,-4.599253,0.362576,-4.554259,1.498581
1004.359375,0.282960,6.412426,-13.033057,-4.942694
1004.363281,-2.055862,-3.078201,-6.825428,-5.405053
1004.367188,-4.660522,-8.590040,-7.774806,-6.666762
1004.371094,-11.287583,-2.812587,-17.968282,-9.872592
1004.375000,-13.013682,-13.313526,-12.492062,-12.538481
1004.378906,-3.997617,-17.176497,-13.238486,-11.797985
1004.382812,-13.523188,-6.750408,-4.595596,-13.843045
1004.386719,-9.572208,-5.890857,-5.188954,-2.220867
1004.390625,-8.127568,-0.112760,-0.385131,-9.268611
1004.394531,-0.413483,0.079059,2.008573,-0.742744
1004.398438,7.384027,-4.146792,5.596042,6.405142
1004.402344,9.276393,-2.075878,0.570685,4.425969
1004.406250,1.234969,2.546904,2.705205,7.224249
1004.410156,6.013646,6.768625,7.431277,-3.037851
1004.414062,14.147100,1.252302,11.218342,8.553868
1004.417969,5.893455,13.548550,11.863199,4.102150
1004.421875,15.575274,17.479150,8.169459,1.920573
1004.425781,7.404758,17.872384,10.493510,19.372904
1004.429688,10.508710,6.035339,9.930485,11.446541
1004.433594,5.640390,0.980932,5.567607,9.741087
1004.437500,13.782117,2.714805,11.367079,6.337010
1004.441406,5.073525,5.901905,9.967899,-3.511538
1004.445312,8.516038,0.019925,-1.959000,1.712076
1004.449219,6.171436,0.737647,-0.628643,4.300578
1004.453125,3.687656,-4.647372,-5.811472,-5.737256
1004.457031,-5.752469,-5.447160,-7.349574,-1.824737
1004.460938,-12.700282,-12.520347,-7.743117,-6.877174
1004.464844,-13.120139,-10.864460,-4.930881,-6.585974
1004.468750,-6.069208,-8.727456,-10.430880,-7.351649
1004.472656,-7.086862,-3.812340,-9.969966,-17.871938
1004.476562,-2.248629,-6.338800,-8.574745,-11.748798
1004.480469,-13.179168,-8.708763,2.575644,-10.587790
1004.484375,-19.301006,-12.263388,-6.961473,-13.580280
1004.488281,-12.378825,-4.307216,-5.934169,-0.346904
1004.492188,-11.144097,-3.938065,1.879043,-9.808932
1004.496094,-2.372869,-2.173975,0.021354,-6.515676
1004.500000,2.088337,3.184691,3.313261,-1.179669
1004.503906,4.328677,7.376324,0.996645,5.333835
1004.507812,2.212120,1.235863,0.850830,9.114736
1004.511719,2.978291,9.111207,2.467422,4.385866
1004.515625,16.472473,9.655651,10.893945,15.368389
1004.519531,5.788873,10.220852,11.019531,4.925414
1004.523438,14.226378,11.628673,18.339790,6.553119
1004.527344,4.517186,7.193368,6.138510,13.812387
1004.531250,3.668193,8.170856,6.220999,5.027407
1004.535156,6.526165,10.058690,-1.587302,-1.291696
1004.539062,4.676170,6.416856,8.670703,12.930425
1004.542969,-1.002118,5.240006,5.573414,0.164511
1004.546875,-3.028613,-2.022995,1.495337,5.293963
1004.550781,-0.483583,2.518169,7.200867,-3.282310
1004.554688,2.470835,1.553919,-8.955536,1.898543
1004.558594,-8.920862,-4.581515,-4.947735,-2.087398
1004.562500,-9.379565,-6.578410,-4.661862,-7.002329
1004.566406,-8.616685,-3.187471,-10.987328,-9.382753
1004.570312,-12.766521,-7.248047,-19.369281,-16.186552
1004.574219,-17.657795,-6.351546,-12.019152,-7.848856
1004.578125,-6.060984,-8.107505,-13.628319,-5.536000
1004.582031,-10.929067,-8.357778,-9.776792,-15.343594
1004.585938,-2.961751,-10.595169,-6.871741,-0.362012
1004.589844,-2.612980,-9.181637,-1.702764,-11.412313
1004.593750,-3.855045,-10.434945,-0.428124,-4.021665
1004.597656,-0.652204,4.118065,-0.149650,-0.129737
1004.601562,8.442289,1.551746,-3.556993,0.161792
1004.605469,0.790386,4.050653,2.689325,5.711543
1004.609375,6.188295,11.104847,12.556198,-2.930870
1004.613281,8.387355,14.812442,9.016204,9.926194
1004.617188,6.051570,4.340214,11.385486,10.450934
1004.621094,11.561464,3.562548,5.234520,9.780040
1004.625000,9.459645,8.952094,13.858299,1.619337
1004.628906,5.296710,11.560455,11.491198,6.515408
1004.632812,7.299733,8.105536,9.392706,7.472308
1004.636719,8.567206,5.205039,9.691624,14.261379
1004.640625,3.768818,10.122303,3.668362,6.380558
1004.644531,7.029553,-1.150822,1.179412,3.260753
1004.648438,-0.854165,1.640021,2.150874,-2.355392
1004.652344,0.626220,-1.424605,-4.128798,-0.676358
1004.656250,0.561724,-7.724091,-4.861798,-11.742641
1004.660156,-12.117144,-2.098262,-8.111787,-4.062778
1004.664062,-9.120100,-3.123252,-8.646518,-1.845463
1004.667969,-5.972744,-11.494983,-8.621994,-13.328854
1004.671875,-6.727363,-19.285327,-3.641232,-14.361951
1004.675781,-2.833053,-2.231206,-12.017409,-8.299472
1004.679688,-4.166672,-6.684912,-5.958744,-12.016878
1004.683594,-7.964351,-4.790440,-10.996124,-11.157201
1004.687500,-1.292332,-5.155508,-12.539502,-3.630165
1004.691406,-10.551354,-9.199201,-8.893788,-3.833238
1004.695312,-17.660972,-5.677273,-2.039078,-4.719236
1004.699219,-6.478810,3.928183,-5.196991,-3.776101
1004.703125,-3.967812,3.162935,4.241303,1.725742
1004.707031,6.838532,3.098885,4.090075,1.143010
1004.710938,13.081680,3.268244,8.771224,7.083308
1004.714844,9.007425,4.232308,4.535684,17.437653
1004.718750,5.635630,15.024443,12.479782,15.054332
1004.722656,4.003152,6.606791,6.685977,11.305818
1004.726562,7.187568,14.830653,10.356457,9.944468
1004.730469,8.377432,8.875206,8.374698,7.341242
1004.734375,15.295282,17.047088,12.609197,11.421921
1004.738281,7.563828,1.604113,-2.233479,4.206170
1004.742188,3.738310,9.377046,8.943445,5.424445
1004.746094,-1.171878,7.563607,0.159074,0.223146
1004.750000,-0.768255,-5.974634,1.570613,-2.555256
1004.753906,-3.565013,-5.544040,2.338050,-7.557689
1004.757812,-9.083460,-10.688785,-4.892272,-7.614122
1004.761719,-4.293039,-1.151982,-3.969795,-8.232366
1004.765625,-5.649710,-13.052235,-8.139536,-6.286841
1004.769531,-15.838782,-12.037340,-5.437223,-6.018009
1004.773438,-5.861501,-14.964582,-4.479116,-10.847712
1004.777344,-8.421598,-2.303475,-14.548627,-12.034564
1004.781250,-3.416025,-12.862858,-8.736118,-9.572988
1004.785156,-1.686185,-10.099228,-10.417159,-5.114903
1004.789062,-5.194678,-2.618438,-7.758257,-10.906555
1004.792969,-1.474480,2.605720,-3.958251,-2.109876
1004.796875,-3.267082,4.490221,4.889773,-2.756814
1004.800781,-0.520505,-9.771132,-1.780032,-0.296647
1004.804688,9.086012,7.294089,6.383064,7.050826
1004.808594,4.710898,2.172717,3.157870,10.219645
1004.812500,3.305789,8.133737,4.874462,0.462801
1004.816406,13.514053,2.859521,15.638637,12.651795
1004.820312,7.453799,6.004887,3.457615,9.739529
1004.824219,16.935356,8.208148,17.849492,8.665668
1004.828125,11.468934,2.319903,7.816699,6.817677
1004.832031,16.814894,6.800316,7.041768,3.866708
1004.835938,12.330098,5.085636,5.753394,11.985037
1004.839844,6.134634,-3.183770,-0.350004,4.104671
1004.843750,9.453614,10.063713,7.737094,1.705232
1004.847656,7.811489,-4.771724,0.460316,5.842485
1004.851562,5.310470,-0.610495,0.367836,1.195344
1004.855469,2.479556,-2.527809,-2.250817,-6.793466
1004.859375,-6.141217,-4.228686,-4.882113,-8.132388
1004.863281,-9.099991,6.846354,-3.430755,-3.630063
1004.867188,-6.926512,-8.990839,-5.300337,-3.220544
1004.871094,-10.571957,-20.646534,-13.645996,-10.900085
1004.875000,-12.462702,-21.072725,-14.341268,-7.021893
1004.878906,-10.051874,-9.788645,-13.164308,-12.367468
1004.882812,-16.540050,-5.791262,-11.758206,-10.955272
1004.886719,-4.434428,-13.197362,-4.466371,-1.643448
1004.890625,-4.534924,-6.222318,-5.970811,-3.860952
1004.894531,-6.313042,-7.600309,-10.317138,-3.494249
1004.898438,-1.931042,1.436553,1.987557,2.171673
1004.902344,-2.954511,-3.397318,2.832054,-5.370685
1004.906250,9.657474,5.875889,3.485776,4.982496
1004.910156,0.150134,6.062819,7.670444,4.847611
1004.914062,5.938499,4.462087,4.436161,3.991803
1004.917969,15.024926,4.693180,5.328224,11.077139
1004.921875,9.353126,5.564427,9.085333,16.050816
1004.925781,9.876557,16.191823,0.403815,8.607243
1004.929688,9.194195,11.333171,9.652502,11.680259
1004.933594,18.728267,5.369733,16.632732,6.312893
1004.937500,11.717988,12.631119,3.365186,3.774140
1004.941406,2.808795,6.457202,4.412016,5.549525
1004.945312,2.819985,3.568438,2.694137,-0.264332
1004.949219,9.900423,-2.868800,3.165505,2.674014
1004.953125,-5.270915,0.400780,-1.075575,-2.239204
1004.957031,0.459586,-6.407632,-3.895587,-3.439821
1004.960938,-5.123734,-1.388444,-9.471814,-3.336735
1004.964844,-8.117351,-5.716680,-8.454458,-4.665033
1004.968750,-12.327254,-12.051873,-13.120464,-12.140136
1004.972656,-9.185177,-11.753123,-16.103784,-11.296069
1004.976562,-17.580482,-12.010974,-1.873079,-4.080483
1004.980469,-13.279224,-8.192539,-19.446461,-7.742137
1004.984375,-8.451221,-3.826145,-7.292565,-4.654382
1004.988281,-1.159360,-6.604020,-1.655378,-0.064936
1004.992188,-3.693962,-1.792065,-8.080118,-10.708300
1004.996094,-10.510293,-4.789975,-1.958016,-4.759756
1005.000000,1.101744,5.211053,-1.351157,1.859065
1005.003906,1.727581,-1.074547,2.716359,-4.779784
1005.007812,3.802903,8.323956,2.588690,-1.520934
1005.011719,4.425352,2.416053,6.737076,5.404271
1005.015625,2.915801,4.100828,7.786910,8.192745
1005.019531,10.365991,12.444953,5.160270,13.795072
1005.023438,3.792624,9.352673,1.451797,12.569156
1005.027344,12.668040,9.776564,3.067175,13.563919
1005.031250,12.688987,5.042855,7.863874,16.529299
1005.035156,18.494395,11.132655,8.624011,12.635502
1005.039062,5.254420,10.625459,1.891220,6.657435
1005.042969,8.092139,4.642267,2.868001,1.489113
1005.046875,0.377867,9.427698,5.003759,3.738229
1005.050781,-6.027903,-1.893780,-0.838080,1.650936
1005.054688,-1.564296,-1.923174,-3.067438,3.548423
1005.058594,1.682558,-3.065803,-4.236347,-11.809665
1005.062500,-11.472408,-6.938242,-4.215179,-3.147747
1005.066406,-6.036239,-16.535653,-12.602374,-11.114776
1005.070312,-11.060827,-15.542546,-11.496890,-12.922011
1005.074219,-5.190841,-6.343267,-10.052300,-2.728552
1005.078125,-5.196524,-12.359863,-11.121742,-6.189846
1005.082031,-12.222418,-7.446609,-6.093008,-7.080996
1005.085938,-8.617116,-3.090386,-3.754612,-15.014947
1005.089844,-4.448538,-2.178718,-9.777046,-7.861318
1005.093750,-0.141729,-0.758602,-3.554563,-4.941346
1005.097656,-4.936219,2.591657,-0.212428,4.405899
1005.101562,-1.358290,6.983309,2.504282,2.874481
1005.105469,9.417779,4.419739,3.859062,12.013701
1005.109375,7.373569,14.839684,3.881895,-4.481440
1005.113281,10.010284,6.506491,10.675699,7.382327
1005.117188,12.474274,9.595245,4.965386,6.332172
1005.121094,9.355285,6.895474,4.595478,5.477243
1005.125000,6.221737,6.045868,10.799042,8.932639
1005.128906,13.083734,8.719969,13.752994,3.858723
1005.132812,6.459829,9.996334,11.738968,6.178833
1005.136719,5.344760,9.314372,1.220016,8.345642
1005.140625,5.903878,8.574605,10.854107,1.967684
1005.144531,6.567634,-0.397740,3.511653,1.292732
1005.148438,1.610415,-3.659718,0.724900,2.257000
1005.152344,-1.999506,-2.027285,-2.350778,0.723874
1005.156250,0.433020,-6.830769,-7.658669,-10.258006
1005.160156,-7.617659,-4.526467,-5.214158,-10.797435
1005.164062,-6.395520,-11.265057,-9.635642,-2.438335
1005.167969,-11.428232,-12.519161,-11.588418,-9.443279
1005.171875,-6.033043,-5.193850,-10.511194,-12.368994
1005.175781,-2.229087,-9.458845,-9.984078,-12.896281
1005.179688,-10.112933,-12.604452,-11.385812,-19.504901
1005.183594,-9.445827,-12.728888,-6.325823,-12.132587
1005.187500,-7.988127,-3.837418,-8.452707,-0.559433
1005.191406,-4.120870,-8.310268,-9.326735,-8.909819
1005.195312,-2.133549,-11.719108,-2.321729,-4.411918
1005.199219,-2.231591,1.117093,1.921666,-4.929291
1005.203125,2.671610,-4.053315,-3.430703,3.967461
1005.207031,8.132977,3.729169,5.713331,5.029285
1005.210938,10.109507,10.794746,2.076779,9.873396
1005.214844,9.319657,15.850351,10.474375,8.005306
1005.218750,9.956925,7.506519,10.109331,8.965458
1005.222656,9.673889,5.282335,1.585984,0.261618
1005.226562,8.356770,6.970563,9.754026,4.427380
1005.230469,8.010656,8.758365,12.914526,2.091945
1005.234375,7.989732,15.857624,2.498572,11.902628
1005.238281,1.344987,5.863546,7.610208,-2.399849
1005.242188,6.475465,7.727640,0.479359,9.475967
1005.246094,5.294361,-0.041643,-0.119602,-3.471745
1005.250000,1.711592,-0.185176,2.185699,2.974591
1005.253906,-1.914477,-2.846054,-4.453479,-1.090156
1005.257812,-1.938666,-3.005619,-6.395533,0.530120
1005.261719,-7.432672,-9.952939,-1.551686,-4.397388
1005.265625,-1.409883,-8.115601,-15.571378,-13.116773
1005.269531,-5.765115,-9.215940,-0.957431,-9.681154
1005.273438,-10.197799,-8.454442,-7.882313,-8.590076
1005.277344,-3.083703,-7.415783,-17.863000,-12.109674
1005.281250,-6.726885,-15.604614,-10.990826,-9.012240
1005.285156,-2.680780,-4.018470,5.529052,-8.620270
1005.289062,-4.271712,-11.164778,-2.438521,-1.920761
1005.292969,-1.808804,-7.308681,-5.712585,-9.181416
1005.296875,-4.590419,-1.841548,-7.668048,-3.415767
1005.300781,4.581247,-0.627805,-0.884834,3.038040
1005.304688,-1.112872,8.132223,-6.072992,-4.052409
1005.308594,6.315559,1.583864,10.494158,3.538642
1005.312500,9.581237,2.220658,1.748860,8.642480
1005.316406,5.520481,14.250349,11.434612,5.778650
1005.320312,9.465866,12.768898,3.127912,14.260673
1005.324219,16.875834,1.726227,10.631167,1.653747
1005.328125,19.903802,8.492336,9.064575,13.957477
1005.332031,6.735828,13.246564,9.664567,13.391045
1005.335938,0.658091,10.429660,18.284266,10.823760
1005.339844,6.428881,6.352069,7.139138,5.326678
1005.343750,8.315062,5.757128,-0.451178,0.202407
1005.347656,0.968934,0.621039,-5.248019,-0.262083
1005.351562,-3.320031,1.406856,-2.022023,1.540326
1005.355469,-1.553748,-6.593329,-11.595386,-4.670665
1005.359375,-7.446336,-6.268508,-6.505416,-7.145655
1005.363281,-5.665644,-7.175936,-12.094593,-14.003184
1005.367188,-6.543593,-13.446523,-10.491656,-8.034767
1005.371094,-14.698460,-10.392245,-5.181348,-12.153973
1005.375000,-7.111720,-13.297489,-19.515042,-13.724920
1005.378906,-6.055590,-5.188952,-11.803066,-9.925760
1005.382812,-12.974249,-8.535563,-8.066215,-9.626046
1005.386719,-6.752137,-8.720214,-8.673582,-12.925903
1005.390625,-7.598563,-7.203651,-3.675762,-8.294701
1005.394531,-4.638104,-10.224103,-1.307342,-4.790724
1005.398438,-0.917107,-1.367846,4.573363,4.657954
1005.402344,6.468723,-2.071671,1.947150,1.862478
1005.406250,2.213140,3.728031,-1.355808,1.317180
1005.410156,10.242681,3.058907,1.313556,12.077948
1005.414062,7.227626,5.094660,4.177372,1.469289
1005.417969,3.497622,6.295620,8.555082,5.362950
1005.421875,6.054269,9.077268,7.880113,8.465411
1005.425781,8.373166,9.401735,9.391599,3.785428
1005.429688,8.511980,3.618259,2.675414,11.201640
1005.433594,10.481463,9.772086,7.983589,12.118116
1005.437500,8.073885,3.120218,6.938266,13.647841
1005.441406,8.847961,2.810607,15.151335,9.120783
1005.445312,-0.850913,0.641956,12.969177,2.359664
1005.449219,7.536781,-2.823516,6.705355,0.172297
1005.453125,-5.093317,-0.534909,3.121161,2.971791
1005.457031,-2.428620,-5.260416,1.140535,-3.661126
1005.460938,-8.826767,-6.044132,-10.725699,-6.082291
1005.464844,-8.203166,-6.748350,-2.321124,-11.193157
1005.468750,-14.794356,-8.708325,-9.651003,-7.074482
1005.472656,-11.503225,-9.011812,-13.172172,-11.414189
1005.476562,-9.476351,-13.380677,-7.007804,-12.918905
1005.480469,-14.792438,-12.822436,-7.050880,-14.740993
1005.484375,-16.140774,-11.034043,-11.217208,-7.021329
1005.488281,-11.168543,-6.941606,-8.860942,-10.555774
1005.492188,-3.934550,-4.386907,-3.593306,-2.418183
1005.496094,-4.297971,-5.858905,0.606060,-3.675581
1005.500000,-2.077135,-2.380446,-0.128729,8.500317
1005.503906,-1.641490,3.127197,2.749516,2.855984
1005.507812,8.011157,7.083317,6.633052,1.906607
1005.511719,5.864187,7.903033,9.356509,9.249504
1005.515625,4.039760,5.674273,11.233609,6.410112
1005.519531,9.090001,15.443843,5.847935,5.691824
1005.523438,15.780657,9.492258,18.925374,9.756520
1005.527344,1.178219,11.333040,1.372941,17.334951
1005.531250,9.974339,11.593634,8.297582,11.163673
1005.535156,13.426909,11.109344,12.164283,7.319899
1005.539062,4.098842,1.163695,3.295407,13.164365
1005.542969,6.622165,5.321611,4.520844,-1.336134
1005.546875,-3.851064,1.067323,0.400961,-3.804701
1005.550781,2.820751,2.951777,-2.187520,2.099747
1005.554688,-0.312966,-6.730682,1.752368,-4.307485
1005.558594,-2.733561,-7.844764,-2.942300,-6.605597
1005.562500,-2.839937,-7.573771,-0.391996,-10.209957
1005.566406,-3.429957,-8.078163,-9.717683,-7.929741
1005.570312,-11.652653,-16.399901,-6.925310,-18.874386
1005.574219,-10.062163,-5.847858,-9.843557,-13.384263
1005.578125,-12.980611,-14.786857,-2.820337,-10.819727
1005.582031,-4.658501,-12.849634,-7.939673,-8.061177
1005.585938,-6.118649,-5.999953,-7.104076,-5.911819
1005.589844,-9.283909,-7.055002,-4.412765,-7.989950
1005.593750,-2.054323,-3.572224,6.643103,-9.137786
1005.597656,2.044141,1.567036,-4.933579,1.250821
1005.601562,0.194380,-1.063779,8.205343,6.091686
1005.605469,3.955433,0.523590,8.837245,2.823562
1005.609375,8.192501,10.302793,6.124441,4.868133
1005.613281,-2.127423,9.342643,3.440477,-5.380868
1005.617188,15.972042,0.371298,9.550897,0.966962
1005.621094,8.425688,9.606353,9.139142,4.820788
1005.625000,10.377716,6.055037,18.048265,15.024487
1005.628906,8.703115,5.517816,8.645981,10.194390
1005.632812,11.927382,5.229516,5.170162,13.041689
1005.636719,12.469821,13.241414,6.284158,3.983970
1005.640625,8.750842,3.795685,2.829552,5.496630
1005.644531,6.972071,3.142937,1.299688,5.255894
1005.648438,4.545281,-1.436289,8.421677,1.160082
1005.652344,-3.330612,-3.596484,0.697911,0.962201
1005.656250,-0.140704,-1.629328,-6.204513,-3.729040
1005.660156,-11.387677,-4.013321,-4.262555,-7.521053
1005.664062,0.904572,-11.657724,-16.348982,-2.807037
1005.667969,-11.703873,-10.810803,-8.835754,-4.013594
1005.671875,-5.465847,-16.196448,-8.212507,-7.923476
1005.675781,-8.770481,-10.426475,-13.194819,-13.496796
1005.679688,-4.301702,-10.166784,-7.693374,-12.503682
1005.683594,-9.806183,-14.356068,-7.711492,-10.628112
1005.687500,2.559459,2.375655,4.073691,-6.054082
1005.691406,-8.045093,-8.501765,-7.030571,-1.248970
1005.695312,-1.984441,-2.508258,-4.567507,0.311467
1005.699219,4.530395,4.445141,-4.453450,-1.040016
1005.703125,-2.002500,0.230542,0.356740,-3.694267
1005.707031,3.799401,3.003943,-0.225183,5.523324
1005.710938,3.590472,-0.183560,3.856417,5.355547
1005.714844,10.847733,7.269683,4.198171,5.054565
1005.718750,13.060302,12.660534,9.006912,16.608982
1005.722656,7.136034,5.112469,7.740868,10.684622
1005.726562,6.887909,10.689528,12.246532,14.387451
1005.730469,10.095223,10.553828,11.675231,6.492281
1005.734375,5.682940,3.442678,13.852979,6.894045
1005.738281,1.509800,2.393338,9.478603,3.153543
1005.742188,-1.451125,6.371782,4.155450,7.315339
1005.746094,1.933252,-2.542396,1.705996,6.684855
1005.750000,1.818624,1.335483,4.410162,0.205934
1005.753906,1.300656,-5.120874,-4.200444,-4.691110
1005.757812,-4.470640,-4.899457,-8.160263,-0.737932
1005.761719,-8.303423,-12.426037,-5.788641,-8.451998
1005.765625,-7.004653,-2.837019,-4.588680,-6.835577
1005.769531,-4.963660,-7.737460,-12.800874,-11.806565
1005.773438,-8.607214,-14.604916,-10.070745,-7.303487
1005.777344,-9.375152,-1.555712,-16.355979,-5.675539
1005.781250,-7.474264,-6.620034,-6.960827,-13.603401
1005.785156,-4.792011,-9.978968,-10.738609,-6.167336
1005.789062,-7.794594,-7.578120,-9.557189,-6.934082
1005.792969,-10.909836,-2.322697,-2.644578,0.595068
1005.796875,-7.368954,-15.913160,-4.313771,1.593379
1005.800781,-2.041283,-4.104481,3.000603,-4.464992
1005.804688,11.237507,2.515412,-5.189129,-3.902302
1005.808594,9.910241,6.794722,7.629654,5.049061
1005.812500,10.922583,10.748640,13.391366,12.314649
1005.816406,7.774184,13.987595,8.405702,8.526738
1005.820312,5.761016,6.964253,1.361786,10.594043
1005.824219,15.194005,11.154302,17.694915,11.199087
1005.828125,10.667906,12.478993,-0.174923,8.382503
1005.832031,10.894960,11.192883,9.616476,9.322482
1005.835938,5.979624,6.941485,6.725853,7.137335
1005.839844,-1.188555,0.922531,1.382950,11.099233
1005.843750,0.933008,4.577041,6.105023,5.798732
1005.847656,3.202848,3.902371,0.188408,14.532175
1005.851562,13.389320,-3.696615,-2.219464,4.360264
1005.855469,-1.784925,-10.922517,-4.422175,-1.754707
1005.859375,-4.292069,-6.989486,-4.618411,-6.874732
1005.863281,-13.692303,-9.343914,-7.087416,-13.098091
1005.867188,-6.956895,-4.590947,-3.169365,-7.263448
1005.871094,-6.450131,-3.339395,-11.526451,-7.143133
1005.875000,-5.579355,-4.132817,-3.720582,-7.071180
1005.878906,-12.769462,-6.633663,-9.464046,-6.369992
1005.882812,-11.180679,-8.272276,-12.774442,-12.419145
1005.886719,-5.337324,-0.895702,-3.729714,-4.398813
1005.890625,-4.533795,-2.988802,-2.747382,-5.331695
1005.894531,-3.692597,-5.295155,-1.977179,0.181383
1005.898438,3.666233,-3.642346,-0.469158,2.569807
1005.902344,0.572804,8.914298,-2.852933,-2.204965
1005.906250,3.327567,2.113802,-0.209669,7.367542
1005.910156,2.514760,2.598933,7.012773,11.201131
1005.914062,7.093558,6.828394,1.572664,11.250625
1005.917969,13.212236,10.823533,10.423298,10.560852
1005.921875,8.065178,16.376683,8.862064,4.901126
1005.925781,10.279866,9.726563,14.666351,18.354807
1005.929688,6.017415,5.282278,7.591600,10.903158
1005.933594,16.150081,15.389051,15.862446,6.737473
1005.937500,15.225609,2.513025,8.513509,7.386159
1005.941406,8.594106,6.668628,6.273224,3.477942
1005.945312,-0.347066,5.666055,10.943620,2.633521
1005.949219,7.399477,9.189398,5.252270,-2.367136
1005.953125,-7.615818,-7.855939,-4.464460,-2.778884
1005.957031,-7.765862,-9.504745,-0.290042,-5.919109
1005.960938,-10.548204,-4.597626,-11.012046,-9.830242
1005.964844,-7.486548,-10.461724,-5.418138,-4.323104
1005.968750,-7.113474,-5.826242,-7.033142,-10.931613
1005.972656,-9.527086,-9.473933,-11.009542,-12.851537
1005.976562,-15.576775,-17.350228,-7.734232,-12.196662
1005.980469,-14.349410,-16.229802,-7.137316,-14.366078
1005.984375,-10.782153,-11.880189,-4.376199,-11.038233
1005.988281,1.678301,-6.480343,0.423135,-5.068666
1005.992188,-1.886607,-6.855955,1.657651,-8.995460
1005.996094,5.348314,-7.938531,5.161825,2.038570
1006.000000,0.764543,-9.358539,-3.073702,-3.816638
1006.003906,6.222912,-3.044316,-3.172581,0.659862
1006.007812,1.381284,3.670909,2.782043,1.241512
1006.011719,8.107491,10.171232,8.853458,6.125748
1006.015625,5.125546,9.062247,5.803565,6.539964
1006.019531,17.734520,9.264344,18.732776,14.211285
1006.023438,4.718004,11.106005,9.422066,6.274112
1006.027344,17.580416,11.721965,14.654358,14.718705
1006.031250,6.816641,5.755898,13.053513,12.470995
1006.035156,4.664632,7.860851,4.951355,9.360763
1006.039062,3.979029,4.584390,2.325917,14.955432
1006.042969,2.911172,6.533121,7.095730,4.983575
1006.046875,10.664873,-5.699312,6.880792,-2.878474
1006.050781,-3.435097,5.091677,-2.457903,3.259129
1006.054688,1.392831,-4.153704,-8.687452,-8.588332
1006.058594,-0.490044,-6.105435,-2.335545,-4.043952
1006.062500,-7.979565,-6.467702,-11.033901,-10.164126
1006.066406,-5.391801,-9.802100,-5.491359,-7.410894
1006.070312,-13.097098,-10.767738,-13.272473,-14.097714
1006.074219,-4.233212,-11.697756,-18.892574,-2.789408
1006.078125,-5.319069,-5.869669,-11.757883,-22.556876
1006.082031,-9.707846,-7.048945,-11.641072,-5.715853
1006.085938,-7.227689,-10.349351,-8.881035,-12.383326
1006.089844,-5.889421,-4.070080,-3.079970,-9.143913
1006.093750,-3.484330,2.569499,-6.345121,-2.907872
1006.097656,-2.743125,-3.521539,-0.386828,-5.055912
1006.101562,-2.612582,7.387380,-3.411839,-0.955966
1006.105469,3.010621,1.527359,9.291635,2.615241
1006.109375,8.317440,7.496712,7.860388,2.735227
1006.113281,7.410633,8.760785,13.936562,8.997854
1006.117188,15.380878,2.851199,11.815704,8.840924
1006.121094,11.244816,15.108268,6.487311,5.235417
1006.125000,12.193110,15.517840,5.610250,6.600180
1006.128906,6.142575,15.211698,1.859692,18.131646
1006.132812,5.689964,15.820008,5.920347,9.773103
1006.136719,12.202791,11.179120,6.961985,2.844891
1006.140625,3.788083,5.783841,6.433706,12.439182
1006.144531,3.070917,4.573907,2.143886,1.754276
1006.148438,-1.550170,-2.759186,-3.448420,3.671928
1006.152344,-4.098552,-9.317109,0.334508,-3.772997
1006.156250,-3.614374,1.305241,-4.581503,-9.073944
1006.160156,3.868044,-4.684530,-9.445019,-1.325054
1006.164062,-10.136418,-7.081920,-10.950863,-10.879459
1006.167969,-5.755242,-6.500796,-7.382653,-11.880709
1006.171875,-9.076710,-10.714895,0.660500,-14.768701
1006.175781,-5.005131,-6.390186,-12.978454,-13.045613
1006.179688,-16.583387,-10.839499,-5.070781,-8.582470
1006.183594,-10.517987,-14.477378,-6.075394,-15.439516
1006.187500,-8.785113,-6.797328,-4.954469,-3.739126
1006.191406,-1.214887,-6.455881,-5.285631,-5.919331
1006.195312,-4.743781,-1.572778,-3.234158,-4.519116
1006.199219,2.086687,-1.005941,6.983675,-7.047533
1006.203125,0.876210,-2.624045,2.884051,-3.590382
1006.207031,1.045000,3.541738,0.881492,5.718412
1006.210938,6.018810,8.400282,4.389915,-1.036724
1006.214844,2.768630,8.884457,3.815128,9.221689
1006.218750,9.421704,7.922434,14.338238,13.628296
1006.222656,9.433104,7.369174,15.094209,10.840356
1006.226562,12.708626,14.662817,8.879113,4.780784
1006.230469,0.974168,8.088562,4.860213,4.965596
1006.234375,7.879783,6.380437,6.144269,9.205901
1006.238281,11.442906,5.994056,6.482713,2.205209
1006.242188,4.838130,4.128584,2.807004,13.421728
1006.246094,6.332782,-6.140531,4.815337,8.167442
1006.250000,6.458274,-7.348015,1.402190,3.438435
1006.253906,-0.298693,2.535849,-0.511443,-3.981352
1006.257812,-10.362995,4.682735,1.074933,-9.628104
1006.261719,-2.815978,-6.708799,-2.474024,-10.625239
1006.265625,-12.233991,-10.237462,-14.382932,-5.786748
1006.269531,-13.757234,-9.344299,-14.670743,-8.151774
1006.273438,-8.800919,-10.268437,-9.795237,-9.998336
1006.277344,-19.845222,-20.346832,-7.395351,-7.100182
1006.281250,-13.641018,-6.950139,-9.586087,-10.587250
1006.285156,-4.397773,-6.681702,-5.442876,-17.062799
1006.289062,-12.378203,-1.520887,-9.909048,-6.527098
1006.292969,-0.537875,-3.349476,-8.328993,-3.173754
1006.296875,-1.603602,2.299751,-4.537493,-5.736019
1006.300781,2.488826,-1.226877,3.092432,1.005111
1006.304688,7.368930,-3.069614,4.445842,-0.607359
1006.308594,3.471829,4.917900,10.817614,8.968355
1006.312500,14.406631,4.612121,13.266222,4.298284
1006.316406,12.327996,10.242203,14.983758,3.333155
1006.320312,9.334145,13.636936,7.590850,5.132699
1006.324219,12.086833,6.207970,9.147272,18.700383
1006.328125,15.044953,7.234899,6.798695,7.692932
1006.332031,-3.335406,7.782173,2.162453,7.697948
1006.335938,6.801900,-0.816120,6.191858,5.080339
1006.339844,9.122042,7.935929,-6.244979,10.246859
1006.343750,7.287339,3.608863,2.693416,7.032685
1006.347656,-3.803219,2.046213,0.098046,4.353729
1006.351562,4.719301,5.126964,-8.211017,4.131030
1006.355469,-2.939445,3.287806,-5.326863,-1.090213
1006.359375,-8.453354,-0.028468,-4.400502,-4.327639
1006.363281,-5.391220,-13.209744,-7.855804,-3.597352
1006.367188,-10.797383,-13.225273,-2.749030,-2.860270
1006.371094,-11.757271,-9.230179,-7.722245,-5.565266
1006.375000,-17.940127,-5.096202,-13.223074,-13.735804
1006.378906,-8.443839,-5.380575,-17.354283,-7.543133
1006.382812,-6.468978,-2.631574,-0.208547,-7.717687
1006.386719,-3.562661,-6.525004,-9.733089,-10.060505
1006.390625,-6.448556,-2.396813,-4.752247,-7.951748
1006.394531,-1.913326,-7.902844,2.532056,-7.617788
1006.398438,-7.236070,2.086488,-0.846028,-0.335289
1006.402344,1.124995,3.134277,-3.066809,6.836761
1006.406250,3.824304,1.761572,7.637509,0.665906
1006.410156,-5.514249,3.612858,12.028240,3.082112
1006.414062,2.507748,2.397834,10.450118,7.078476
1006.417969,3.874891,8.264868,12.974374,4.254318
1006.421875,10.184674,9.790657,0.770610,4.193095
1006.425781,7.964655,8.943633,10.475289,10.521948
1006.429688,10.401859,-1.364139,11.045418,13.448490
1006.433594,10.825837,12.561844,2.538921,14.721100
1006.437500,0.846302,11.333857,8.219564,5.048487
1006.441406,6.209832,6.235236,3.153024,8.172341
1006.445312,-10.244554,1.410040,-0.705449,-0.917366
1006.449219,0.864308,5.074683,0.027857,2.624461
1006.453125,-0.314534,-0.988053,-2.470939,1.819129
1006.457031,-3.663221,-5.540206,-4.561440,-4.733580
1006.460938,-9.049489,-3.677589,-4.052880,-1.291517
1006.464844,-11.222969,-1.313297,-7.688564,-11.068058
1006.468750,-12.949292,-13.168017,-6.434982,-16.651074
1006.472656,-11.390235,-13.990698,-10.940072,-6.078129
1006.476562,-8.701463,-10.869762,-9.628511,-6.636280
1006.480469,-5.626673,-10.813901,-9.413260,-2.766626
1006.484375,-8.308133,-12.082460,-11.693225,-7.883330
1006.488281,-8.147469,-3.973175,-8.969672,-3.482403
1006.492188,4.859541,-9.136621,-10.652122,-8.542629
1006.496094,-7.552152,-1.705526,0.698618,-1.036120
1006.500000,-5.680293,-8.050568,-2.336231,3.448622
1006.503906,12.626556,-4.867273,8.638095,0.705873
1006.507812,-0.060459,-4.018805,4.497803,7.540696
1006.511719,3.996084,5.062007,-3.611328,3.795997
1006.515625,3.748239,11.201778,6.584435,11.310458
1006.519531,8.613893,5.617070,6.778864,13.737524
1006.523438,16.427689,10.757215,11.616892,9.615569
1006.527344,8.980202,7.936689,9.410468,14.144813
1006.531250,1.482281,12.847574,6.967940,10.184258
1006.535156,13.369450,3.924912,3.873832,13.832433
1006.539062,3.840925,10.576412,9.246754,11.654708
1006.542969,10.489183,3.008872,7.584576,0.614922
1006.546875,2.327993,2.907526,0.946893,-5.008741
1006.550781,-2.197918,-5.428565,6.667183,1.708843
1006.554688,1.681801,-3.465596,-3.872756,0.679210
1006.558594,-6.784401,-7.174564,-4.358740,-7.339512
1006.562500,-15.533105,-7.327895,-12.619783,-13.669295
1006.566406,0.319133,-8.226375,-11.632338,-6.357064
1006.570312,-4.835147,-7.801779,-9.356291,-7.311094
1006.574219,-14.515892,-1.996041,-5.640729,-10.487743
1006.578125,-5.170030,-10.668272,-10.575055,-8.178657
1006.582031,-7.493224,-9.398521,-17.247842,-9.900732
1006.585938,-11.474968,-7.053791,-12.112459,-7.959075
1006.589844,-3.999227,3.388816,-0.737105,-6.014027
1006.593750,-8.393338,-3.617080,-4.885058,-1.002816
1006.597656,-4.158537,-4.267447,-4.118500,2.631118
1006.601562,-0.729097,-1.583107,3.728981,1.393272
1006.605469,6.489240,3.326363,0.499305,4.123683
1006.609375,8.857755,6.385473,1.714853,11.243318
1006.613281,5.050582,6.971063,4.923846,10.530518
1006.617188,4.262014,5.386691,10.439321,5.690809
1006.621094,13.605353,5.863118,15.407235,10.515944
1006.625000,10.253160,3.183806,8.457473,11.517243
1006.628906,8.947477,13.084599,7.337277,15.702741
1006.632812,14.297771,7.880741,2.897826,9.205671
1006.636719,2.850445,11.175993,9.100112,14.385053
1006.640625,1.932724,-0.556061,-1.058363,8.833711
1006.644531,1.980032,3.799067,3.034374,-2.516279
1006.648438,2.301386,2.502169,-8.512077,-2.427528
1006.652344,-3.554024,-1.837651,2.416782,-8.958396
1006.656250,-0.834904,-13.591603,-5.370544,-9.307329
1006.660156,-9.896329,-10.577035,-8.386416,-1.700189
1006.664062,-4.130294,-5.122458,-0.582146,-2.994027
1006.667969,-10.071702,-8.355412,-3.142639,-5.174618
1006.671875,-8.773897,-14.506340,-8.905923,-9.384418
1006.675781,-9.353074,-10.822315,-11.810649,-6.704291
1006.679688,-8.300374,-4.798215,-8.084129,-4.239377
1006.683594,-4.485336,-1.803740,-3.210432,-3.135902
1006.687500,2.092272,-9.421695,-7.116074,-5.820434
1006.691406,-2.378833,2.137507,-4.632469,-10.091381
1006.695312,-8.557935,-2.274051,-0.362003,-8.742483
1006.699219,-0.955547,-0.615525,5.282441,4.672100
1006.703125,-4.389589,-5.596910,1.134258,6.286674
1006.707031,11.755305,5.052103,3.772655,6.874073
1006.710938,3.376640,9.766695,1.963428,6.170251
1006.714844,9.835685,6.788318,10.748290,4.831909
1006.718750,3.870287,12.270316,7.733968,7.311886
1006.722656,5.293483,6.571254,11.530062,6.279545
1006.726562,3.130947,9.682317,9.693274,11.013933
1006.730469,14.132038,12.632550,4.631364,10.097739
1006.734375,3.805081,8.202504,7.259781,11.443803
1006.738281,4.816515,7.523833,8.134679,4.002111
1006.742188,4.519736,3.215180,6.853772,5.903276
1006.746094,1.375068,-0.652229,-0.575464,-0.894341
1006.750000,0.511065,1.649807,2.719190,7.627053
1006.753906,-7.809984,-1.297588,1.676421,4.038184
1006.757812,-14.007821,-4.681396,-5.756268,-3.218177
1006.761719,-6.985038,-7.312110,-3.778914,-1.223809
1006.765625,-9.285246,-11.883284,-6.008298,-13.664884
1006.769531,-3.760319,-11.285762,-8.755401,-4.442405
1006.773438,-9.196701,-11.178907,-9.088622,-14.645890
1006.777344,-10.852149,-5.142476,-5.298439,-9.865187
1006.781250,-15.702912,-4.745118,-3.260825,-12.158890
1006.785156,-6.371797,-11.642984,-7.225702,-8.806351
1006.789062,-6.594440,-10.257551,-1.001468,-5.923009
1006.792969,-2.389878,-6.893467,-4.510947,-10.529774
1006.796875,-1.688164,-3.414271,-5.786633,-4.653735
1006.800781,9.886278,-3.171770,3.581198,2.454588
1006.804688,4.525406,7.461670,3.362034,-1.103475
1006.808594,9.355369,7.171873,4.415255,-3.315490
1006.812500,9.309684,3.581252,3.795952,10.271491
1006.816406,9.146077,6.021627,7.394046,4.916107
1006.820312,7.354736,8.418103,10.586124,8.321274
1006.824219,7.900518,8.864973,5.444232,13.192091
1006.828125,5.726112,3.723938,9.704549,3.166982
1006.832031,9.697653,3.141107,8.784045,4.141312
1006.835938,6.782520,1.157124,4.793240,10.235279
1006.839844,4.503513,10.628819,2.238260,7.380795
1006.843750,9.521878,0.051689,6.071753,4.027010
1006.847656,5.875618,-4.042605,7.131652,-1.392017
1006.851562,1.863455,1.123524,1.976162,4.966762
1006.855469,-7.400024,1.006870,-5.553081,-2.186533
1006.859375,-0.654396,-5.035928,-9.263919,-0.827635
1006.863281,-8.940363,-7.045569,-6.895996,-5.999256
1006.867188,-9.414575,-9.422046,-10.052778,-14.092834
1006.871094,-4.635431,-10.566183,-11.501576,-9.261165
1006.875000,-1.550339,-13.333607,-14.851088,-7.495955
1006.878906,-7.168658,-11.652917,-13.033681,-13.140779
1006.882812,-11.674483,-8.551392,-12.586905,-10.490959
1006.886719,-18.019807,-11.916396,-5.292022,-6.498991
1006.890625,-4.719255,-5.015099,-5.762023,-7.643400
1006.894531,-6.816582,-3.817151,-3.731459,-1.990473
1006.898438,4.243110,6.955650,0.658843,0.639291
1006.902344,7.685574,-0.647579,-2.249948,9.987240
1006.906250,-1.388449,4.775524,2.629561,1.457273
1006.910156,10.653064,10.195072,4.320405,12.452093
1006.914062,9.673567,10.422369,7.774215,9.795430
1006.917969,12.122056,4.074244,4.001645,11.199968
1006.921875,14.109977,11.802592,2.989776,15.500486
1006.925781,10.958534,2.880259,4.690721,12.151445
1006.929688,13.116994,10.406081,9.316568,8.660898
1006.933594,4.779312,12.505347,7.320867,9.563728
1006.937500,10.814864,-1.200563,11.436546,5.537604
1006.941406,6.444969,3.645637,11.380239,11.658308
1006.945312,2.907726,1.519016,3.056041,0.681324
1006.949219,3.936335,1.564300,-4.174365,3.083811
1006.953125,-9.785382,8.285356,0.804311,0.121684
1006.957031,-1.416727,-10.710125,-4.695500,-3.150219
1006.960938,-10.724034,-2.335279,-0.894797,-5.367623
1006.964844,-10.296636,-2.771161,-7.203621,-7.883419
1006.968750,-13.407181,-1.900886,-8.695241,-13.278029
1006.972656,-4.336876,-15.928828,-10.202910,-8.716321
1006.976562,-0.551682,-9.627825,-11.393387,-11.201867
1006.980469,-4.735236,-9.940973,-10.035313,-7.054070
1006.984375,-10.284654,-10.964552,-9.829885,2.187516
1006.988281,-4.756828,-15.577647,-8.356107,-11.530056
1006.992188,-6.112753,0.735167,-10.085999,-10.269483
1006.996094,-8.086070,-6.190928,-4.359113,1.697518
1007.000000,1.268621,4.853453,1.466871,1.462120
1007.003906,1.869149,3.941213,4.492582,-2.760413
1007.007812,12.892015,7.613929,3.327525,2.850126
1007.011719,-5.543254,11.220319,5.448130,1.711514
1007.015625,3.695612,8.452803,9.352472,13.533258
1007.019531,14.613658,10.027702,17.145544,6.324731
1007.023438,9.436154,6.520775,6.755341,8.860556
1007.027344,19.229235,11.598186,19.011343,6.313874
1007.031250,15.383858,9.270735,2.664074,11.058877
1007.035156,7.189177,7.274274,4.171533,13.546172
1007.039062,8.046629,5.869348,10.790029,3.970312
1007.042969,3.655108,7.006456,1.033544,8.403334
1007.046875,5.738981,10.616934,7.237984,4.545536
1007.050781,4.743019,10.487536,-5.327554,0.686749
1007.054688,3.013505,-9.219117,1.262511,1.675188
1007.058594,-0.653333,-4.083660,-3.660268,-6.230973
1007.062500,-8.391464,-12.471268,-6.022569,-1.570698
1007.066406,-18.218767,-10.690239,-3.806842,-11.860002
1007.070312,-7.797302,-11.298514,-7.820983,-8.236199
1007.074219,-4.584618,-12.095462,-9.401147,-5.973383
1007.078125,-8.765961,-8.523831,-5.186344,-11.936314
1007.082031,-6.723232,-14.616470,-10.183186,-9.492707
1007.085938,-2.485832,-3.274148,-6.000124,-9.801908
1007.089844,-4.457894,-3.830040,-9.390069,-2.944647
1007.093750,-10.866344,-0.416036,-6.628670,-6.251606
1007.097656,-6.689628,-1.820546,4.072447,6.321266
1007.101562,2.705601,1.789372,3.634785,-3.542436
1007.105469,-3.595612,0.778385,2.566313,4.713393
1007.109375,8.670339,9.521383,0.206985,9.376435
1007.113281,9.200645,7.068486,7.081447,8.718699
1007.117188,5.061452,7.140236,12.109504,11.661742
1007.121094,-0.450095,18.598980,4.194352,5.656154
1007.125000,17.260843,12.188157,11.076528,10.840651
1007.128906,5.421475,12.649718,4.627668,11.576668
1007.132812,9.327739,6.283836,3.018224,9.945528
1007.136719,6.808380,6.663274,12.464282,10.091421
1007.140625,8.945010,4.051565,2.982547,6.385380
1007.144531,6.035823,9.546485,4.971226,3.517023
1007.148438,-1.045183,-3.405036,-0.703779,-4.193255
1007.152344,-3.569902,2.864950,2.939871,-0.936786
1007.156250,-4.481894,-1.830566,-5.894881,-12.746446
1007.160156,-1.731933,-7.653188,-13.279945,-9.169847
1007.164062,-14.624466,-8.605136,-7.150481,-4.362153
1007.167969,-9.185395,-6.191385,-6.137639,-10.677183
1007.171875,-3.614278,-3.962347,-13.895347,-9.358756
1007.175781,-8.629164,-6.560851,-1.789820,-15.241309
1007.179688,-3.827801,-10.512369,-11.374341,-10.138858
1007.183594,-12.079388,-7.597264,-6.795206,-7.543212
1007.187500,-9.394211,-12.621674,-2.001591,-9.731812
1007.191406,-11.755714,-3.432846,-5.386869,-21.951215
1007.195312,-5.227261,-3.699533,1.168200,0.208755
1007.199219,-5.751802,7.368517,2.796275,1.418448
1007.203125,-2.880983,6.424509,1.877059,-2.434448
1007.207031,8.834595,1.613326,7.282135,-3.629599
1007.210938,11.522772,5.975401,5.044374,-5.127916
1007.214844,5.973809,7.960490,5.487076,7.445841
1007.218750,4.004921,11.770469,10.849391,14.094433
1007.222656,12.300897,10.933698,15.562000,5.987230
1007.226562,7.225942,7.157531,-0.257579,5.293882
1007.230469,11.530413,12.620223,6.761446,11.133160
1007.234375,0.001308,7.505734,16.832949,7.559644
1007.238281,10.696025,-2.077762,2.655113,10.463899
1007.242188,5.558936,3.869764,1.880958,0.236768
1007.246094,7.306858,1.136981,2.116169,4.811430
1007.250000,3.612652,-5.246425,-4.475601,5.543170
1007.253906,4.095759,-0.854316,-5.856430,-2.738612
1007.257812,-5.324832,-14.934778,-7.578821,-8.921085
1007.261719,-11.174130,-3.289475,-6.969844,-5.909658
1007.265625,-8.719636,-3.157881,-6.010484,-18.228692
1007.269531,-15.502893,-8.488207,-5.407600,-12.592849
1007.273438,-10.487020,-9.911452,-7.863753,-13.509675
1007.277344,-11.947076,-11.790199,-3.472655,-8.979309
1007.281250,-8.751799,-11.871492,-0.469917,-12.778940
1007.285156,-9.462472,-2.498864,-3.262186,-13.592725
1007.289062,-9.760157,-8.666882,-10.024823,-9.261789
1007.292969,-7.158299,-7.413402,-6.816361,-9.506787
1007.296875,1.756906,-4.565484,-5.488813,1.832406
1007.300781,-1.408392,-3.205438,4.530734,-5.316124
1007.304688,7.031516,5.011292,3.399325,2.061840
1007.308594,4.552921,3.099932,7.200130,6.331958
1007.312500,16.281530,1.579180,-0.829476,6.121401
1007.316406,5.054772,8.801747,5.052368,3.101093
1007.320312,10.193149,3.521889,7.627077,7.838803
1007.324219,10.393533,10.260779,6.112151,10.677883
1007.328125,16.562448,3.755355,10.465708,8.455062
1007.332031,3.185942,1.171229,7.551336,10.169590
1007.335938,17.527814,16.631611,14.689869,10.076890
1007.339844,11.077080,5.864805,5.970458,5.962539
1007.343750,1.289728,6.052050,5.487935,4.024243
1007.347656,7.184939,6.215717,3.271888,5.391404
1007.351562,1.610942,2.199740,-0.611611,-0.353276
1007.355469,-7.633449,-5.588748,-10.364556,-9.945445
1007.359375,-3.540317,-3.888969,-6.290047,-5.206730
1007.363281,-2.175812,-8.453119,-8.320677,-8.021487
1007.367188,-5.619131,-9.090310,-2.721394,-7.056573
1007.371094,-14.728097,-10.606879,-16.940422,-13.343573
1007.375000,-12.552235,-15.503259,-8.198198,-19.349084
1007.378906,-7.635938,-13.090829,-4.152374,-10.114797
1007.382812,-11.281636,-6.796152,-9.197970,-10.943712
1007.386719,-4.394993,-7.258912,-8.101752,-9.944081
1007.390625,-8.831036,-5.117009,-11.801455,-6.366115
1007.394531,-5.372465,-7.139770,-2.535357,-7.523634
1007.398438,1.311238,4.935592,4.536597,2.995461
1007.402344,2.438817,-2.590273,0.818107,-0.328581
1007.406250,4.591452,3.318272,8.203909,-3.879544
1007.410156,2.001210,-2.072069,11.353720,6.220006
1007.414062,11.520891,7.912650,5.101973,7.619839
1007.417969,10.906432,11.165491,11.724438,6.908626
1007.421875,12.057614,10.024563,13.406353,1.295722
1007.425781,5.439433,9.433895,6.954624,9.040931
1007.429688,13.503084,8.810271,0.482913,10.453675
1007.433594,10.879605,10.183886,11.530196,15.436327
1007.437500,7.804025,2.745446,4.919317,10.525943
1007.441406,4.473297,10.646318,3.485426,7.816686
1007.445312,-2.283243,8.429836,1.834462,0.718114
1007.449219,-1.980725,-0.420710,5.526258,-0.141937
1007.453125,1.380640,-4.727285,-2.790127,-0.352745
1007.457031,-9.045113,-6.898182,-2.162383,2.721609
1007.460938,-3.672893,-12.708857,-1.548094,-4.922943
1007.464844,-9.251688,-6.545188,-3.391958,-8.098096
1007.468750,-9.528515,-12.711771,-8.285465,-6.722204
1007.472656,-2.313387,-8.991190,-9.164302,-19.630899
1007.476562,-7.824285,-10.386417,-12.907941,-4.238564
1007.480469,-17.173832,-15.395211,-5.118075,-6.749031
1007.484375,-3.398120,-8.263400,-12.948469,-8.180593
1007.488281,-10.557873,-0.228975,-9.650789,-7.404964
1007.492188,-7.525388,-3.326668,-9.383188,-10.394010
1007.496094,1.186091,-4.359941,-2.266775,-0.511227
1007.500000,-2.981428,5.450172,1.526732,-0.592176
1007.503906,5.312820,6.950040,1.876293,1.155689
1007.507812,10.359238,2.632143,4.998128,-3.248016
1007.511719,8.820802,8.579267,9.114761,9.628371
1007.515625,-1.466965,9.220704,10.288219,3.925712
1007.519531,6.835036,11.876675,9.118041,11.879356
1007.523438,16.927936,12.728025,9.218270,8.292004
1007.527344,12.145566,7.499819,9.848706,3.213071
1007.531250,3.529054,5.492022,8.053041,14.217653
1007.535156,3.643440,8.753082,11.203889,10.448044
1007.539062,2.968048,4.014503,10.471304,3.188529
1007.542969,-2.571188,1.162804,-0.253229,5.047755
1007.546875,2.722232,6.406959,3.977408,9.346571
1007.550781,-2.578661,-3.588664,2.605231,1.647199
1007.554688,-8.531719,-4.203905,-5.221025,-2.403233
1007.558594,-6.577374,-8.503714,-10.392797,-9.942300
1007.562500,0.274051,-7.494373,-9.218427,-5.774645
1007.566406,-7.760458,-5.831447,-5.253871,-6.191421
1007.570312,-8.487732,-7.636600,-7.864171,-4.939592
1007.574219,-11.806427,-15.942813,-9.886184,-6.895973
1007.578125,-10.014399,-7.982422,-10.052996,-3.076921
1007.582031,-8.487172,-9.083530,-9.913829,-11.068214
1007.585938,-10.355356,-11.146321,-4.627268,-10.372288
1007.589844,-8.942046,-0.439239,-7.368682,-10.885833
1007.593750,-2.940989,-4.446725,-4.227074,-0.969758
1007.597656,-3.086903,-0.627574,-0.531850,0.571823
1007.601562,0.992966,-0.099925,5.298423,-2.129078
1007.605469,9.264012,4.701666,-7.977044,3.176828
1007.609375,-6.377632,11.012903,11.212112,2.493439
1007.613281,0.941694,7.336316,8.212460,7.256478
1007.617188,6.450943,9.619769,5.542158,12.473328
1007.621094,15.959735,10.248648,13.105075,8.969844
1007.625000,12.141543,12.784858,8.558249,8.855170
1007.628906,5.078974,8.348808,14.429750,7.917429
1007.632812,12.936344,10.166886,7.743564,3.852774
1007.636719,-0.520967,13.834735,8.490229,5.427738
1007.640625,1.947964,8.295316,6.139114,7.139283
1007.644531,-4.986761,8.250270,7.622339,-2.318997
1007.648438,6.147605,3.262684,-3.979149,6.290134
1007.652344,-0.410540,4.299451,1.589774,-1.266660
1007.656250,-6.902719,-3.705282,-4.898571,-2.960645
1007.660156,-9.449700,-4.017626,-13.104704,-2.427461
1007.664062,-10.437361,-9.692673,-6.874535,-6.722937
1007.667969,-12.363270,-11.283545,-12.819000,-17.468753
1007.671875,-5.275834,-8.438364,-8.079705,-1.298522
1007.675781,-6.994440,-8.538898,-7.900197,-6.782834
1007.679688,-13.341319,-13.038307,-8.059045,-16.856016
1007.683594,-3.048283,-0.962607,-9.501556,-11.997480
1007.687500,-6.463491,-9.248971,-10.847765,-2.242113
1007.691406,-4.667516,-2.863026,-6.396515,-4.759633
1007.695312,-5.193468,3.212001,-1.479264,-4.738524
1007.699219,-4.771157,2.637035,-5.673856,-1.669537
1007.703125,1.559998,-0.642531,3.242443,1.793219
1007.707031,-0.634101,4.288699,3.120072,-2.516400
1007.710938,6.493167,4.164042,6.143118,6.042776
1007.714844,6.532000,8.390013,1.029885,8.937683
1007.718750,7.015355,4.674421,10.903726,4.012847
1007.722656,6.792933,15.406123,10.853261,6.172449
1007.726562,17.795185,13.409165,5.977234,7.095093
1007.730469,4.064118,12.544736,8.075877,12.100543
1007.734375,12.380429,12.625977,9.782524,1.229068
1007.738281,13.048518,7.929868,6.888578,2.832621
1007.742188,8.333198,5.221065,13.280335,7.576317
1007.746094,-4.135344,-0.954881,-0.327160,6.712920
1007.750000,12.259819,-2.790240,-5.061907,-5.363509
1007.753906,-10.723240,-2.246424,-3.107116,-10.186553
1007.757812,-10.340222,-6.745487,-1.086424,-5.545417
1007.761719,-2.441263,-6.085912,-5.303284,-6.689448
1007.765625,-9.677799,-6.359551,-7.775070,-10.866010
1007.769531,-13.254957,-5.345457,-8.604928,-8.821920
1007.773438,-15.273485,-13.259425,-14.410515,-7.205843
1007.777344,-7.658864,-11.750567,-14.642574,-3.297541
1007.781250,-6.835887,-11.033263,-16.108636,-23.046575
1007.785156,-8.195085,-9.067660,-2.451384,-9.820393
1007.789062,-11.196769,-7.097112,-4.493983,-5.956893
1007.792969,-7.019651,-1.133138,-1.495322,-8.944382
1007.796875,2.297614,2.025104,0.572103,5.521765
1007.800781,-2.595807,4.496323,-1.649641,0.808610
1007.804688,4.502819,-5.067416,2.962540,-1.021414
1007.808594,10.548236,5.252103,9.099256,6.246736
1007.812500,6.693994,8.692350,10.305555,2.709786
1007.816406,13.955811,8.138678,11.929702,7.903904
1007.820312,4.172990,9.326173,-3.580104,7.046038
1007.824219,9.993839,7.140594,6.739302,11.977543
1007.828125,10.835808,5.008861,5.103811,10.092283
1007.832031,10.151714,9.859315,10.686815,9.578312
1007.835938,7.587692,3.714682,8.722109,10.964412
1007.839844,5.786702,3.313252,3.387700,0.630006
1007.843750,5.663219,3.343286,3.802679,3.128358
1007.847656,3.797944,5.280223,8.944734,0.905588
1007.851562,-8.148698,6.668298,-3.472085,-2.913778
1007.855469,-9.407382,-2.627627,-9.153843,-3.367252
1007.859375,-4.185280,-1.700238,-0.402151,-1.090018
1007.863281,-7.782116,-6.349905,-8.084109,-9.314765
1007.867188,-10.487408,-8.086003,-4.417007,-8.521378
1007.871094,-7.285352,-10.366214,-7.026928,-14.065348
1007.875000,-14.375628,-11.362814,-8.951127,-3.617419
1007.878906,-15.807142,-12.070475,-8.799414,-7.321089
1007.882812,-10.508668,-14.802274,-9.051314,-3.647029
1007.886719,-5.543634,-5.427833,-6.562265,-9.176685
1007.890625,-9.641077,-4.777336,-8.538936,-6.200171
1007.894531,-5.386404,-5.791162,-2.976937,-3.971703
1007.898438,-1.968856,0.179585,-3.120154,-0.784249
1007.902344,-3.104424,0.838635,3.373627,1.107971
1007.906250,3.781304,3.996004,3.370169,7.646950
1007.910156,1.297734,1.241480,10.907161,5.891189
1007.914062,2.121067,13.746210,6.889212,-0.883534
1007.917969,11.054408,1.529447,7.154866,2.281304
1007.921875,11.936684,13.385875,5.590413,7.844617
1007.925781,9.012918,10.076002,12.789502,10.618161
1007.929688,10.276237,13.767092,12.144259,8.019564
1007.933594,12.482683,8.269759,7.666806,4.243702
1007.937500,15.933771,14.328690,10.196414,5.554278
1007.941406,7.506252,10.485019,-1.224086,3.868893
1007.945312,-1.760008,6.706185,5.847936,-5.116024
1007.949219,4.712627,5.696437,6.280931,1.783384
1007.953125,-0.320009,-0.843243,-1.709669,-1.215450
1007.957031,-6.965215,-3.597274,-6.072856,-10.353008
1007.960938,-5.581434,-6.857944,-7.837697,-7.990799
1007.964844,-5.479415,-3.458635,0.006996,-8.242528
1007.968750,-10.337086,-8.771446,-3.784441,-6.914196
1007.972656,-10.668827,-0.490059,-8.448465,-9.722966
1007.976562,-13.603034,-10.306602,-4.724296,-12.447690
1007.980469,-3.989309,-10.837038,-1.982901,-4.672717
1007.984375,-18.425731,-5.506938,-11.292750,-7.400622
1007.988281,-7.518576,-13.520094,-4.817890,-3.768742
1007.992188,-6.333606,-2.445873,-0.758744,-1.427829
1007.996094,-5.626504,8.599111,-1.243068,-1.336763
1008.000000,3.609242,1.987633,-3.980634,-0.728994
1008.003906,1.352210,-4.182550,2.995266,3.044825
1008.007812,1.946120,7.605457,-0.100310,4.892956
1008.011719,8.411209,7.492080,7.338134,6.383002
1008.015625,5.188701,8.087540,7.350695,11.099581
1008.019531,15.899069,15.023298,11.641550,12.559277
1008.023438,11.554009,12.170367,11.093033,5.204639
1008.027344,11.793609,10.688350,7.300472,4.670165
1008.031250,17.420944,6.587639,7.881130,11.845117
1008.035156,10.264446,9.090017,7.013706,7.170783
1008.039062,6.382879,6.143584,4.841430,12.015196
1008.042969,9.486172,8.228374,1.424293,2.766689
1008.046875,0.256436,0.529054,5.644733,6.889388
1008.050781,3.911685,-4.168627,0.231238,-1.680700
1008.054688,-9.288389,-2.988259,-10.592062,-1.431497
1008.058594,-2.927106,-4.385552,-10.270480,0.605035
1008.062500,-1.163261,1.690844,-9.620860,-11.031857
1008.066406,-4.758784,-15.319865,-3.382397,-10.729801
1008.070312,-11.530735,-8.445254,-6.716304,-6.578058
1008.074219,-4.559420,-14.397410,-13.993290,-11.355540
1008.078125,-11.005450,-10.638933,-13.688244,-9.631993
1008.082031,-9.243752,-11.006513,-6.582941,-4.727667
1008.085938,-6.326816,-5.150574,-4.863660,-11.274356
1008.089844,-7.075980,-7.523239,-7.074412,-6.968686
1008.093750,-0.476714,-6.972115,-3.525074,-4.502464
1008.097656,-2.534581,0.920480,1.404635,-1.962561
1008.101562,-4.620313,2.612623,-3.528571,-3.426830
1008.105469,-0.818132,11.297850,12.653470,7.347104
1008.109375,-0.669587,-2.011552,10.337824,9.159559
1008.113281,1.014440,12.248968,11.720116,16.072763
1008.117188,6.830940,12.037510,8.351806,9.810789
1008.121094,10.750453,16.267220,9.869837,9.647317
1008.125000,7.466891,5.235905,9.219642,9.402435
1008.128906,12.818773,4.448527,10.664232,15.138418
1008.132812,13.316515,8.475948,7.107337,10.531518
1008.136719,5.433328,4.991045,3.474663,7.325941
1008.140625,15.815695,9.380625,14.327875,4.037699
1008.144531,-3.730936,9.132015,3.443041,-0.323442
1008.148438,3.863301,-3.402475,0.276846,4.530954
1008.152344,-6.251833,-5.205398,0.762849,-5.322845
1008.156250,-11.689039,-0.545742,1.503440,-4.205495
1008.160156,-9.399150,0.883524,-3.759534,-3.289393
1008.164062,-5.135564,-10.558165,2.777403,-13.687746
1008.167969,-11.507409,-15.201029,-10.841593,-13.244078
1008.171875,-6.122444,-4.297590,-11.850439,-1.942897
1008.175781,-5.368906,-8.696553,-9.749856,-17.567860
1008.179688,-9.051784,-1.620031,-9.250093,-18.976928
1008.183594,-9.078349,-6.384817,-13.303990,-7.086620
1008.187500,-4.499860,-9.169248,-9.081512,-5.938415
1008.191406,-4.174693,-7.919849,-1.260288,-6.033459
1008.195312,6.288249,-6.203034,4.293476,-2.828241
1008.199219,-0.697466,8.077224,6.074781,1.601216
1008.203125,0.192753,-2.356865,5.716858,2.400968
1008.207031,2.877157,6.093229,8.665768,5.245843
1008.210938,3.471431,5.723750,9.023009,8.346076
1008.214844,13.292210,6.397083,9.585149,6.382555
1008.218750,13.213167,8.371283,7.510248,7.240130
1008.222656,16.496847,9.322536,9.179380,13.133700
1008.226562,10.824737,9.647399,9.885867,14.869186
1008.230469,13.793423,10.626958,12.364377,16.883535
1008.234375,12.609640,8.700969,7.064398,5.222313
1008.238281,7.049625,8.916112,11.300469,1.399320
1008.242188,5.147330,12.844538,6.500174,-3.998161
1008.246094,-4.533251,7.944635,3.669507,1.964800
1008.250000,0.339458,3.569255,-1.009908,1.823696
1008.253906,-0.878585,1.590943,0.968901,-2.594383
1008.257812,-5.864194,-6.313040,-4.563632,-3.091823
1008.261719,-1.375235,-12.588575,-8.897336,-4.920568
1008.265625,-4.192099,-1.534170,-6.268536,-4.775168
1008.269531,-11.513990,-4.630722,-11.682881,-5.176005
1008.273438,-8.606988,-14.571309,-4.363901,-6.886532
1008.277344,-16.557433,-9.184271,-8.726575,-13.358042
1008.281250,-9.723676,-10.613708,-13.180522,-11.649896
1008.285156,-7.016428,-0.560128,-12.402414,-8.074769
1008.289062,-12.831648,-6.796871,-6.527361,-4.404827
1008.292969,-2.822879,-6.844448,-15.738456,-1.365161
1008.296875,-4.959593,5.843361,-1.954835,-3.940796
1008.300781,2.154109,1.236096,-0.789903,-0.983763
1008.304688,7.140820,-0.070870,4.650091,6.111814
1008.308594,10.651647,2.594948,7.733049,9.791065
1008.312500,7.458365,6.022135,-0.076110,8.296759
1008.316406,3.623763,13.506530,7.719769,13.215344
1008.320312,15.579841,12.002664,5.573217,14.367361
1008.324219,20.495023,7.713942,1.093524,13.023501
1008.328125,11.753843,13.394404,9.899005,8.157720
1008.332031,-0.160793,7.601097,6.928530,3.323363
1008.335938,8.643249,13.565402,8.890881,17.363405
1008.339844,-0.469215,6.617329,5.031123,6.240337
1008.343750,4.420148,3.611677,10.679994,7.546189
1008.347656,4.622087,1.634339,0.492703,6.940584
1008.351562,-8.811396,-4.086983,-6.881750,-0.960386
1008.355469,-4.425520,-7.085696,-0.432088,-3.996306
1008.359375,-9.860499,-8.710817,-12.364827,-5.521406
1008.363281,-9.749509,-5.260204,-3.088104,0.915978
1008.367188,-15.305951,-9.900498,-13.926555,-10.589400
1008.371094,-8.802826,-7.504610,-11.719756,-11.406088
1008.375000,-6.109034,-17.817645,2.428501,-15.719507
1008.378906,2.054676,-7.800416,-3.769792,-3.087023
1008.382812,-6.334073,-10.926701,-4.120302,-10.329983
1008.386719,-10.302580,-11.836625,-8.445204,-2.779752
1008.390625,-3.147813,-7.424566,-9.178360,-9.382698
1008.394531,-1.802466,0.063456,-6.056726,-2.898135
1008.398438,-1.135634,0.261065,-4.973064,2.238381
1008.402344,1.467084,8.094227,9.007321,-2.106825
1008.406250,2.160736,6.925377,-2.213598,5.004224
1008.410156,2.078493,2.479626,6.835591,4.268269
1008.414062,0.974698,3.738169,8.073150,7.721139
1008.417969,2.458883,3.090360,2.150662,3.876625
1008.421875,15.955020,9.840939,21.283626,9.248478
1008.425781,7.642235,7.719991,8.150490,5.303415
1008.429688,12.894984,9.972827,12.130373,12.973505
1008.433594,7.807138,2.693592,2.513665,10.834804
1008.437500,2.876356,-0.007825,11.076894,4.471820
1008.441406,2.828357,5.891426,1.259329,1.152870
1008.445312,4.842345,9.163415,4.010861,-3.578305
1008.449219,1.069254,0.998255,-9.234194,0.193827
1008.453125,-4.871854,-6.446093,1.490071,9.028070
1008.457031,2.861041,2.916163,-10.894975,-2.418980
1008.460938,-6.204375,-5.754627,-9.307325,-4.184650
1008.464844,-3.183811,-9.436190,-12.661890,-16.303473
1008.468750,-17.273011,-7.213300,-2.251254,-2.168139
1008.472656,-18.750065,-9.028135,-14.829202,-3.000076
1008.476562,-9.993518,-9.584316,-10.713526,-10.292143
1008.480469,-11.902550,-9.929089,-10.652011,-9.901137
1008.484375,-11.926787,-8.552919,-4.597723,-3.137284
1008.488281,-5.739386,-7.164775,-11.644092,-8.352780
1008.492188,-4.392530,-10.276796,-3.504190,-9.429133
1008.496094,-4.277514,-3.269062,-6.762745,-0.297511
1008.500000,5.410628,-7.053329,3.579839,-2.110665
1008.503906,1.940413,8.146278,2.192392,0.924454
1008.507812,3.507950,4.756977,16.623571,2.822159
1008.511719,5.055526,-0.082125,3.249351,6.264796
1008.515625,12.858484,2.301678,4.266876,10.043215
1008.519531,13.333071,11.813589,0.491467,6.096462
1008.523438,11.718375,5.290557,15.252661,9.313612
1008.527344,7.879613,12.109660,7.017206,15.845000
1008.531250,14.177735,10.859070,4.664596,11.293805
1008.535156,13.892290,5.666333,15.068880,8.532811
1008.539062,2.816139,4.692587,5.509496,9.086138
1008.542969,0.270509,4.855046,3.631109,4.433241
1008.546875,6.642820,-1.052875,3.573055,4.755257
1008.550781,-2.195432,1.050806,-3.793282,-3.389982
1008.554688,-0.076902,1.993508,-10.525827,2.056450
1008.558594,-5.171462,-13.547836,-6.356829,-9.244512
1008.562500,-8.634840,-9.220333,-2.490120,-7.215876
1008.566406,-17.582241,-7.339136,-2.489086,-3.604797
1008.570312,-7.100973,-11.274498,-8.423893,-14.037129
1008.574219,-13.079914,-14.673123,3.254605,-10.744024
1008.578125,-14.917570,-6.780122,-5.380615,-8.809353
1008.582031,-13.620057,-5.152220,-15.389225,-4.481849
1008.585938,-3.531840,2.040456,-12.247418,-10.113274
1008.589844,-8.258922,-2.564423,-4.239968,-5.425071
1008.593750,-3.102685,-1.773981,-6.745512,-3.615524
1008.597656,0.374151,3.807954,-4.354313,-2.304807
1008.601562,1.134242,4.413846,0.420586,-2.377883
1008.605469,3.388219,4.521991,0.620580,2.640452
1008.609375,5.383882,-5.724585,1.339818,1.127645
1008.613281,16.978623,11.491250,6.298835,13.228612
1008.617188,4.052799,4.844854,8.846275,9.477044
1008.621094,8.877959,5.615345,8.630853,13.867420
1008.625000,8.805313,18.512086,7.889333,15.900701
1008.628906,13.705754,4.330732,12.037504,2.558801
1008.632812,2.898673,5.625033,8.325091,8.749343
1008.636719,4.846539,1.910974,5.611135,6.693321
1008.640625,10.977212,1.008544,3.030484,1.630870
1008.644531,1.331879,3.455163,5.543537,-2.093104
1008.648438,9.157427,1.838561,1.715571,-1.290408
1008.652344,-4.967454,9.413757,-11.427525,0.317291
1008.656250,-1.193542,-5.588815,-3.667842,1.211219
1008.660156,-9.683411,-5.313010,-11.246003,-1.301069
1008.664062,-6.629922,-3.930828,-9.407465,-11.204404
1008.667969,-6.488847,-11.965433,-14.709406,-10.194805
1008.671875,-10.005533,-3.597393,-9.530687,-18.310618
1008.675781,-4.569542,-10.991455,-16.704002,-10.839028
1008.679688,-13.321427,-10.853673,-11.854794,-8.635467
1008.683594,-11.168977,-5.966097,-18.235868,-8.393425
1008.687500,-10.877378,-6.933001,-3.466410,-4.374580
1008.691406,-6.861072,1.647724,-7.051318,-12.434635
1008.695312,1.309100,-6.822125,11.759385,-7.867318
1008.699219,-2.963788,-1.153316,-1.626914,0.889207
1008.703125,0.106537,4.404080,6.807342,-3.311902
1008.707031,5.744232,4.547893,1.585814,11.158945
1008.710938,7.578256,-0.207601,11.332428,9.430643
1008.714844,17.944688,5.248573,6.135868,4.174444
1008.718750,14.891187,12.992690,9.348020,4.381902
1008.722656,5.039378,5.500907,10.601099,7.976772
1008.726562,5.291626,9.192598,3.348249,9.888116
1008.730469,4.703870,1.503872,4.523262,9.076980
1008.734375,8.315612,6.305049,4.750319,6.028045
1008.738281,5.330930,10.755985,9.731250,6.950479
1008.742188,0.901801,2.062015,4.383203,6.044793
1008.746094,1.030163,-0.067810,4.104668,6.169048
1008.750000,-5.494203,2.910057,7.217398,-1.096874
1008.753906,-3.289133,0.314318,-4.484564,-1.160318
1008.757812,-4.428213,-4.770336,-14.807844,-4.205131
1008.761719,-7.906905,-6.527800,-5.890178,-5.850306
1008.765625,-3.474726,-8.862364,-6.108927,-7.213848
1008.769531,-11.989004,-0.723858,-14.363035,-8.265813
1008.773438,-7.490964,-13.260621,-7.663352,-14.499823
1008.777344,-11.034992,-10.582932,-14.020424,-7.830530
1008.781250,-14.870934,-6.535271,-9.812987,-7.400883
1008.785156,-5.880779,-7.953709,-10.921098,-7.384729
1008.789062,-9.510175,-11.679463,-12.600286,-9.004698
1008.792969,-4.695165,-6.642044,-2.520326,-1.677831
1008.796875,-4.766763,-2.809315,-9.094322,-1.315086
1008.800781,-1.334912,3.357978,-4.266447,-0.617521
1008.804688,6.791045,1.891305,6.967904,5.303878
1008.808594,6.885268,4.931032,2.004371,10.231401
1008.812500,8.317862,13.326569,13.887956,6.732661
1008.816406,13.712172,13.543329,14.955803,7.394730
1008.820312,4.249361,12.776734,2.381912,11.964633
1008.824219,13.636469,13.058933,12.083080,11.127198
1008.828125,11.634007,4.081740,10.049314,5.973501
1008.832031,9.937231,8.727094,2.199827,5.234425
1008.835938,3.807097,6.412107,12.893966,11.147306
1008.839844,2.431071,2.392527,10.618778,-1.164166
1008.843750,5.553445,-0.142737,4.361777,-0.622184
1008.847656,1.230855,4.568609,3.204324,7.717255
1008.851562,2.028950,0.433506,2.940855,-9.787139
1008.855469,-2.964689,-8.128073,5.452014,-6.651249
1008.859375,-7.718749,0.815507,-10.054318,-0.237554
1008.863281,-5.962706,-4.142592,-7.071579,-4.348387
1008.867188,-9.277823,-10.533967,-14.642148,-8.457375
1008.871094,-12.609988,-10.303812,-13.228610,-4.758844
1008.875000,-15.903799,-5.181218,-9.027816,-11.085596
1008.878906,1.691961,-13.771765,-9.448975,-5.330211
1008.882812,-9.249912,-5.308350,-9.628937,-7.924181
1008.886719,-3.753731,-3.475958,-14.010110,-9.513083
1008.890625,-7.951068,-1.239275,-11.599159,-10.085610
1008.894531,0.456577,-2.084055,-3.178411,0.264561
1008.898438,0.666750,0.393083,5.499615,-0.507192
1008.902344,-1.185329,-0.306962,3.685469,1.321152
1008.906250,6.888922,5.864954,6.902411,11.757718
1008.910156,4.185208,5.924620,-0.685490,5.704454
1008.914062,7.584915,9.742118,8.407735,7.315029
1008.917969,6.108293,4.494922,3.273358,12.796210
1008.921875,5.927716,11.467455,15.519086,2.245240
1008.925781,12.570464,7.113512,14.049436,11.227604
1008.929688,9.521070,5.777327,3.352674,8.498652
1008.933594,8.103134,4.495855,6.474028,0.781863
1008.937500,8.498458,3.098957,11.297450,10.176715
1008.941406,15.444747,0.041272,5.111847,4.261238
1008.945312,0.316452,0.734773,3.954339,2.403906
1008.949219,5.295401,2.057641,-0.027409,4.676514
1008.953125,-0.956119,3.302512,1.714552,-1.324704
1008.957031,-1.927295,-7.330426,-1.835202,-12.726814
1008.960938,-7.759288,-12.885878,-3.162553,-5.548304
1008.964844,-11.863841,-11.011268,-7.845780,-8.536569
1008.968750,-12.453505,-12.769278,-6.685261,-3.470581
1008.972656,-8.863541,-3.302839,-5.778253,-17.214050
1008.976562,-8.934816,-11.292601,-12.020815,-6.681830
1008.980469,-11.676575,-9.650836,-6.236101,-5.262682
1008.984375,-10.230799,-6.370851,-9.036422,-7.483669
1008.988281,-8.490813,0.428834,-11.784236,-4.785971
1008.992188,-5.458563,-4.535896,-2.247019,5.317846
1008.996094,-6.193323,0.245771,2.693449,-2.639376
1009.000000,-0.974286,1.517911,0.659574,4.751507
1009.003906,3.106724,3.241678,3.827028,9.916522
1009.007812,4.675500,4.511250,12.373145,-2.172998
1009.011719,3.954146,12.975188,7.667831,7.439971
1009.015625,6.413492,-0.218850,12.081737,9.515830
1009.019531,10.780121,14.410045,10.407497,5.600318
1009.023438,15.679548,11.724126,9.743790,13.614132
1009.027344,12.043723,6.350586,11.349401,11.436954
1009.031250,7.173435,9.950701,8.489351,4.962503
1009.035156,7.548553,14.460989,8.324781,4.678334
1009.039062,7.575393,3.436087,5.794601,8.439888
1009.042969,7.077272,7.183642,2.505084,4.971157
1009.046875,2.012653,0.454513,4.614477,6.106095
1009.050781,-5.955580,1.338850,-6.165338,-8.712276
1009.054688,-7.663079,-8.074024,-0.589979,-1.180899
1009.058594,-7.210538,-5.056315,-3.792540,-11.882463
1009.062500,-5.972539,-6.145461,-0.822554,-11.712228
1009.066406,-8.055164,-11.123519,-9.860011,-3.283221
1009.070312,-8.888423,-8.270516,-9.318126,-6.816793
1009.074219,-8.173866,-9.811441,-11.093624,-6.082294
1009.078125,-8.050091,-5.092241,-14.757776,-3.837316
1009.082031,-5.794925,-7.764889,-3.182313,-9.978441
1009.085938,-3.243444,-11.081236,-9.834207,-6.366287
1009.089844,-4.275722,-8.556400,-14.249405,-6.676796
1009.093750,4.492031,-1.251962,-3.606644,-1.882915
1009.097656,-1.246936,-2.708557,-5.292132,-0.481536
1009.101562,0.088681,-5.132866,-6.845112,4.293748
1009.105469,7.356369,9.948590,-0.994420,7.282962
1009.109375,5.500612,7.954111,7.442758,8.255711
1009.113281,5.987479,6.672505,14.381878,9.647577
1009.117188,4.373533,5.255048,9.536162,3.913089
1009.121094,9.021634,9.223002,2.905814,6.599865
1009.125000,9.343356,9.932837,10.657156,10.174169
1009.128906,13.449312,15.141346,9.778438,16.013439
1009.132812,9.410694,4.656138,11.695072,0.741608
1009.136719,3.658570,9.858074,4.768658,7.749021
1009.140625,12.063075,8.733836,2.749512,7.075335
1009.144531,-1.845774,3.040950,3.071125,3.266561
1009.148438,-0.511189,-5.126482,-0.045336,-4.418826
1009.152344,-4.596931,-2.595443,8.263187,0.447670
1009.156250,-3.543467,-9.493107,-3.334897,-1.682723
1009.160156,-2.061758,-6.021112,-10.480702,-4.644098
1009.164062,-6.346198,-8.762130,-6.540568,-13.221483
1009.167969,-12.312861,-9.395461,-6.770464,-13.195651
1009.171875,-6.016271,-17.214371,-11.454020,-9.931259
1009.175781,-13.336101,-16.054314,-9.999067,-8.350926
1009.179688,-11.274017,-1.703289,-9.935803,-4.782537
1009.183594,-11.102458,1.542534,-7.892772,-8.501833
1009.187500,-8.794058,-6.023978,-6.738885,-7.477899
1009.191406,0.434455,-2.685881,-6.338419,-8.929712
