timestamp,TP9,AF7,AF8,TP10
1000.000000,-3.061269,-0.490756,0.065762,3.920571
1000.003906,0.601478,2.655516,2.925685,0.304337
1000.007812,12.433572,-0.606450,3.620482,8.535459
1000.011719,3.590381,5.648586,4.624474,12.441334
1000.015625,7.936001,10.635949,4.986720,7.689352
1000.019531,12.864949,11.296413,8.558251,17.862692
1000.023438,8.172197,5.841288,10.152186,19.397717
1000.027344,4.079270,6.137426,9.617063,10.189363
1000.031250,4.064395,16.486900,13.543790,10.788459
1000.035156,9.748912,1.595558,7.603178,7.007801
1000.039062,7.915264,11.853420,3.899881,8.048458
1000.042969,2.089809,6.669496,2.828141,1.546465
1000.046875,-1.120739,-2.918911,4.280464,2.306013
1000.050781,4.485261,4.942008,8.717326,1.809535
1000.054688,-6.385291,-5.536720,-7.776065,-1.692173
1000.058594,2.179729,-3.657574,-2.710528,-7.501983
1000.062500,-11.206521,-5.816782,-5.550845,-5.233361
1000.066406,-12.587202,-10.828341,-12.284227,-8.261193
1000.070312,-3.755505,-6.335975,-8.545643,-13.576032
1000.074219,-17.226618,-11.943446,-11.685787,-8.356791
1000.078125,-11.581233,-9.021402,-10.580070,-7.802219
1000.082031,-11.441317,-7.779486,-8.449397,-11.217809
1000.085938,-5.237712,0.315635,-3.993793,-10.973787
1000.089844,2.098188,-1.844287,-8.635930,-7.295701
1000.093750,0.080567,4.804275,4.252241,-0.081453
1000.097656,-6.120837,-6.038767,-3.080694,-2.389120
1000.101562,7.387331,-2.533266,1.523926,-0.539619
1000.105469,6.589843,3.182154,7.682963,0.986642
1000.109375,11.189238,3.280714,8.580129,3.721404
1000.113281,9.006328,12.280171,4.380372,10.707127
1000.117188,15.735878,8.503830,3.998023,11.290405
1000.121094,6.580575,12.863779,13.800375,4.556090
1000.125000,7.653396,3.270171,12.050148,13.659318
1000.128906,13.540687,16.495098,0.929334,11.908505
1000.132812,5.232953,7.913267,5.878323,4.473275
1000.136719,9.035867,7.390722,10.698796,-3.719536
1000.140625,7.725808,4.659244,8.441529,11.159578
1000.144531,1.805882,6.289609,12.910407,7.570294
1000.148438,4.982625,3.495758,-3.588663,5.957703
1000.152344,-6.642990,-4.053590,0.116520,4.954938
1000.156250,1.891544,5.894921,1.830982,-4.701494
1000.160156,3.834043,-0.544234,-7.597044,-6.916343
1000.164062,-6.838314,-2.263268,-9.104151,-0.129430
1000.167969,-7.371668,-7.414280,-13.403508,-5.940511
1000.171875,-11.236301,-6.966829,-13.208137,-3.823787
1000.175781,-9.729409,-5.181744,-8.236151,-11.337032
1000.179688,-14.727950,-13.771877,-12.235135,-8.560676
1000.183594,-18.084568,-4.146930,-12.200860,-7.531087
1000.187500,-2.997651,-9.955687,-7.188785,-5.644336
1000.191406,-9.253891,-5.626336,-5.406878,-3.414492
1000.195312,-2.635758,-8.712283,-3.922216,-8.608424
1000.199219,2.694825,-3.000007,3.861803,-8.102866
1000.203125,10.737880,4.252762,3.788320,-4.811837
1000.207031,4.832409,-4.004343,3.567834,10.843411
1000.210938,9.150538,8.628845,5.800157,4.606054
1000.214844,10.118446,5.381075,15.165772,9.934204
1000.218750,9.361670,5.551337,9.705228,7.852563
1000.222656,9.484586,12.810294,7.849050,8.024341
1000.226562,4.565921,14.365886,9.862879,6.023273
1000.230469,13.851678,15.084724,10.846884,15.174316
1000.234375,6.885637,17.449286,14.045437,6.822420
1000.238281,7.590254,4.494503,16.385249,6.603694
1000.242188,6.729854,8.699585,5.259553,-2.588713
1000.246094,2.157148,-0.088849,2.937138,1.037938
1000.250000,-1.578954,-2.780517,0.978811,-1.632785
1000.253906,-8.304031,-2.639797,-3.388130,-2.383668
1000.257812,-1.288743,-6.169201,-2.820480,-7.629516
1000.261719,-13.490944,-8.029527,-9.509540,-4.081088
1000.265625,-7.254625,-13.897810,-13.966633,-2.794883
1000.269531,-10.547042,-6.449074,-9.798476,-2.945316
1000.273438,-6.373921,-15.032619,-13.958538,-9.151413
1000.277344,-11.109070,-15.042062,-3.686343,-4.281508
1000.281250,-8.613086,-13.281449,-13.917216,-8.004474
1000.285156,-6.332565,-8.168013,-9.005056,-3.946467
1000.289062,-14.860491,-1.565128,-7.762870,-9.785385
1000.292969,-2.462883,-7.425605,-5.863614,-4.433673
1000.296875,-5.633529,6.565604,-1.047876,1.324968
1000.300781,2.578167,7.493100,0.703672,-3.632702
1000.304688,-0.089803,1.078146,5.380571,5.314799
1000.308594,2.860763,5.614377,0.989378,3.532168
1000.312500,1.571066,7.023881,5.681302,1.686411
1000.316406,8.851355,14.537977,12.477032,7.355195
1000.320312,3.350355,17.501310,8.814939,15.350413
1000.324219,10.381294,12.553149,9.849680,6.952546
1000.328125,9.803421,12.771233,5.305425,10.385795
1000.332031,15.564414,14.807235,3.657922,12.478008
1000.335938,10.273895,1.907805,5.553278,9.439674
1000.339844,12.170325,4.882688,2.019366,7.798257
1000.343750,6.473727,7.462589,-1.313513,3.477549
1000.347656,6.001172,-4.347209,-7.890746,11.154363
1000.351562,5.711508,-3.899184,-0.979777,-0.528254
1000.355469,-2.793094,1.279768,-4.377149,-4.278691
1000.359375,-4.100833,-6.800119,-12.229652,-2.545141
1000.363281,-5.570905,-3.094887,-7.808058,-13.187389
1000.367188,-21.878217,-9.295387,-12.340782,-11.324181
1000.371094,-10.125913,-12.942079,-11.802953,-8.102882
1000.375000,-10.786557,-7.655972,-9.960499,-9.236777
1000.378906,-14.654325,-9.226167,-4.623260,-9.716835
1000.382812,-13.785504,-4.680792,-8.233746,-5.812286
1000.386719,-3.167258,-8.411311,-8.752098,-12.863591
1000.390625,0.240486,-6.729467,-8.807712,0.480074
1000.394531,-6.192418,-1.900451,-3.935056,-4.584193
1000.398438,1.012255,-0.024119,-1.807417,-1.344370
1000.402344,2.672410,-1.822168,-0.884087,-3.957311
1000.406250,7.029254,1.762100,-0.733865,8.686009
1000.410156,12.722165,5.982830,5.581216,3.773120
1000.414062,9.225341,12.036629,11.779975,12.634560
1000.417969,7.472460,10.479471,7.479044,13.634394
1000.421875,0.459064,10.003695,18.518786,19.909874
1000.425781,12.554977,9.951285,16.312507,4.749887
1000.429688,15.898965,8.579630,7.093388,7.941583
1000.433594,3.490031,5.014967,6.546438,7.616262
1000.437500,-1.182949,13.062573,3.530722,14.319458
1000.441406,7.731013,5.275178,4.767349,11.575763
1000.445312,7.166097,5.477012,12.306490,2.211920
1000.449219,0.882046,3.601890,-0.017239,-2.423478
1000.453125,-6.767147,-1.588609,-3.984181,-3.894979
1000.457031,-2.325796,6.660374,-2.382303,-8.216880
1000.460938,1.208554,-10.154909,-6.513585,-10.909441
1000.464844,-18.414257,-7.330539,-10.996709,-4.537052
1000.468750,-5.138570,-11.942101,-12.292925,-7.418005
1000.472656,-8.582849,-11.944374,-8.148091,-8.115098
1000.476562,-6.068038,-5.279949,-8.226774,-7.422284
1000.480469,-10.043418,-6.936962,-13.692197,-6.587836
1000.484375,-12.699662,-9.149741,-10.441003,-12.541662
1000.488281,-4.788379,-8.627574,-8.603824,-1.784838
1000.492188,-2.269595,-12.663842,2.541216,-7.871036
1000.496094,-0.563941,3.035215,-6.162879,5.894165
1000.500000,2.458918,-5.565366,6.547518,5.149499
1000.503906,6.560860,-8.781699,5.696616,5.520661
1000.507812,6.303750,8.423233,1.297187,13.427407
1000.511719,3.589586,3.989831,2.635101,12.796004
1000.515625,0.249461,9.150946,1.126951,7.841721
1000.519531,11.647567,3.995832,11.089852,9.164530
1000.523438,8.879994,14.192225,13.837832,17.237614
1000.527344,7.931725,5.560891,12.157147,17.060802
1000.531250,10.846322,7.232603,11.975594,10.708804
1000.535156,8.871241,9.147000,8.677330,12.917929
1000.539062,4.483839,7.186028,0.779317,-1.010908
1000.542969,1.269932,-1.296352,12.385876,1.768638
1000.546875,2.043537,-2.217161,6.900387,-2.116094
1000.550781,-3.420464,-3.376960,-4.871074,3.476107
1000.554688,-3.998936,-0.711497,-2.692686,-3.119066
1000.558594,-4.371191,-3.933484,-8.704494,-1.489330
1000.562500,-5.160261,-8.162754,-12.141541,-10.632929
1000.566406,-11.301471,-4.779093,-5.383138,-9.655439
1000.570312,-8.415147,-11.742127,-15.454953,-11.889995
1000.574219,-14.383264,-12.085108,-1.313982,-11.864551
1000.578125,-10.579574,-6.344524,-9.621564,-15.659168
1000.582031,-11.614403,-11.942008,-14.638464,-15.741516
1000.585938,-6.237361,-14.606870,-1.474904,-5.551696
1000.589844,-6.161514,-6.390249,-4.009895,-1.879754
1000.593750,-0.257119,0.242650,-4.100391,-0.642113
1000.597656,-4.293892,0.859391,0.261159,-10.403156
1000.601562,-2.328398,-4.789838,5.093171,-1.481345
1000.605469,9.287316,7.778695,1.334196,4.336666
1000.609375,2.481788,7.536593,6.132535,-6.039071
1000.613281,8.710005,5.566147,5.550449,3.802383
1000.617188,12.573052,14.415362,10.125609,7.872835
1000.621094,10.837561,14.824253,6.395971,8.033954
1000.625000,11.899736,13.752746,5.132795,10.536365
1000.628906,15.374074,9.494151,5.527046,8.881033
1000.632812,4.846610,6.239119,13.360898,11.685903
1000.636719,9.241475,9.766503,6.416632,6.786925
1000.640625,-3.441130,7.198407,5.255390,5.425826
1000.644531,-0.309683,4.812358,8.779860,-5.921856
1000.648438,-0.462573,-1.759075,-6.754879,0.893985
1000.652344,-1.047445,4.860503,6.269095,-11.678127
1000.656250,-4.721257,-2.712564,-3.167143,-6.909597
1000.660156,-9.376442,-7.076031,-8.134612,-3.047538
1000.664062,-13.321675,-9.134340,-11.704148,-3.722826
1000.667969,-4.846200,-8.755949,-12.594241,-9.021959
1000.671875,-9.853454,-15.772138,-7.262517,-16.627238
1000.675781,-2.704728,-7.651300,-12.686645,-10.582597
1000.679688,-13.026635,-9.917079,-2.593280,-12.805820
1000.683594,-8.282771,-3.306039,-12.916634,-13.838079
1000.687500,-5.222866,-4.571046,-12.767716,-1.247314
1000.691406,-6.964692,-2.668444,-3.021831,-4.102091
1000.695312,-3.630356,2.529842,-6.382489,-1.851532
1000.699219,4.200685,-3.698398,-2.115288,2.622042
1000.703125,0.344123,-0.320383,0.594801,0.721952
1000.707031,1.325382,12.746902,2.155880,4.870746
1000.710938,10.908669,6.542950,13.246331,12.877029
1000.714844,1.628896,10.762178,8.348277,7.817363
1000.718750,10.474648,9.077624,6.588069,2.334351
1000.722656,3.053923,10.129321,8.619613,8.881414
1000.726562,10.374747,4.339925,5.407372,10.447301
1000.730469,3.746905,0.246926,12.065129,4.805320
1000.734375,9.957905,5.478353,12.451690,8.212088
1000.738281,2.232429,3.567014,4.398771,5.398851
1000.742188,1.732758,4.949229,6.436455,8.052945
1000.746094,4.742766,-3.957270,4.635408,8.920449
1000.750000,3.279718,-2.158868,-1.621682,-2.879391
1000.753906,-1.819696,5.654395,-0.108218,-7.990149
1000.757812,-4.471022,-5.458632,-5.939363,1.221513
1000.761719,-1.112550,-2.062582,-15.050317,-8.871795
1000.765625,-3.816983,-7.570584,-7.427684,-7.182006
1000.769531,-9.939921,-11.594614,-8.147296,-7.498370
1000.773438,-2.894592,-13.458056,-12.401815,-9.003586
1000.777344,-2.364641,-8.560444,-8.652386,-10.206797
1000.781250,-5.775914,-7.645295,2.402878,-16.907360
1000.785156,-6.678573,-4.680141,-10.173080,-12.676642
1000.789062,-4.742741,-6.099346,-2.919216,-6.463938
1000.792969,-4.441121,-5.963729,4.449919,-7.024127
1000.796875,-2.329247,-0.248443,0.384196,3.551420
1000.800781,-1.829226,6.593797,0.006979,0.035345
1000.804688,7.867766,12.343506,-4.149317,1.047598
1000.808594,7.395670,9.085197,-2.097044,5.389961
1000.812500,7.483111,4.191129,2.067021,11.218679
1000.816406,4.103901,15.099703,7.209511,5.273048
1000.820312,4.176854,16.016401,2.789605,5.842629
1000.824219,15.371251,11.238231,6.810481,13.387502
1000.828125,11.710256,9.151723,4.859418,14.340658
1000.832031,4.849958,13.141939,8.759550,12.093450
1000.835938,1.205669,4.664818,10.381179,8.533429
1000.839844,10.451506,4.807414,0.747243,2.078098
1000.843750,-2.658364,8.742291,-3.845087,1.450644
1000.847656,-11.476528,-2.678180,0.497910,-1.419311
1000.851562,-7.722583,-8.180332,2.381777,-0.211666
1000.855469,-6.923962,-6.275763,-0.797484,4.664031
1000.859375,-6.916417,-7.357816,-3.715059,-8.442933
1000.863281,-10.640199,-10.921731,-7.495804,-8.345671
1000.867188,-16.332191,-10.537341,-8.906697,-11.965539
1000.871094,-11.073552,-11.580194,-5.003965,-15.242271
1000.875000,-9.865123,-8.865650,-9.354933,-11.111805
1000.878906,-13.031439,-10.660833,-6.713381,-3.246589
1000.882812,-10.945096,-14.979114,-5.444300,-11.237189
1000.886719,-8.724780,-3.719793,-3.461997,-9.199807
1000.890625,-0.803421,-9.103040,-7.321568,-5.785185
1000.894531,-3.520533,-7.225320,-3.883745,-5.058890
1000.898438,-14.267710,0.174292,1.809102,-4.548448
1000.902344,-0.781568,1.906411,-0.223872,6.652984
1000.906250,8.164425,7.604549,2.635152,17.435196
1000.910156,5.460305,1.555962,11.567538,8.333020
1000.914062,6.220968,6.132825,10.970590,6.225664
1000.917969,6.837803,7.996162,10.772046,10.978574
1000.921875,4.939283,13.332352,3.897295,3.130937
1000.925781,13.042572,9.037968,10.877364,10.258793
1000.929688,12.786647,11.553231,11.038418,7.224624
1000.933594,14.977642,-0.069599,16.183242,5.419442
1000.937500,5.099421,-0.020564,-1.674006,10.089659
1000.941406,2.284013,9.995733,2.317639,6.327621
1000.945312,2.034908,6.836899,1.728482,11.016985
1000.949219,1.218272,-2.110859,-2.500552,2.778255
1000.953125,-1.817097,-2.086104,-4.490623,2.201176
1000.957031,-2.054469,2.223958,-2.953583,-4.425798
1000.960938,-2.411192,-7.697132,-8.486239,-15.601399
1000.964844,-5.545073,-2.651679,-7.296514,-15.753450
1000.968750,-8.794670,-3.135194,-2.289779,-4.546469
1000.972656,-7.752662,-4.737179,-4.931976,-10.903449
1000.976562,-3.866227,-10.014023,-4.397208,-17.452406
1000.980469,-11.264976,-6.215064,-8.640071,-11.234770
1000.984375,-6.652719,-4.957619,-9.361899,-10.642417
1000.988281,-7.348430,-2.698385,-7.388675,-10.268214
1000.992188,-3.430744,-7.145851,-3.467720,-4.788682
1000.996094,2.029607,-12.093158,-1.998139,-6.447803
1001.000000,-5.181819,-1.696998,-3.086126,-6.340281
1001.003906,-3.539382,1.664808,4.066229,2.055780
1001.007812,-0.547501,9.299711,13.814846,14.891994
1001.011719,3.213151,0.924248,4.770729,6.020511
1001.015625,10.047738,1.792750,10.238134,11.695808
1001.019531,14.428004,4.373952,10.809252,9.095057
1001.023438,9.442609,8.281512,9.500118,9.370368
1001.027344,5.578154,13.915957,9.875464,12.857836
1001.031250,8.556694,5.241466,4.573379,10.586848
1001.035156,2.062163,7.129421,5.818207,0.923995
1001.039062,5.789002,6.435303,5.679531,-1.652759
1001.042969,3.017107,2.909731,0.164753,3.895784
1001.046875,2.858601,8.894815,3.661834,-3.573194
1001.050781,-0.278913,-0.804384,-2.698422,1.606463
1001.054688,-2.507570,1.187968,-2.403161,-1.326475
1001.058594,-5.869301,-6.194211,-9.014005,-1.548172
1001.062500,-1.128820,-2.143514,-12.164511,-3.532580
1001.066406,-11.689441,-6.077501,-13.322375,2.843196
1001.070312,-8.040348,-3.579659,-10.937349,-8.598477
1001.074219,-18.518152,-8.915284,-16.375977,-10.469192
1001.078125,-13.777532,-16.928304,-10.258568,-7.822272
1001.082031,-11.953979,-10.976741,-14.695063,-9.761000
1001.085938,-4.576852,-7.398900,-4.023087,-5.199264
1001.089844,-3.142603,-2.257909,-3.631031,-4.846343
1001.093750,-1.476718,-3.038554,-5.480534,-12.316019
1001.097656,0.100039,3.519643,-4.267606,2.726599
1001.101562,-1.424689,3.034868,10.525732,-0.336603
1001.105469,-2.967305,5.232287,4.138343,7.736754
1001.109375,-0.284368,0.754830,3.450672,6.964314
1001.113281,6.537797,8.717091,10.427712,9.286741
1001.117188,13.515803,9.446797,6.597100,12.484261
1001.121094,10.878823,7.927096,12.149708,11.470876
1001.125000,7.499670,6.958862,13.824166,7.766653
1001.128906,14.661100,8.266447,8.175520,14.803050
1001.132812,7.669812,11.136442,8.658317,11.060149
1001.136719,3.915704,4.220616,6.853379,4.974469
1001.140625,6.058506,10.414295,6.175023,-0.393780
1001.144531,2.990538,6.139913,8.453131,7.467543
1001.148438,-0.871479,3.099091,10.808541,-2.384447
1001.152344,-0.182522,2.781322,-1.556873,-6.009949
1001.156250,-6.275017,-0.830837,6.181369,-5.334519
1001.160156,-1.860068,-17.157279,-10.901256,-7.181613
1001.164062,-6.131277,-10.773027,-5.505634,-10.600544
1001.167969,-7.607711,-8.995981,-0.723616,-9.383162
1001.171875,-4.612980,-11.382596,-5.763568,-4.022379
1001.175781,-4.341935,-4.862157,-9.328310,-10.657492
1001.179688,-7.120291,-6.696453,-4.346984,-15.664306
1001.183594,-10.317301,-9.243180,-6.000973,-4.061201
1001.187500,-10.162391,-8.727493,-10.378885,-4.895998
1001.191406,-1.150296,-7.277195,-5.712985,-2.196614
1001.195312,-8.605059,-1.362134,-12.190181,-5.367124
1001.199219,1.151856,-0.003074,3.476131,3.080399
1001.203125,-2.654461,-5.271806,-0.100825,0.956730
1001.207031,-2.788949,2.586880,0.557815,4.161179
1001.210938,4.265158,13.884724,9.957140,13.473015
1001.214844,10.877206,11.536300,2.798895,6.021430
1001.218750,7.600778,9.948240,13.817177,14.390040
1001.222656,9.922990,5.108024,12.040769,8.712566
1001.226562,9.337404,7.169800,7.186365,13.109960
1001.230469,12.103983,9.923900,11.155339,5.832330
1001.234375,11.013933,10.153035,9.599942,8.056275
1001.238281,10.896439,1.744674,5.908638,7.230590
1001.242188,6.162478,-0.195655,0.473664,6.771665
1001.246094,1.286962,7.813997,3.405177,2.335448
1001.250000,1.769727,-4.580286,6.316811,-2.267484
1001.253906,-7.228446,-10.941208,0.653095,-9.898763
1001.257812,-8.177839,0.548373,-4.074137,2.838537
1001.261719,-1.672154,1.207497,-7.858358,-6.897337
1001.265625,-3.827448,-9.707545,-14.115670,-8.904698
1001.269531,-11.989084,-13.799948,-9.196448,-10.204309
1001.273438,-6.456646,-7.307598,-11.889439,-10.009417
1001.277344,-5.082388,-12.057273,-11.916517,-8.508674
1001.281250,-6.304550,-8.542123,-4.715253,-7.661614
1001.285156,-6.629373,-4.636851,-2.456246,-3.362641
1001.289062,-12.424393,-1.273684,-6.303239,-4.275969
1001.292969,-5.369125,-0.832041,-2.637363,-3.969185
1001.296875,-9.703351,-2.943851,-2.073740,3.417727
1001.300781,-1.053465,-2.356367,5.005517,-0.192914
1001.304688,3.790311,-1.446519,9.275845,2.667278
1001.308594,1.030587,5.428715,2.715715,5.062330
1001.312500,4.362218,7.182827,12.424004,5.238651
1001.316406,2.141114,7.104747,12.227575,6.770295
1001.320312,16.633950,4.840269,8.101410,10.993046
1001.324219,4.606827,7.928673,15.011164,8.312803
1001.328125,14.995299,0.536243,10.482095,10.282307
1001.332031,5.952012,0.837711,11.652140,1.006293
1001.335938,6.233418,11.115184,8.836292,4.089482
1001.339844,7.842249,3.805544,6.813477,-1.264024
1001.343750,-3.913826,-4.482207,0.275541,9.486994
1001.347656,6.463579,5.608580,4.358192,-6.583202
1001.351562,-4.087214,1.221509,-2.832782,-4.274913
1001.355469,1.383600,0.190266,4.885437,-3.321485
1001.359375,-1.160005,-5.178964,-2.820227,-11.606906
1001.363281,-3.398836,-6.619386,-7.567647,-3.907444
1001.367188,-9.672991,-6.736851,-11.051362,-13.951424
1001.371094,-5.799863,-12.533826,-13.853178,-3.751010
1001.375000,-14.442537,-15.811669,-11.622297,-4.822853
1001.378906,-5.951263,-13.219366,-8.272780,-10.877794
1001.382812,-4.045112,-7.855489,-7.755154,-9.242268
1001.386719,-10.145564,-3.507761,-11.763566,-1.947064
1001.390625,-10.678019,-4.416933,-12.175582,-6.169747
1001.394531,-2.935691,-5.418714,-7.244612,-4.557651
1001.398438,-2.907048,1.704273,4.278788,7.680515
1001.402344,-0.969705,3.678939,6.353012,-3.512374
1001.406250,-4.470230,-1.512178,1.242532,-3.813606
1001.410156,1.969132,-0.338618,3.888167,3.338090
1001.414062,10.042361,8.572543,5.386550,10.284809
1001.417969,11.932742,4.862450,12.515825,10.456193
1001.421875,11.868701,18.528470,9.038788,6.496892
1001.425781,4.064891,5.455890,7.323215,7.005552
1001.429688,11.179202,15.327338,11.563224,18.506296
1001.433594,14.467098,7.666906,11.540707,11.265340
1001.437500,2.697603,8.602529,7.113996,13.835480
1001.441406,6.330728,-0.163983,7.525081,11.781260
1001.445312,2.819929,2.158870,-2.324806,6.498804
1001.449219,7.019965,-5.429870,0.610206,4.363680
1001.453125,1.211659,4.675084,-1.778391,1.255367
1001.457031,-8.316424,-8.208177,-0.890119,2.250078
1001.460938,-9.465914,-0.153125,-12.431149,-8.670836
1001.464844,-11.596416,-5.671478,-14.266600,-8.140465
1001.468750,-3.678573,-12.602482,-11.704791,-8.773186
1001.472656,-17.447532,-9.929111,-12.057404,-2.251692
1001.476562,-6.866987,-14.712500,-9.485653,-8.519398
1001.480469,-8.637321,-7.166140,-5.214818,-2.191359
1001.484375,-0.462530,-13.842047,-8.335553,-7.242714
1001.488281,-11.175781,-10.353040,-6.103931,-4.917709
1001.492188,-10.305324,0.624281,-5.590737,-2.749579
1001.496094,-5.744211,-11.761110,0.991473,-3.310274
1001.500000,7.832417,-3.997283,-1.673631,-0.813034
1001.503906,2.314486,-1.551311,-4.403589,3.931370
1001.507812,4.999900,6.184295,2.790588,7.283533
1001.511719,8.066706,4.753546,7.445194,10.061070
1001.515625,12.630160,-0.610153,2.616842,6.289734
1001.519531,16.438014,8.912749,9.921987,14.063446
1001.523438,5.033108,10.980779,14.509204,5.483839
1001.527344,11.165895,15.284058,9.881544,11.331342
1001.531250,10.940864,11.509464,12.874694,10.523277
1001.535156,7.649000,11.108306,10.788980,15.630708
1001.539062,9.006832,2.791160,-1.432983,10.988279
1001.542969,4.199350,-1.726624,0.941488,3.435858
1001.546875,2.899461,8.595289,5.863941,3.491214
1001.550781,3.273779,-3.380809,1.945568,-2.920669
1001.554688,-7.642080,2.572097,0.546595,0.457395
1001.558594,-4.824649,0.527792,-6.972775,-1.293367
1001.562500,-2.895093,-8.380785,-11.291928,-7.162787
1001.566406,-9.957614,-16.322619,-7.082517,-12.100534
1001.570312,-8.287986,-4.334190,-9.764139,-8.336409
1001.574219,-9.458320,-8.025614,-9.064567,-7.027189
1001.578125,-4.565484,-10.247107,-10.269697,-8.367143
1001.582031,-14.511928,-8.514577,-6.113315,-10.561085
1001.585938,-7.912186,-13.411176,-3.480913,-10.276026
1001.589844,-5.218353,-11.972506,-7.410611,-15.580490
1001.593750,-1.458243,-2.566400,-5.940826,-1.700658
1001.597656,-4.402507,1.343811,0.908554,1.893510
1001.601562,-3.280564,1.745890,-1.631888,-2.882212
1001.605469,9.456497,2.475186,-3.419894,6.414358
1001.609375,3.594690,6.737267,-0.740538,2.461784
1001.613281,10.254149,13.660110,6.543024,3.504875
1001.617188,10.037574,7.791540,4.356224,7.364550
1001.621094,10.485142,7.693057,10.676337,11.901820
1001.625000,5.586286,12.385696,11.259840,16.077305
1001.628906,8.096511,17.408967,14.948314,13.813196
1001.632812,7.287568,7.486914,7.508044,10.192475
1001.636719,11.758686,4.831085,12.196974,16.447755
1001.640625,5.761129,7.103273,0.685689,5.927161
1001.644531,3.110635,1.485741,0.077321,5.317102
1001.648438,5.179061,0.624350,3.439341,-1.198107
1001.652344,4.803957,-7.579322,-6.670605,-0.276971
1001.656250,-11.027365,-16.026774,-7.203587,-1.721867
1001.660156,-2.794853,-7.435264,-13.131059,-6.816881
1001.664062,-8.559112,-5.661567,-7.720190,0.573416
1001.667969,-10.257877,-8.678429,-14.859428,-11.532352
1001.671875,-2.980031,-6.004396,-13.462382,-12.212099
1001.675781,-12.238992,-4.528585,-15.584235,-10.159592
1001.679688,-10.229181,-4.390220,-5.785176,-7.753763
1001.683594,-4.729411,-2.692393,-5.679271,-5.695593
1001.687500,-13.246346,-5.819994,-10.221672,-10.531336
1001.691406,-14.196754,-9.503740,-1.800251,0.325939
1001.695312,-2.508000,-11.349280,-3.681884,-6.227412
1001.699219,5.052167,2.282390,2.273527,-3.126854
1001.703125,5.488850,-1.613751,6.846489,1.897820
1001.707031,0.715201,2.928098,5.330348,-4.158822
1001.710938,9.606578,-0.726089,3.919361,13.560721
1001.714844,3.784768,7.308514,6.268901,3.277427
1001.718750,9.815404,10.110962,3.105645,7.778173
1001.722656,6.012177,14.224959,17.428849,12.063218
1001.726562,17.209481,17.681812,12.994411,7.781167
1001.730469,9.217483,12.975801,12.242626,15.940686
1001.734375,10.402777,8.715006,4.079463,9.000882
1001.738281,0.022573,6.779100,4.124129,4.485964
1001.742188,0.256401,4.877648,-2.313594,3.058206
1001.746094,6.617057,0.554463,-0.545666,-2.994957
1001.750000,-4.632184,-3.165929,2.884435,-1.449923
1001.753906,2.000195,-0.714996,-4.200135,-5.861744
1001.757812,1.714466,-6.774959,-5.852320,-3.924931
1001.761719,0.122494,-0.724277,-10.798134,-3.551576
1001.765625,-4.003591,-4.270791,-12.560019,-9.493258
1001.769531,-9.029085,-14.161419,-5.698692,-7.011849
1001.773438,-7.714277,-5.872856,-3.588233,-12.149792
1001.777344,-11.450519,-15.364808,-7.686501,-8.427513
1001.781250,-11.885595,-11.891859,-9.598434,-7.783980
1001.785156,-7.911241,-6.487465,-4.875253,-3.337047
1001.789062,-7.267109,-6.699652,-8.049456,-1.632441
1001.792969,-1.417213,-4.621108,-6.951314,-7.010668
1001.796875,0.077383,3.150567,2.917320,-0.800162
1001.800781,-0.108581,6.489319,3.507966,-2.753316
1001.804688,1.758068,0.362802,1.191176,5.082939
1001.808594,2.509241,4.696760,3.716659,13.277874
1001.812500,-0.942085,9.953756,8.474164,9.473677
1001.816406,13.478073,7.990700,6.475094,11.400281
1001.820312,3.839996,4.776133,9.408332,17.016766
1001.824219,19.458930,2.752856,8.789360,5.502775
1001.828125,12.813403,9.309578,3.740421,6.916640
1001.832031,5.630045,12.556490,18.240651,4.299825
1001.835938,14.047259,7.709346,11.711349,6.760518
1001.839844,7.330081,5.147163,-0.572271,3.959774
1001.843750,6.046193,-1.233109,7.679771,6.348310
1001.847656,4.941250,4.480707,0.758848,2.033990
1001.851562,0.326923,-4.098261,-0.473340,3.163932
1001.855469,-3.517300,-5.828590,-3.099921,-1.468907
1001.859375,-8.868412,-0.660075,1.637361,-6.091008
1001.863281,-2.138337,-7.201534,-4.822908,-6.231949
1001.867188,-6.982830,-16.968589,-5.087793,-7.112012
1001.871094,-15.259103,-8.316644,-13.703163,-6.892046
1001.875000,-10.223616,-10.240598,-1.786471,-7.858619
1001.878906,-15.289895,-10.849819,-10.870024,-16.676067
1001.882812,-8.506327,-7.545500,-11.830666,-6.279149
1001.886719,-9.621493,-8.975095,-7.356174,-4.527259
1001.890625,3.945147,-6.900837,0.100066,-10.717184
1001.894531,-1.245385,-7.405883,2.009680,2.631513
1001.898438,1.766299,-6.707206,-2.183136,4.317258
1001.902344,1.005825,4.930961,3.674179,-0.647616
1001.906250,9.562826,4.777079,3.037874,3.470593
1001.910156,6.525991,6.523291,6.753988,6.945914
1001.914062,2.057356,5.803334,4.321796,-1.116316
1001.917969,12.561107,16.193412,13.832507,8.610124
1001.921875,14.726660,5.630688,14.699667,6.635692
1001.925781,9.782293,5.738043,10.981931,20.281606
1001.929688,15.680523,16.260030,10.081560,2.487701
1001.933594,9.095347,3.017138,8.500534,8.284893
1001.937500,-1.852917,5.031028,5.558941,5.122871
1001.941406,2.833038,3.971880,-6.410850,2.360348
1001.945312,2.025263,4.495534,9.023492,1.853158
1001.949219,-3.702226,-4.220709,4.141379,1.538056
1001.953125,-0.494371,0.789440,1.336631,-1.902473
1001.957031,-0.818298,-8.888801,-1.545838,-1.485988
1001.960938,-3.816168,1.894889,-10.105497,-7.480484
1001.964844,-7.868481,-6.662411,-2.508765,-8.120616
1001.968750,-9.414165,-7.829559,-14.821667,-8.372823
1001.972656,-9.795574,-8.144292,-14.009561,-15.486154
1001.976562,-13.079439,-12.567819,-8.832585,-3.027312
1001.980469,-14.160653,-9.264292,-6.474746,-8.138025
1001.984375,-0.304492,-11.656101,-14.327080,-10.777570
1001.988281,-14.898326,-6.208922,2.261743,-3.597899
1001.992188,-6.309411,-5.923069,-8.716555,-13.329641
1001.996094,2.625170,-1.187070,-0.865109,-2.507858
1002.000000,3.084910,-4.512316,0.415524,0.658865
1002.003906,0.613808,-5.867040,0.892594,2.099651
1002.007812,5.919557,1.633992,7.448976,2.390399
1002.011719,3.789448,7.743545,10.605531,7.755376
1002.015625,9.006177,10.330984,8.679813,6.637579
1002.019531,10.007708,10.100246,5.551393,3.832088
1002.023438,5.026462,11.622579,13.540766,6.638220
1002.027344,9.365021,5.046673,14.825772,9.855583
1002.031250,11.301583,12.703842,5.418402,13.643679
1002.035156,9.578234,15.000851,9.866686,10.483924
1002.039062,8.166195,13.448798,1.965020,7.042856
1002.042969,7.601064,3.271113,5.537430,1.211040
1002.046875,-2.370004,-1.995968,-1.451722,5.263358
1002.050781,-0.234729,2.496588,-1.310398,2.122564
1002.054688,-3.666013,1.122653,-6.327971,-3.370745
1002.058594,-8.085318,-7.118480,-5.216544,-7.263651
1002.062500,-3.326119,-0.481533,-3.013921,-5.183940
1002.066406,-7.349454,-9.357410,-7.384915,-8.202771
1002.070312,-1.100344,-3.832429,-9.308865,-8.410887
1002.074219,-8.174897,-12.299008,-7.185533,-7.886029
1002.078125,-7.329384,-7.400740,-9.151001,-11.265739
1002.082031,-8.905080,-6.775552,-10.364587,-5.858074
1002.085938,-7.189916,-6.512327,-9.653508,-21.445496
1002.089844,-5.493867,-9.211628,-4.670201,-2.976243
1002.093750,-2.153246,-6.075508,-5.362957,-6.141171
1002.097656,-0.255325,-2.442675,4.250613,-6.119108
1002.101562,6.009788,-1.131373,5.688378,1.549660
1002.105469,0.892583,9.285311,-1.611646,3.769053
1002.109375,10.329874,-1.823028,4.683436,10.089591
1002.113281,9.126153,5.969486,7.924284,7.471611
1002.117188,5.643686,12.384646,5.971253,5.537228
1002.121094,8.502441,11.441085,7.191312,10.929644
1002.125000,15.465215,6.256523,14.022176,9.474748
1002.128906,12.721437,12.773907,10.351891,10.759647
1002.132812,8.887289,13.662935,7.152922,9.177500
1002.136719,6.117588,3.406563,14.630540,4.639576
1002.140625,10.547798,5.309982,9.582211,7.947529
1002.144531,8.727721,5.445500,-2.278273,-2.797958
1002.148438,-1.986591,1.783918,-1.031551,-1.636410
1002.152344,-6.944071,-3.910981,-1.626236,-4.965352
1002.156250,-1.181667,-3.882560,-5.724809,-1.214631
1002.160156,-3.903464,-7.469170,-9.491246,-10.588005
1002.164062,-1.409917,-7.698699,-7.997202,-5.236439
1002.167969,-5.967765,-3.511019,-11.247962,-8.617872
1002.171875,-9.881567,-9.423234,-14.969048,-10.913829
1002.175781,-11.458787,-13.923954,-18.314321,-4.428652
1002.179688,-5.538271,-13.376126,-11.566955,-4.544143
1002.183594,-5.144757,-10.047169,-7.402904,-8.041076
1002.187500,-10.550947,-10.330008,-6.004084,-10.118931
1002.191406,2.556528,-5.654623,-4.779494,-11.785336
1002.195312,-2.492255,-2.037145,0.121132,-2.967124
1002.199219,2.535712,1.606791,-0.367370,1.210927
1002.203125,-5.148428,4.421853,-4.767988,6.828298
1002.207031,2.406321,6.336019,-0.023097,6.908954
1002.210938,4.445283,7.798893,4.845592,11.062243
1002.214844,6.590863,13.182451,7.225149,10.549803
1002.218750,8.547719,6.231339,7.700442,20.452950
1002.222656,10.467187,6.594008,13.083425,7.505240
1002.226562,16.878734,5.676098,5.221175,18.552342
1002.230469,11.494175,10.995220,3.115044,-4.438936
1002.234375,8.668410,7.316591,10.043346,1.942366
1002.238281,10.185236,7.896232,3.730006,5.691451
1002.242188,3.585162,5.608517,5.964477,10.640586
1002.246094,1.788580,7.791027,-0.312466,6.765612
1002.250000,-3.229389,-0.794678,2.746999,-5.410859
1002.253906,-11.565281,-2.349988,-4.426120,-5.682023
1002.257812,-2.354159,-0.033479,-4.102250,-6.535974
1002.261719,-4.959103,-7.463957,-7.664304,-6.039922
1002.265625,-9.315165,-3.550759,-3.873927,-8.603995
1002.269531,-5.610961,-14.925243,-8.834621,-6.389339
1002.273438,-9.689183,-13.569758,-8.366669,0.869404
1002.277344,-6.300671,-5.734241,-7.041916,-8.604673
1002.281250,-11.809663,-8.914578,-0.674774,-8.665977
1002.285156,-4.011630,-6.500510,-9.695869,-7.221109
1002.289062,-7.702903,-3.053350,-10.442006,-7.452183
1002.292969,-8.235888,-2.504602,1.873276,-5.688691
1002.296875,1.225125,4.923221,-6.623941,-0.805589
1002.300781,2.671757,-0.374818,-1.921945,-6.375498
1002.304688,0.943178,8.321265,10.306449,4.857854
1002.308594,2.504038,3.599955,7.565661,8.502071
1002.312500,5.442813,14.364627,10.586476,6.997743
1002.316406,9.780356,5.992658,10.295759,10.574026
1002.320312,14.682018,15.394802,11.293531,8.805144
1002.324219,16.088130,11.921435,10.892752,8.293475
1002.328125,9.858804,11.313128,6.897916,12.947895
1002.332031,9.118056,11.945437,10.296785,3.159351
1002.335938,8.730558,3.164278,6.485287,7.407608
1002.339844,4.063497,8.055120,-0.035245,9.399725
1002.343750,-1.286852,6.191766,-4.817131,3.650517
1002.347656,-0.325686,-0.472037,5.723094,-1.508333
1002.351562,1.034230,-4.029760,-8.177001,0.866733
1002.355469,-2.224959,-4.234751,5.320892,-6.022914
1002.359375,-6.128845,-5.622328,-7.468603,-0.277489
1002.363281,-8.557944,-3.811612,-9.690097,-0.847690
1002.367188,-14.791283,-4.430417,-12.667827,-10.291347
1002.371094,-14.847666,-7.415351,-8.017091,-5.560002
1002.375000,-14.452959,-7.458186,-9.891677,-18.003133
1002.378906,-8.437420,-10.552918,-10.078925,-11.675624
1002.382812,-5.146053,-13.064693,-3.139462,-9.074476
1002.386719,-14.651080,-3.833059,-5.288784,-8.295686
1002.390625,0.246747,-9.059755,-1.995014,-7.324622
1002.394531,-6.224278,-7.393151,-3.150204,-9.655803
1002.398438,-2.029159,0.849719,0.532649,3.232309
1002.402344,1.107693,1.949870,12.422863,8.322268
1002.406250,-3.538418,4.322458,7.077343,0.077055
1002.410156,11.859770,-0.703870,6.291538,-2.203700
1002.414062,4.512581,6.733805,7.643377,-1.928304
1002.417969,7.875040,5.773243,6.653735,10.461094
1002.421875,10.701362,5.813940,3.627869,15.729385
1002.425781,13.419536,7.241080,9.116377,12.096987
1002.429688,9.871952,6.388850,10.418224,1.196378
1002.433594,11.280104,14.909768,4.980029,14.761806
1002.437500,13.335120,2.774228,1.489107,3.585262
1002.441406,2.617268,-0.444266,5.662743,3.999706
1002.445312,0.466031,4.284361,3.599865,3.617153
1002.449219,0.400412,1.097350,3.438214,-0.561953
1002.453125,5.988281,7.361633,-4.019887,0.369125
1002.457031,-3.458843,-10.189554,1.536764,-7.360213
1002.460938,-3.765649,-3.426828,-11.260911,-7.379237
1002.464844,-6.008178,-9.885925,-10.832413,-7.383190
1002.468750,-11.919085,-4.317588,-7.002373,-11.630009
1002.472656,-13.747338,-8.069118,-7.413522,-16.971099
1002.476562,-7.955954,-10.713397,-5.616175,-10.110614
1002.480469,-9.070217,-9.128131,-9.711591,-9.039241
1002.484375,-7.473925,-9.260222,-16.175205,-17.444785
1002.488281,-7.560019,-1.317372,-3.445920,-6.174364
1002.492188,-7.820181,-4.346073,-6.249990,-2.791224
1002.496094,1.414172,-7.643614,-0.525439,0.245565
1002.500000,-7.512095,-3.353981,1.566041,-5.222585
1002.503906,1.301994,2.177703,7.297980,5.292694
1002.507812,3.403081,-0.221347,4.890853,3.769308
1002.511719,3.973842,4.084145,8.929053,7.438233
1002.515625,8.576175,9.502516,4.618343,12.070321
1002.519531,6.852706,6.199916,11.519700,9.491572
1002.523438,6.161291,6.833067,12.834511,10.243464
1002.527344,13.098650,15.923065,3.389268,7.024419
1002.531250,5.812834,1.644227,19.764436,6.043288
1002.535156,4.138140,13.275297,10.106918,11.316649
1002.539062,0.816459,9.974976,-3.093101,5.869512
1002.542969,4.742330,10.495476,3.373058,2.806680
1002.546875,0.793182,11.102736,2.101696,6.304743
1002.550781,8.421567,-0.108282,-1.494018,-0.188042
1002.554688,-2.661377,-2.679244,-3.014643,-1.009219
1002.558594,-5.862466,-1.217854,-8.209803,-10.225808
1002.562500,-8.003069,-5.244057,-2.332383,-5.929971
1002.566406,-11.143581,-2.615824,-13.634115,-7.857807
1002.570312,-16.163459,-12.435770,-13.599369,-11.628270
1002.574219,-5.143993,-8.709581,-6.854699,-18.120126
1002.578125,-12.337507,-3.680122,-7.691515,-6.243911
1002.582031,-5.215490,-15.874269,-7.797905,0.764200
1002.585938,-9.250604,-12.580556,-8.047855,-3.883577
1002.589844,-7.461737,-4.396426,-7.793428,-7.942670
1002.593750,-5.540080,-5.104098,-3.629548,-9.660576
1002.597656,-3.339382,0.591741,-6.085056,-4.798073
1002.601562,2.300040,4.382635,2.620100,-7.358266
1002.605469,-0.878560,4.160557,6.863500,3.075109
1002.609375,8.507145,10.968203,9.523244,1.127963
1002.613281,2.428113,13.801809,6.477290,10.336125
1002.617188,1.644895,7.133476,10.898520,9.470731
1002.621094,14.915812,11.078430,9.518500,11.796738
1002.625000,14.500951,4.790249,12.409336,9.586357
1002.628906,9.790577,10.686442,8.966515,17.172487
1002.632812,9.902347,13.734935,8.021505,10.438607
1002.636719,9.409424,11.243739,8.959934,6.766556
1002.640625,1.401463,7.979525,2.854392,8.416493
1002.644531,2.585495,-1.227327,1.007010,8.817314
1002.648438,5.167014,-7.066881,2.029243,0.513378
1002.652344,-0.899399,-3.874185,-2.320920,-4.419523
1002.656250,-1.849180,1.844212,-7.075412,5.481084
1002.660156,-4.944068,-0.267271,-8.987122,-3.600637
1002.664062,-15.729063,-5.255955,-7.543165,-7.197449
1002.667969,-11.368409,-14.121804,-12.344709,-6.515794
1002.671875,-16.051646,-9.039784,-10.171769,-6.929532
1002.675781,-9.559371,-12.278352,-7.796648,-8.432262
1002.679688,-13.491981,-1.315652,-6.925439,-9.510765
1002.683594,-12.917524,-10.326724,-2.360448,-10.497079
1002.687500,-7.716220,-6.597585,-10.620895,-3.233188
1002.691406,-5.875929,-7.827018,-6.065241,2.705606
1002.695312,-8.323400,-4.601236,-5.105216,-12.732661
1002.699219,-1.037180,4.172492,-4.143276,1.663685
1002.703125,3.084783,0.336096,4.437120,2.159128
1002.707031,2.015772,7.387729,6.373839,-4.879818
1002.710938,11.679423,10.695601,5.374096,4.860417
1002.714844,3.284836,8.408563,7.687915,8.687540
1002.718750,13.239733,12.749803,8.614072,15.262076
1002.722656,12.255043,12.708301,2.756806,16.824824
1002.726562,12.772506,11.588476,10.025219,12.414199
1002.730469,20.017504,-2.430010,10.521350,11.460509
1002.734375,8.599740,10.471871,11.040069,6.535482
1002.738281,7.859676,8.832374,10.828159,1.438369
1002.742188,5.066036,7.287200,1.107243,-3.117903
1002.746094,7.102270,8.011452,3.842404,4.389579
1002.750000,2.790299,5.282408,0.468975,-4.598767
1002.753906,-6.438164,0.458480,-4.661222,-0.215826
1002.757812,-8.566286,-0.351582,-0.897848,-2.565213
1002.761719,-3.027148,-10.582302,-7.339562,3.928301
1002.765625,-9.088121,-4.194771,-11.415399,-4.631437
1002.769531,-11.381829,-9.209977,-11.776906,-3.886493
1002.773438,-10.377032,-3.276686,-8.386237,-11.660157
1002.777344,-8.416965,-7.278963,-3.057008,-5.889714
1002.781250,-4.095169,-5.913364,-2.185818,-5.060464
1002.785156,-8.873900,-8.813891,-8.034564,-7.048453
1002.789062,-8.709313,-5.400437,-2.301331,-12.555807
1002.792969,-1.954154,-2.922512,-1.790896,-6.770298
1002.796875,-0.224387,-2.962317,1.570003,-1.045062
1002.800781,-2.564465,4.282151,-4.158163,-4.790660
1002.804688,0.083900,6.218404,-2.636962,4.626023
1002.808594,0.923767,4.945059,5.809994,8.338663
1002.812500,5.942515,2.570602,5.642497,15.111881
1002.816406,8.016471,3.451628,9.400011,6.704495
1002.820312,11.952052,13.943954,13.230769,8.068762
1002.824219,14.790501,10.615189,7.501983,13.594318
1002.828125,11.905230,12.910780,20.497640,16.976667
1002.832031,-0.341529,9.431121,14.886018,5.531488
1002.835938,11.956352,5.398426,1.575958,16.531435
1002.839844,6.579959,4.962635,7.109418,6.243613
1002.843750,7.930592,-0.372434,4.664299,-7.987294
1002.847656,5.190746,5.404752,8.834936,4.799513
1002.851562,-0.427254,-1.281664,-1.269522,-3.483495
1002.855469,-3.333203,4.200445,-8.037762,-2.364459
1002.859375,-4.841081,-14.027397,-4.922434,-8.771902
1002.863281,-8.338586,-8.316353,-11.893442,0.201832
1002.867188,-8.407318,-3.504238,-2.777862,-8.125699
1002.871094,-16.401458,-13.880031,-16.500472,-10.231563
1002.875000,-9.809543,-11.128121,-15.772283,-13.644453
1002.878906,-4.788505,-7.557541,-8.142151,2.648782
1002.882812,-2.634255,-5.617506,-11.088021,-16.440900
1002.886719,-12.887376,-11.525575,-6.545872,-7.602764
1002.890625,0.090168,-5.229309,-4.896956,-3.983594
1002.894531,-1.983092,-2.298401,-1.287895,-3.136305
1002.898438,2.586308,0.188630,-2.886831,-8.953381
1002.902344,-4.704189,3.624056,-0.784445,3.640351
1002.906250,-4.731102,-1.956257,9.272523,0.955258
1002.910156,9.751645,2.346119,1.523147,8.977389
1002.914062,12.937002,10.645600,2.726615,0.006902
1002.917969,15.285703,6.736450,8.349909,10.679480
1002.921875,8.480429,12.212475,10.047232,4.032158
1002.925781,14.306793,7.529288,6.054259,16.452262
1002.929688,6.802202,9.493462,12.365346,13.202824
1002.933594,12.557230,9.737618,11.074065,5.437288
1002.937500,5.522854,10.565041,13.489032,11.252972
1002.941406,-3.598690,4.900711,4.179025,8.112262
1002.945312,-4.217272,3.461119,4.232824,-2.360883
1002.949219,-2.674332,2.362699,2.058116,7.831151
1002.953125,-4.395132,-12.413375,-6.890132,-6.581102
1002.957031,-5.427911,-8.126959,-12.152225,-6.910732
1002.960938,-4.345412,-9.789347,-4.916774,-7.091746
1002.964844,-3.067231,-7.136032,-11.225052,-7.026033
1002.968750,-6.075085,-11.846595,-10.535526,-9.420009
1002.972656,-12.603216,-12.379110,-8.312317,-6.562078
1002.976562,-10.511184,-15.381606,-8.724708,-7.858193
1002.980469,-10.285118,-11.056281,-10.016020,-1.110148
1002.984375,-7.064874,-5.868979,-12.485866,-7.072068
1002.988281,-6.280019,-9.283669,-11.041669,-4.979310
1002.992188,-11.275289,-5.733863,-6.888269,2.713957
1002.996094,-9.870272,-2.005876,0.641604,-4.117804
1003.000000,-0.486068,2.391296,3.186789,1.263512
1003.003906,0.498795,5.130348,1.775599,-1.212204
1003.007812,3.662942,2.195023,6.994394,1.211332
1003.011719,4.946870,8.563048,9.036219,5.795236
1003.015625,12.655065,11.138206,14.089433,4.349081
1003.019531,5.014487,5.325115,10.490898,6.280620
1003.023438,18.421713,8.021093,6.131158,12.154328
1003.027344,6.524867,16.074821,5.644121,5.164249
1003.031250,15.632263,3.607761,9.464291,9.880917
1003.035156,9.173677,8.345936,0.971594,14.633382
1003.039062,8.268774,7.877316,4.448063,5.212908
1003.042969,9.492619,3.369566,6.530098,-0.259998
1003.046875,-0.973264,4.085393,8.291037,2.816302
1003.050781,-3.992085,-2.646497,-8.417689,2.266818
1003.054688,1.329568,-2.449811,-2.731986,4.396115
1003.058594,-3.342629,-7.684109,-9.345573,-9.271185
1003.062500,-15.218424,-4.741379,-5.668629,-4.382624
1003.066406,-3.051343,-6.798743,2.417815,-13.836244
1003.070312,-10.336802,-13.033559,-4.796851,-11.762376
1003.074219,-10.492377,-17.963641,-10.291254,-13.518604
1003.078125,-12.599648,-5.200861,-8.598879,-6.958443
1003.082031,-9.300047,-9.688745,-1.868302,-8.046110
1003.085938,-10.148167,-14.983797,-13.062215,-7.879039
1003.089844,-5.493445,-8.028769,-6.392842,-0.179005
1003.093750,-6.964583,1.273917,4.983453,-2.133923
1003.097656,-4.272438,-0.791631,-6.002456,-0.432740
1003.101562,-0.577647,-1.123545,-1.313297,6.259512
1003.105469,4.152609,7.439284,4.570908,-1.338442
1003.109375,8.686798,7.335035,6.610734,-2.228824
1003.113281,8.810669,4.181682,11.068829,5.743859
1003.117188,4.998195,3.790734,16.712587,3.751187
1003.121094,4.742507,8.799019,7.885429,8.486036
1003.125000,5.303687,10.458888,13.320667,9.836919
1003.128906,1.984152,12.425914,3.375342,8.603915
1003.132812,5.290363,12.353123,4.193907,10.503365
1003.136719,9.933994,6.695585,4.043969,3.243892
1003.140625,7.751537,5.553859,3.182311,-1.342182
1003.144531,7.050999,9.073610,5.735990,9.266831
1003.148438,-2.751219,4.115135,-0.559645,6.365576
1003.152344,-9.102265,3.037361,-2.136879,-1.391392
1003.156250,-11.428205,0.365443,-4.537924,-6.021389
1003.160156,-5.925469,-5.629251,-6.047283,-3.170916
1003.164062,-11.168557,-6.484899,-10.637169,-4.742695
1003.167969,-5.240713,-20.564317,-6.323302,-4.368511
1003.171875,-7.006736,-9.778566,-2.264416,-10.452383
1003.175781,-6.110710,-6.032954,-12.312156,-9.942438
1003.179688,-6.014445,-3.178046,-14.888480,-13.285537
1003.183594,-9.732907,-6.620572,-10.040159,-11.478451
1003.187500,-2.179255,-4.100243,-6.519777,-9.572458
1003.191406,-5.635498,-5.133387,-4.607269,-1.016165
1003.195312,1.149655,-9.207610,-3.876076,-9.382674
1003.199219,3.234643,-0.458404,-4.516651,-0.006575
1003.203125,3.255201,-4.063662,-3.063256,0.322155
1003.207031,-1.225446,-1.863148,3.493453,8.755198
1003.210938,6.635893,-0.399865,-3.065635,10.283697
1003.214844,5.954428,6.182588,4.247660,8.007741
1003.218750,2.471788,5.978557,7.972647,12.744599
1003.222656,4.036499,11.445977,13.113333,8.159669
1003.226562,5.166046,12.144749,9.675366,9.625791
1003.230469,10.804736,10.142872,11.952044,9.798104
1003.234375,-1.099993,11.096595,5.958141,9.807227
1003.238281,9.246052,9.626043,8.628873,10.967420
1003.242188,11.748365,1.815800,9.548541,2.644374
1003.246094,3.251727,4.183114,0.232678,3.635349
1003.250000,-0.960828,-1.256697,-0.892333,-3.508824
1003.253906,-1.665771,1.622451,6.042021,0.344282
1003.257812,-12.925934,-4.167405,-1.106983,-2.603906
1003.261719,-5.526286,-8.970310,-12.964029,-3.702908
1003.265625,-10.804118,-8.650097,-14.913163,-10.271745
1003.269531,-0.840769,-10.902823,-12.258904,-10.262369
1003.273438,-12.192484,-7.584281,-7.436907,-11.049442
1003.277344,-7.519344,-9.429417,0.370385,-14.117360
1003.281250,-9.250442,-5.911153,-13.085075,-7.746456
1003.285156,-6.779902,-4.018530,-11.565186,-6.674992
1003.289062,-9.001230,-8.692042,-8.003748,-9.131134
1003.292969,-5.231377,-6.146835,-12.656837,-2.382151
1003.296875,-1.749416,-9.064501,-2.078783,-6.722153
1003.300781,-1.490268,-2.994777,-2.067379,3.721665
1003.304688,1.200520,4.883938,9.448778,4.914810
1003.308594,9.640322,6.476573,9.893390,13.375309
1003.312500,6.114274,6.901631,-0.109864,9.812043
1003.316406,12.980504,8.336427,4.395181,8.250322
1003.320312,2.149299,7.059527,8.647386,8.030134
1003.324219,5.820442,7.164687,10.960255,15.715154
1003.328125,13.400087,7.284439,12.593412,17.614020
1003.332031,8.338345,3.763356,6.836584,9.504388
1003.335938,-0.598374,2.929628,2.817347,2.801357
1003.339844,3.824984,-5.580785,7.679849,13.154434
1003.343750,-0.104417,1.344405,5.203365,5.755172
1003.347656,4.129776,-4.487398,1.356146,-1.195072
1003.351562,5.131101,-2.455699,-5.046662,1.910076
1003.355469,-1.692703,-2.984192,-7.343887,-4.085799
1003.359375,-11.766815,-10.405854,-11.056446,-3.059116
1003.363281,-11.629656,-5.064886,-7.661805,-8.137790
1003.367188,-8.339400,-2.193492,-11.970660,-10.941607
1003.371094,-7.498601,-12.145792,-12.417963,-10.921785
1003.375000,-7.716256,-18.386519,-8.968855,-3.805676
1003.378906,-8.899371,-9.448855,-9.953185,-15.503011
1003.382812,-13.211405,-14.123920,-4.225213,-4.374478
1003.386719,-10.925588,-6.276967,-10.851294,-9.468721
1003.390625,-1.974046,-14.028459,-9.207325,-10.078079
1003.394531,-1.373283,-2.710855,-3.599860,-6.012782
1003.398438,-0.602927,0.907716,5.060538,-2.544843
1003.402344,4.628228,4.789898,-5.465607,0.863518
1003.406250,5.863158,13.227900,6.300979,0.219074
1003.410156,-2.094710,-1.070089,-2.460254,8.619870
1003.414062,6.631058,2.503651,8.690834,9.608936
1003.417969,1.074612,17.145605,6.931103,10.079454
1003.421875,13.652377,6.860765,8.735470,9.757950
1003.425781,7.518344,11.515151,12.603327,8.153273
1003.429688,10.420349,11.791197,11.284735,4.227432
1003.433594,9.665752,11.000544,10.798887,16.275213
1003.437500,5.815173,9.905003,9.595474,13.314294
1003.441406,1.469748,10.891225,6.097103,0.720019
1003.445312,2.948194,-2.137431,0.331932,2.813346
1003.449219,0.271712,5.594817,0.659113,-5.814099
1003.453125,-7.534568,-3.303341,-5.294044,-3.966204
1003.457031,-4.691923,-4.149412,-8.885641,-7.557730
1003.460938,-2.560149,-7.847119,-11.368500,-1.238869
1003.464844,-7.686181,-5.376903,-7.038275,1.168550
1003.468750,-3.506869,-14.122046,-5.533081,-11.746163
1003.472656,-11.458608,-7.556491,-10.073805,-6.124506
1003.476562,-5.812749,-9.380901,-18.797416,-5.492167
1003.480469,-10.736852,-17.724138,-6.015547,-13.547742
1003.484375,-4.089251,-3.166748,-11.191993,-6.457431
1003.488281,-13.557400,-10.602231,-7.860186,-3.506056
1003.492188,-7.872616,-3.983310,-5.589139,-5.309320
1003.496094,7.510964,0.680226,-2.324956,-0.656037
1003.500000,-4.464116,-0.336567,-2.681712,1.145188
1003.503906,-0.466660,5.541591,-4.494673,3.451890
1003.507812,1.256556,7.684361,6.519532,4.032133
1003.511719,3.925389,3.341544,5.482990,6.648098
1003.515625,7.101284,17.207405,3.755809,8.552646
1003.519531,5.625351,6.419868,7.453826,16.377276
1003.523438,10.428195,10.616513,9.469114,15.883750
1003.527344,15.214978,9.634470,19.035357,6.508836
1003.531250,11.275155,12.680643,8.675583,15.557370
1003.535156,11.770655,5.652961,12.219611,12.825990
1003.539062,5.439750,5.941604,-1.900990,0.433599
1003.542969,6.302392,7.567397,-0.007731,0.636760
1003.546875,6.404155,2.680244,2.151553,2.681517
1003.550781,-2.227591,-3.731359,-0.042669,-2.823833
1003.554688,-7.832299,-2.823273,-8.443821,-7.410699
1003.558594,-3.692959,-3.514456,-11.340331,-2.230124
1003.562500,-2.990257,-3.748265,-14.552001,-5.959717
1003.566406,-9.941876,-7.837649,-11.528844,-12.762901
1003.570312,-10.310373,-7.530463,-15.014782,-12.646758
1003.574219,-7.928258,-8.091176,-11.391289,-6.865565
1003.578125,-11.952692,-10.308693,-9.757284,-12.655170
1003.582031,-15.033300,-10.632869,-12.907747,-6.663607
1003.585938,-5.860057,-4.819663,-9.957867,-8.957108
1003.589844,-5.127929,-10.506370,-7.651152,-9.406125
1003.593750,-5.636217,-1.074540,-11.607951,-5.153997
1003.597656,0.085009,-0.560000,5.083508,-5.988925
1003.601562,-3.836773,-0.788940,4.361558,-3.825094
1003.605469,0.271802,6.802902,-0.243950,-2.601581
1003.609375,10.138823,10.833103,4.363132,2.624073
1003.613281,10.409225,7.787256,2.447300,8.924624
1003.617188,11.781490,13.364940,17.207287,8.855924
1003.621094,13.973571,7.196645,3.655968,13.267265
1003.625000,14.376514,12.058027,8.970288,15.412361
1003.628906,16.673903,8.408560,9.491200,9.646253
1003.632812,15.219975,5.025134,5.141013,0.209020
1003.636719,1.820930,-3.346324,5.914168,5.472213
1003.640625,5.204739,2.053127,2.166073,7.703085
1003.644531,8.728803,2.901348,3.736490,-2.046511
1003.648438,2.385317,1.071180,8.339507,0.877960
1003.652344,1.480216,2.078393,-10.568913,-4.096353
1003.656250,-4.046274,-4.084671,-7.750056,2.371654
1003.660156,-1.939330,-5.910141,-8.388765,-8.323346
1003.664062,-6.290142,-8.986402,-6.806688,-8.225928
1003.667969,-12.167142,-7.171501,-13.403763,-9.902275
1003.671875,-4.355026,-8.411857,-9.976909,-1.380741
1003.675781,-12.475704,-16.704231,-5.824045,-20.999160
1003.679688,-11.779535,-5.935595,-10.496660,-12.163391
1003.683594,-13.386069,-8.364439,-11.350293,-6.416576
1003.687500,-9.542596,-12.509106,-4.259788,-4.072039
1003.691406,-5.771555,-7.445490,-5.551348,2.117627
1003.695312,-6.449062,-5.453484,-3.296684,-1.137453
1003.699219,-2.057963,2.431401,5.055201,-0.209920
1003.703125,5.404880,-5.825891,-0.140976,6.215476
1003.707031,6.194255,4.327211,1.492887,1.907894
1003.710938,4.494543,13.858562,3.355041,10.516722
1003.714844,2.639868,8.625697,3.660533,11.923776
1003.718750,12.785052,5.585873,6.485211,10.029370
1003.722656,3.005031,13.720623,10.025345,6.475003
1003.726562,18.554687,6.861247,7.355743,14.352096
1003.730469,11.903417,13.458280,12.100899,9.440304
1003.734375,10.338868,13.411892,9.792274,10.229523
1003.738281,9.727807,9.400219,7.874078,16.485205
1003.742188,4.754425,5.474670,1.966638,-3.975105
1003.746094,-0.867469,-1.111865,4.168852,5.284577
1003.750000,0.017745,-2.437716,2.521320,5.305238
1003.753906,-3.116589,-7.776240,-0.840266,7.582125
1003.757812,-0.491137,-4.138459,-4.618617,-7.114560
1003.761719,-1.745284,-11.719072,-7.479921,-4.148841
1003.765625,-12.143348,-7.945281,-10.238006,-9.773634
1003.769531,-7.980226,-9.153936,-10.637536,-1.266133
1003.773438,-9.304763,0.487475,-10.555113,-4.408609
1003.777344,-4.771707,-6.189302,-7.348340,-7.480037
1003.781250,-15.654292,-10.889569,-11.281922,-5.637592
1003.785156,-9.205817,-5.365515,-8.470991,-7.703603
1003.789062,-7.654390,-9.590748,-2.921860,-11.456032
1003.792969,-4.206394,-8.036269,-7.475236,-2.400390
1003.796875,-2.715817,-5.730818,3.404549,-5.098997
1003.800781,1.812145,0.319365,-3.889692,-2.777408
1003.804688,2.578452,7.668240,3.148215,-4.723649
1003.808594,10.858199,1.787030,6.496920,-1.635565
1003.812500,15.980868,9.793008,5.415632,6.234541
1003.816406,3.965885,5.719479,15.123720,8.855047
1003.820312,3.015711,8.740298,10.538971,10.100827
1003.824219,9.001983,3.591139,-1.611841,11.793218
1003.828125,10.613404,15.026707,12.855705,4.118523
1003.832031,1.289036,8.272110,8.918468,11.080166
1003.835938,2.840920,7.291282,11.316197,18.240094
1003.839844,4.063182,2.734355,10.398530,10.693712
1003.843750,8.239580,2.796981,8.156860,3.427179
1003.847656,2.761572,3.268862,3.365063,3.319904
1003.851562,0.037478,-4.043926,1.617020,7.214175
1003.855469,-1.296598,-3.343950,-6.115606,-6.927398
1003.859375,-10.732524,-6.290292,-3.807699,-5.953073
1003.863281,-3.592916,-7.633119,-7.008347,-5.329598
1003.867188,-7.394342,1.651725,-13.997524,-7.663351
1003.871094,-7.490630,-11.128471,-9.010426,-8.289443
1003.875000,-6.412536,-8.681606,-9.345903,-9.181450
1003.878906,-10.353853,-11.915831,-11.125592,-5.666029
1003.882812,-16.312244,-6.953518,-14.381885,-13.538260
1003.886719,-10.239530,-14.145357,-10.257651,-0.995946
1003.890625,1.840470,-8.700755,-2.791586,-2.089267
1003.894531,2.114455,-1.045088,-6.168243,-5.009314
1003.898438,1.216777,6.042140,-1.806279,9.461815
1003.902344,5.230906,2.607758,-0.677015,5.978201
1003.906250,3.629099,10.830815,5.451810,7.514057
1003.910156,3.375201,8.109339,5.729582,8.162730
1003.914062,4.041463,5.474289,9.758158,12.740470
1003.917969,7.663013,9.804800,9.791322,17.330872
1003.921875,5.374937,15.673794,11.205030,0.399190
1003.925781,14.643154,0.532568,7.012960,14.369429
1003.929688,2.465381,11.618485,6.078312,4.832412
1003.933594,10.596960,6.200987,7.340172,14.468379
1003.937500,7.671885,2.270667,2.150062,8.908436
1003.941406,4.520123,7.089158,5.812873,4.910928
1003.945312,5.253800,6.978964,3.323763,5.731649
1003.949219,7.294946,-1.352829,-6.781226,1.287715
1003.953125,0.518940,-3.212659,-1.961670,-2.659953
1003.957031,-3.423642,-9.192637,-0.662577,-8.577396
1003.960938,-7.821829,-9.363205,-3.612045,-17.624620
1003.964844,-13.217028,-4.278658,-17.008560,-8.286386
1003.968750,-7.609993,-9.215764,-8.048950,-3.619155
1003.972656,-9.375814,-12.323127,-0.783759,-6.065318
1003.976562,-12.458142,-8.635478,-17.462491,-17.355606
1003.980469,-11.059613,-9.729949,-11.849659,-15.801997
1003.984375,-11.647709,-4.987935,-5.963602,-9.885859
1003.988281,-6.458885,-5.305888,-3.737274,-9.842318
1003.992188,-1.634639,-1.466307,-5.227582,-8.245794
1003.996094,2.857086,-5.661136,1.309225,-2.179669
1004.000000,0.223683,-0.575867,-3.078494,-2.985245
1004.003906,2.456612,0.430734,9.732071,2.263098
1004.007812,0.989074,7.990555,7.296277,-2.413924
1004.011719,5.967985,6.870877,7.285679,4.743746
1004.015625,10.035939,6.012646,8.593043,5.616179
1004.019531,5.171434,11.536757,6.948198,14.494843
1004.023438,15.000005,3.348233,11.835800,8.305471
1004.027344,7.113770,7.193458,10.928669,7.466729
1004.031250,9.009740,-0.412498,7.062243,8.403958
1004.035156,5.143349,3.326987,1.146800,-1.572624
1004.039062,4.279389,10.790842,5.585728,2.016786
1004.042969,1.874504,5.192733,5.940221,-1.467640
1004.046875,3.219370,-0.644424,-0.079736,4.545625
1004.050781,-3.314203,-5.842380,-2.666652,-1.173813
1004.054688,-9.667639,0.781739,-3.842042,-7.180604
1004.058594,-4.519744,-13.678519,-7.470955,-4.509467
1004.062500,-3.730027,-3.054199,-6.983628,-7.253575
1004.066406,-6.829257,-8.601120,-13.884939,-14.621177
1004.070312,-5.990606,-9.602806,-14.001491,-5.981471
1004.074219,-3.489911,-7.362079,-12.062317,-15.226213
1004.078125,-7.649696,-11.478652,-12.384563,-18.600427
1004.082031,-10.076096,-10.699349,-17.034338,-12.734251
1004.085938,-15.075961,-7.819751,-8.209354,-13.497264
1004.089844,-6.276072,-7.742022,-1.528621,0.134233
1004.093750,-6.313231,-0.767589,-7.131296,-8.276670
1004.097656,4.928099,-5.687801,-0.573622,-5.786991
1004.101562,6.798597,-1.330924,8.177829,-10.624731
1004.105469,0.668880,1.495332,11.152301,7.059690
1004.109375,13.215683,0.006793,9.579237,3.092388
1004.113281,4.879744,7.246794,1.988617,12.482507
1004.117188,6.462324,13.541281,1.347512,10.324121
1004.121094,7.776557,15.527804,11.798259,-2.202179
1004.125000,14.458731,7.732809,10.077354,13.695956
1004.128906,5.010522,8.627205,9.235250,13.894818
1004.132812,7.425370,7.764615,2.575097,11.916372
1004.136719,-1.041469,3.864487,11.970095,5.516712
1004.140625,3.402950,3.277648,7.628690,7.907617
1004.144531,-3.969939,7.359019,9.004862,3.491721
1004.148438,2.299113,0.859485,0.157212,0.257102
1004.152344,2.560273,-1.096617,2.680692,0.118210
1004.156250,3.662721,-2.270669,0.484467,-0.091119
1004.160156,-0.176282,-9.674151,-5.927605,-7.410435
1004.164062,-3.738596,-5.287214,-7.825983,-0.116707
1004.167969,-12.854868,-11.911283,-9.176002,-13.062783
1004.171875,-10.955848,-7.109179,-14.520517,-12.214292
1004.175781,-7.025431,-7.729182,-7.958201,-9.992956
1004.179688,-10.855754,-11.927803,-11.387208,-11.019689
1004.183594,-19.167196,-7.135251,-7.729638,-18.606146
1004.187500,-2.533391,-4.260456,-10.509451,-6.076543
1004.191406,-6.579759,0.079270,-0.535987,-6.788573
1004.195312,-3.696276,-1.516278,0.207251,3.632314
1004.199219,5.664934,-6.008474,3.161561,-4.214824
1004.203125,-0.711355,5.107014,2.336802,-0.706385
1004.207031,3.901644,0.275989,8.890863,-0.006385
1004.210938,8.659262,11.814277,-0.560555,14.044355
1004.214844,8.851658,6.366855,-0.680695,6.211235
1004.218750,10.020033,3.747486,2.340653,13.515340
1004.222656,11.393375,8.415875,17.267038,9.104748
1004.226562,13.444328,10.001075,11.291888,6.378820
1004.230469,15.453518,13.554672,18.246146,17.597120
1004.234375,7.945817,7.234967,5.474976,1.648587
1004.238281,13.124194,6.543981,10.523390,10.479903
1004.242188,4.984288,1.546541,6.826513,2.099748
1004.246094,4.257076,-3.960302,-3.717518,8.251988
1004.250000,0.464929,-4.459247,9.220940,-5.435677
1004.253906,5.866456,-5.838722,-0.276567,-5.643403
1004.257812,-4.731506,-5.325131,-7.675780,-11.491434
1004.261719,-8.365802,-6.211058,-3.588543,-7.539698
1004.265625,-8.637021,-4.387589,-6.351119,-10.603546
1004.269531,-12.374989,-12.742260,-6.946123,-10.607416
1004.273438,-6.941692,-12.957986,-8.070233,-9.388202
1004.277344,-13.921301,-11.666512,-6.240093,-6.773583
1004.281250,-8.834016,-6.866038,-8.794460,-7.238125
1004.285156,-2.462879,-7.040965,-12.045921,-10.405750
1004.289062,-3.571609,-8.320904,-8.726351,-10.413165
1004.292969,-7.044194,0.290180,-7.202085,-8.847739
1004.296875,2.220709,-5.951443,3.119053,-3.275991
1004.300781,-5.255452,1.408032,-2.645192,-7.251692
1004.304688,0.957719,-0.482239,10.579013,10.734842
1004.308594,8.815635,0.288246,-2.732466,5.523715
1004.312500,10.586428,10.072214,9.001614,6.847327
1004.316406,4.855482,8.871473,5.894557,5.345416
1004.320312,6.120407,12.809348,11.009386,12.808401
1004.324219,11.185921,10.000111,12.975703,15.020718
1004.328125,8.820080,9.835241,6.506527,11.733862
1004.332031,9.932341,3.017292,10.665656,16.414147
1004.335938,5.973076,15.291397,7.682538,19.213846
1004.339844,3.302467,14.264437,-1.934954,8.050864
1004.343750,5.777098,-1.501680,1.060790,4.064588
1004.347656,-0.435337,-0.518439,-1.200650,4.178774
1004.351562,-1.016610,-1.431574,1.281176,3.115922
1004.355469,4.140948,-4.065812,-8.380285,-3.331468
1004.359375,-3.968138,-6.552662,-5.912024,-5.055933
1004.363281,-16.481846,-9.734824,-11.212481,-9.197624
1004.367188,-5.005832,-11.095450,-13.294822,-14.291117
1004.371094,-1.000105,-13.460540,-16.461656,-15.061017
1004.375000,-18.232202,-13.265083,-11.262108,-9.499066
1004.378906,-7.419086,-11.387714,-10.924483,-5.140502
1004.382812,-2.041667,-9.682013,-7.740183,-12.578503
1004.386719,-11.248430,-10.446292,-2.105167,-9.986355
1004.390625,0.490899,-0.662674,1.840039,-4.339650
1004.394531,-6.390179,-11.030173,-3.368968,-1.806801
1004.398438,-10.361597,3.742357,7.510811,-6.324417
1004.402344,0.095152,8.167581,0.184147,-6.038825
1004.406250,5.930465,9.360757,5.070687,2.579785
1004.410156,7.513406,6.139705,8.152535,4.317894
1004.414062,1.815604,9.223503,10.749247,8.206811
1004.417969,5.337295,12.249778,15.853180,15.027449
1004.421875,10.452849,8.378429,15.054446,8.760343
1004.425781,15.029129,11.594669,10.400299,7.912724
1004.429688,4.917123,7.086672,9.701832,9.238812
1004.433594,-1.749289,4.307084,8.382649,4.874938
1004.437500,0.325990,2.776045,8.979923,12.403677
1004.441406,9.231132,6.699422,3.525471,-1.707204
1004.445312,10.081668,2.507786,3.643568,1.223120
1004.449219,-6.033370,6.330922,3.534189,-2.167633
1004.453125,-1.147160,-1.460434,-5.860633,-3.297203
1004.457031,-9.258289,0.359175,-8.865001,3.344221
1004.460938,-6.171654,-6.539826,-2.853884,-5.688808
1004.464844,-5.825996,-8.334441,-3.237237,-8.670871
1004.468750,-15.275744,1.247745,-8.368369,-8.357149
1004.472656,-15.938808,-8.578526,-15.663429,-13.736563
1004.476562,-13.661561,-8.110328,-5.350766,-10.611985
1004.480469,-12.528978,-16.657364,-9.334932,-8.374405
1004.484375,-8.780068,-5.678610,-7.588810,-12.830329
1004.488281,-1.495637,-0.073064,-5.831593,-14.790315
1004.492188,-11.151319,-6.539767,-5.496169,-1.475068
1004.496094,-8.248325,-2.543273,-4.843166,-3.769562
1004.500000,-1.606853,-1.636082,1.512180,0.549649
1004.503906,5.401350,2.061328,5.408849,-0.743335
1004.507812,-3.451790,6.900944,-0.943899,4.615459
1004.511719,5.392439,6.699236,11.913967,2.648961
1004.515625,12.835776,5.210640,13.649214,10.851344
1004.519531,14.505481,4.071288,11.669560,10.589269
1004.523438,1.692581,8.553371,14.832345,11.000713
1004.527344,18.190529,8.316648,10.893767,12.318492
1004.531250,4.856532,10.786882,11.650632,9.643849
1004.535156,5.839363,6.287020,9.262338,10.411100
1004.539062,2.865628,13.706255,10.773603,-0.385445
1004.542969,7.192690,0.923073,4.246335,2.863693
1004.546875,-3.707703,-9.798725,-5.724171,-0.011611
1004.550781,-6.132336,-6.744324,-1.428891,-0.193584
1004.554688,-4.821404,-1.622026,-2.912317,-3.220249
1004.558594,-3.522103,-11.487268,-6.843888,-4.461098
1004.562500,-11.124872,-8.289087,-9.936065,-6.004068
1004.566406,-7.267372,-6.256390,-14.428031,-11.300536
1004.570312,-9.795237,-14.659834,-13.496750,-8.282184
1004.574219,-12.157208,-7.554940,-8.227184,-10.012516
1004.578125,-9.868912,-8.149234,-8.379770,-14.396850
1004.582031,-10.187217,-10.203930,-4.631067,-15.024680
1004.585938,-9.537379,-6.923594,-3.249860,-11.766453
1004.589844,-8.178717,-9.843637,-0.132543,-1.438199
1004.593750,-5.247748,-4.382277,-1.655018,-9.604532
1004.597656,5.574780,-8.580858,0.210171,3.598363
1004.601562,-3.471373,-3.241583,0.797715,-2.830055
1004.605469,-1.892171,-3.870566,0.695747,6.099305
1004.609375,5.388850,3.305860,4.117455,9.841481
1004.613281,1.822090,5.845163,8.297286,4.220664
1004.617188,2.818116,10.459970,10.976603,-0.530966
1004.621094,7.561300,6.403280,5.712958,5.367879
1004.625000,15.431206,16.399208,5.494027,12.148437
1004.628906,7.911944,12.371655,11.898113,10.829113
1004.632812,8.879164,3.901146,8.082924,8.175417
1004.636719,11.552254,3.394514,8.136070,7.182182
1004.640625,2.350324,6.212323,7.325449,2.706284
1004.644531,3.196223,-2.784796,1.562026,12.344091
1004.648438,-0.484112,-0.649850,2.117043,0.343007
1004.652344,-4.399410,-0.971551,-0.721844,-5.501713
1004.656250,-5.820825,-0.958565,-0.987055,-4.956409
1004.660156,-11.239973,-6.418027,-6.896859,-10.319507
1004.664062,-8.684340,-7.689525,-3.298183,-8.421153
1004.667969,-10.492309,-4.615281,-8.618994,-6.234437
1004.671875,-12.420456,-4.939050,-10.299387,-16.773582
1004.675781,-13.634398,-7.616568,-13.628114,-9.617594
1004.679688,-13.518945,-11.454256,-10.858128,-9.879381
1004.683594,-9.989253,-9.384769,-14.600959,-6.076199
1004.687500,-7.862572,-6.689293,-6.499689,-6.953107
1004.691406,-7.980065,-4.069809,-7.558743,5.301775
1004.695312,-6.304532,-4.567202,4.918620,3.684043
1004.699219,-8.125690,-5.111926,-1.733666,3.735164
1004.703125,8.593803,-4.090818,3.097544,-1.207796
1004.707031,-0.237111,-1.004912,8.332811,13.215224
1004.710938,-0.412644,3.860634,5.280374,9.448274
1004.714844,8.372856,7.001233,6.951966,8.962926
1004.718750,-0.793925,3.612163,10.895600,11.028268
1004.722656,5.514921,10.199859,11.174263,6.153173
1004.726562,5.111503,4.029827,8.783050,12.404455
1004.730469,6.780166,2.547447,10.916894,5.667364
1004.734375,4.321182,9.819158,14.082793,5.237213
1004.738281,12.024057,10.568772,6.183722,9.527312
1004.742188,7.440226,8.703017,7.024193,5.573068
1004.746094,6.547667,4.514634,6.319156,3.671466
1004.750000,-3.436887,8.407104,-6.092725,-1.355383
1004.753906,-11.298651,-3.867394,-2.445158,-2.284491
1004.757812,-4.352436,-8.179274,-7.876495,0.413690
1004.761719,-10.715437,-0.528080,-7.730512,-7.345146
1004.765625,-11.338002,-9.402949,-10.036764,-6.587332
1004.769531,-3.205180,-3.821499,-5.282347,-12.191747
1004.773438,-12.878528,-10.818125,-4.005334,-5.112430
1004.777344,-12.794757,-11.655170,-10.979083,-12.868143
1004.781250,-4.249733,-8.415133,-12.008067,-11.618838
1004.785156,-8.794097,-9.502622,-4.387248,-3.734840
1004.789062,-8.806803,0.637274,-5.330645,-1.144367
1004.792969,-7.887218,-7.727635,-6.954908,-2.973358
1004.796875,0.390970,3.063709,-3.574988,-2.649254
1004.800781,1.133890,0.235677,3.482119,6.052433
1004.804688,7.134073,4.358098,-0.072034,1.083188
1004.808594,0.430256,5.226794,-1.274803,13.169022
1004.812500,4.220035,4.680647,8.318819,7.770443
1004.816406,11.624744,11.603638,6.452252,11.068115
1004.820312,6.080178,3.596527,15.970169,20.687527
1004.824219,5.346533,-0.540439,13.676099,8.117170
1004.828125,10.221409,15.522661,10.161367,14.822599
1004.832031,5.620273,4.611164,11.502286,9.614650
1004.835938,8.758244,8.899772,6.743264,8.833019
1004.839844,8.996725,6.145322,6.117854,2.554912
1004.843750,-2.156395,7.981692,-1.578683,1.629086
1004.847656,1.612640,1.304968,1.197625,4.801607
1004.851562,6.170043,1.642457,0.691835,5.915296
1004.855469,-11.712569,-5.018465,-10.713510,-7.459933
1004.859375,-0.610355,-4.098484,-2.077297,-9.853584
1004.863281,2.526336,-6.085651,-2.586038,-6.770188
1004.867188,-6.177876,-8.695646,-7.667994,-6.967872
1004.871094,-14.126256,-10.978748,-7.160703,-15.510215
1004.875000,-8.556751,-5.069602,-2.258037,-9.596793
1004.878906,-6.986375,-11.753998,-9.219987,-2.821575
1004.882812,-7.785081,-8.053162,-13.561920,-11.097066
1004.886719,-13.469721,-10.802086,-12.072150,-11.510445
1004.890625,-3.928676,-7.884950,-1.897349,-0.403560
1004.894531,-4.138337,-1.865370,-12.309472,-12.358423
1004.898438,-1.508824,-8.059883,-1.399977,3.021706
1004.902344,4.236980,8.134273,2.785283,-2.639010
1004.906250,11.552873,1.689522,-6.323302,2.034270
1004.910156,4.894154,2.947432,6.816073,3.147910
1004.914062,7.878509,0.521670,4.633922,10.794152
1004.917969,8.279578,9.903404,12.225926,11.111671
1004.921875,12.613890,8.633970,15.974502,8.812918
1004.925781,8.840237,12.846492,11.565430,10.602157
1004.929688,7.042561,18.271228,17.332758,12.717091
1004.933594,5.325037,16.496381,10.545957,1.773613
1004.937500,9.309247,4.723160,0.399815,2.151780
1004.941406,10.839078,0.704403,8.241753,-4.032581
1004.945312,2.393281,0.011552,0.586730,3.677348
1004.949219,1.952054,6.132176,-0.029185,0.335155
1004.953125,0.082972,3.929225,-1.748674,-4.893874
1004.957031,-5.121009,-1.748503,-9.981770,-6.864785
1004.960938,-2.745226,-12.114042,-3.157588,-13.018234
1004.964844,-6.669613,-9.332831,-7.146243,-8.140068
1004.968750,-9.519745,-13.149972,-8.847137,-22.612106
1004.972656,-9.498605,-6.539697,-9.071084,-16.161001
1004.976562,-8.380890,-9.419884,-5.300783,-11.827580
1004.980469,-8.724048,-5.510423,-13.050502,-4.542515
1004.984375,-6.667123,-9.034676,-3.209221,-5.410224
1004.988281,-4.075607,-8.631009,-3.760022,-8.372392
1004.992188,-5.882857,-4.793072,-8.938118,0.433933
1004.996094,-1.275601,2.585627,-15.936368,-6.649102
1005.000000,-2.838584,0.054441,-3.808627,-0.135812
1005.003906,1.248687,-5.959811,2.833885,-0.038554
1005.007812,8.739913,7.669021,10.419929,5.711649
1005.011719,13.450754,6.122187,10.322961,5.284857
1005.015625,14.257563,12.246117,10.005503,6.986574
1005.019531,16.168354,10.313110,8.465843,0.855095
1005.023438,5.938360,10.766331,7.799603,4.038476
1005.027344,9.296402,8.929062,15.379910,9.829153
1005.031250,10.345785,3.082839,13.626302,5.953314
1005.035156,7.483102,9.168148,8.974664,9.368520
1005.039062,7.373751,10.768300,0.150017,7.051518
1005.042969,-1.477700,12.630658,3.438124,8.640486
1005.046875,2.939135,6.928035,-4.925424,-2.019191
1005.050781,2.816410,-7.640755,2.113261,-0.148195
1005.054688,6.571103,-12.048471,0.709304,0.896726
1005.058594,-9.683272,-3.523994,2.934503,-6.801272
1005.062500,-11.322768,-0.556780,-4.254043,-5.952924
1005.066406,-13.179292,-11.230946,-4.483790,-7.894294
1005.070312,-1.719867,-6.346267,-17.204697,-13.138223
1005.074219,-18.540826,-10.420047,-10.020375,-12.950028
1005.078125,-6.437995,-13.957460,-13.793732,-8.495244
1005.082031,-10.673497,-9.400257,-11.881043,-4.818801
1005.085938,-4.949547,-17.748661,-7.492420,-9.927710
1005.089844,-4.186821,-9.127122,-10.213122,-9.310081
1005.093750,-0.469966,-1.661351,-4.713122,-7.385702
1005.097656,-3.276948,-2.682685,-6.686813,5.154774
1005.101562,3.930735,-0.351105,-7.995812,-4.274318
1005.105469,-4.202431,-3.645217,2.078422,3.521218
1005.109375,-0.155088,9.908647,-0.636526,2.290392
1005.113281,5.058067,16.743053,11.011234,6.298754
1005.117188,7.733259,6.563285,7.440922,8.110263
1005.121094,18.875846,14.026339,8.883617,8.000510
1005.125000,1.779279,11.240423,16.391747,8.531400
1005.128906,-0.824806,7.288664,14.358064,6.572980
1005.132812,10.225639,14.564094,0.748129,8.840275
1005.136719,10.371807,11.836562,11.853830,9.171687
1005.140625,6.178668,2.795094,9.711703,7.662116
1005.144531,0.391915,8.956059,-4.516109,0.099238
1005.148438,-0.746235,-5.401178,1.577398,4.909810
1005.152344,-4.344169,2.747757,-3.389823,2.628983
1005.156250,-5.103247,0.254749,-0.984538,-8.619584
1005.160156,-4.732442,-1.960825,-10.122247,-12.408474
1005.164062,-5.420161,-9.581744,-7.466213,-11.844929
1005.167969,-9.281724,-8.633308,-7.407059,-5.500290
1005.171875,-6.275898,-10.196308,-7.872543,-9.879124
1005.175781,-2.526868,-13.260636,-8.015665,-9.893759
1005.179688,-1.187800,-11.618084,-11.696815,-7.881391
1005.183594,-5.472420,-7.417002,-9.463530,-7.529489
1005.187500,-6.735311,-5.109191,-10.391535,-12.207941
1005.191406,-5.146356,-9.752268,-2.143013,-9.480977
1005.195312,-1.625921,-0.341660,-6.069998,-4.846928
1005.199219,10.485119,-0.347662,-8.615396,-2.158292
1005.203125,-4.024379,5.848287,5.064378,-3.248016
1005.207031,3.052688,6.751290,4.874322,6.312729
1005.210938,2.813416,2.624528,3.208637,9.136618
1005.214844,8.692978,1.283468,5.762489,6.574356
1005.218750,8.570387,3.733992,7.525819,7.490496
1005.222656,8.182647,10.778590,8.549573,11.503745
1005.226562,7.366349,10.523336,10.030438,10.482333
1005.230469,9.705356,9.726673,10.463260,8.912265
1005.234375,7.875377,-0.785778,3.941514,10.052044
1005.238281,0.230294,10.610856,2.323639,8.228300
1005.242188,2.674665,5.227124,-3.534782,5.284001
1005.246094,9.849415,-5.330605,3.315886,-1.491454
1005.250000,1.527717,-0.178600,1.182763,1.495019
1005.253906,-5.595617,-2.057673,-5.476537,-12.171165
1005.257812,-4.555386,-2.763980,-7.891718,-3.771470
1005.261719,-2.948407,-6.400349,-7.758995,-4.592432
1005.265625,-12.437672,-12.387598,-14.020560,-14.133688
1005.269531,-13.959251,-7.786088,-5.649719,-11.537497
1005.273438,-4.953412,-7.568091,-12.380758,-16.134592
1005.277344,-11.879648,-6.355045,-7.098301,-13.560799
1005.281250,-8.095634,-13.412090,-14.367572,-10.979440
1005.285156,3.337369,-5.397978,-7.490165,-7.279429
1005.289062,-4.485747,-10.503361,-10.269475,-12.868268
1005.292969,-2.116432,-4.808800,-3.999052,-1.411042
1005.296875,-11.150482,-5.309471,0.337006,-3.648057
1005.300781,4.060857,0.900455,-0.067655,-0.773951
1005.304688,2.293841,3.684747,0.195240,2.446060
1005.308594,8.385716,0.014329,-0.299512,6.444708
1005.312500,1.522506,4.860380,3.756380,10.734994
1005.316406,7.257193,12.236038,2.075571,6.760058
1005.320312,11.662672,12.373467,6.144790,5.328484
1005.324219,7.432507,10.293879,15.278961,11.050883
1005.328125,6.171643,3.844315,3.662037,5.683403
1005.332031,12.732371,10.991200,10.571220,1.658241
1005.335938,8.937086,7.255789,1.912431,6.972942
1005.339844,5.404680,0.933287,5.472869,0.527214
1005.343750,7.768378,2.543696,9.720415,1.540455
1005.347656,-2.548977,-1.705795,5.168229,-4.232749
1005.351562,-3.218964,-0.350475,-10.219568,0.498466
1005.355469,-3.184615,-4.828038,2.336673,-5.615526
1005.359375,-5.032214,-3.908276,-9.028174,-11.700224
1005.363281,0.354271,-13.375548,-12.086301,-9.226793
1005.367188,-15.903195,-11.000236,-10.885219,-11.190656
1005.371094,-18.989667,-4.289655,-17.224211,-11.834686
1005.375000,-7.669196,-5.324132,-8.763107,-9.633027
1005.378906,-14.738674,-10.098659,-12.852631,-7.020162
1005.382812,-13.069617,-7.983167,-7.961954,-8.769998
1005.386719,-5.985271,-6.326947,-1.609065,-8.412736
1005.390625,-5.917350,-10.032684,-8.767116,-6.115108
1005.394531,-6.841792,-2.577215,-4.750101,-0.430127
1005.398438,2.601718,2.050662,1.045174,-2.489388
1005.402344,5.995278,3.530146,4.160394,5.829841
1005.406250,-2.726827,6.754705,9.340367,2.493422
1005.410156,5.304479,2.924488,9.283959,4.353818
1005.414062,8.068077,2.792819,13.195464,5.112257
1005.417969,12.043920,4.916750,11.826791,10.184271
1005.421875,8.291009,17.538398,12.324370,7.667799
1005.425781,14.475889,13.695738,10.898228,8.533320
1005.429688,7.420858,8.804027,15.345822,8.982776
1005.433594,4.685942,11.539731,7.482474,2.985753
1005.437500,14.535726,5.385205,4.095747,10.921566
1005.441406,9.874694,8.139546,10.005827,6.624770
1005.445312,0.198727,0.272475,-1.713300,6.656552
1005.449219,-2.052160,0.107351,-0.254075,-5.828584
1005.453125,-0.942134,-2.807442,2.189924,-4.162057
1005.457031,0.045083,-9.816068,-3.390072,1.306477
1005.460938,-1.662088,-10.943218,-7.622885,-1.704463
1005.464844,-5.499068,-5.514414,-9.459796,1.651923
1005.468750,-16.319227,-10.623787,-11.935050,-10.162513
1005.472656,-10.307882,-7.504838,-7.605083,-10.382929
1005.476562,-11.644763,-15.524888,-7.726683,-13.083582
1005.480469,-6.178345,-6.868565,-7.464623,-0.047477
1005.484375,-9.365984,-2.585618,-11.823631,-16.796216
1005.488281,1.150647,-1.488373,-5.915180,-3.009182
1005.492188,-3.261901,1.093836,-4.463492,2.946791
1005.496094,-0.303516,2.163032,-2.678301,2.932664
1005.500000,-4.724724,2.288443,9.203340,-5.115884
1005.503906,1.246367,6.134967,3.125199,5.625563
1005.507812,-0.774539,-0.195355,5.563658,-1.553867
1005.511719,5.103289,-0.220659,12.079858,5.721420
1005.515625,10.034288,9.413912,7.313936,12.041271
1005.519531,11.745113,6.322487,12.357373,11.341373
1005.523438,9.979511,5.892930,8.361635,3.617124
1005.527344,7.870704,13.338262,1.411281,15.479950
1005.531250,12.229404,14.865039,12.248080,16.157224
1005.535156,12.447024,2.954540,7.604129,12.657570
1005.539062,4.023723,8.403869,15.744099,7.582583
1005.542969,4.204104,-3.943075,3.962694,5.469271
1005.546875,0.206379,-4.433480,-0.695122,2.954198
1005.550781,4.895196,5.377629,2.221967,3.569605
1005.554688,-7.516353,-6.819925,-4.562733,-0.610097
1005.558594,-3.506459,-0.442479,-4.086514,-5.895448
1005.562500,-10.401926,-11.139723,-12.130073,-8.886291
1005.566406,-11.828142,-8.703535,-10.020775,-10.181549
1005.570312,-9.714042,-2.868962,-12.616651,-10.819945
1005.574219,-5.077636,-13.795618,-2.262022,-5.802770
1005.578125,-11.258490,-1.654989,-1.017232,-8.715538
1005.582031,-11.742300,-5.562177,-8.869633,-7.316295
1005.585938,-12.288360,-6.611828,-7.222518,-1.948680
1005.589844,-1.637387,-8.783721,-13.836328,-4.578787
1005.593750,-7.353116,-6.002669,-4.050097,-2.443893
1005.597656,0.096819,-2.669939,-0.069761,-0.663364
1005.601562,-0.110791,1.003429,4.183208,3.465407
1005.605469,-0.327973,3.468155,-0.046122,1.751330
1005.609375,2.322322,6.484671,1.948097,2.768904
1005.613281,5.031319,8.159319,9.779400,2.755925
1005.617188,17.381894,8.518021,9.633705,4.949595
1005.621094,12.944914,10.804471,15.099828,5.809307
1005.625000,13.959383,12.608125,16.590921,13.119604
1005.628906,13.206409,9.295397,13.193539,10.132423
1005.632812,6.425294,17.298996,5.346872,10.574705
1005.636719,3.417901,9.620359,9.113692,2.542749
1005.640625,4.531019,9.978530,8.590658,4.997008
1005.644531,11.622123,0.246317,8.513286,1.554377
1005.648438,-1.576994,-1.207599,-0.531943,-4.058095
1005.652344,-2.485099,0.134486,-2.017264,-2.501359
1005.656250,-10.156452,-9.694564,-11.114140,1.023287
1005.660156,-5.587334,-6.441744,-4.814537,-8.552863
1005.664062,-7.238158,-2.994972,-6.865699,-7.742760
1005.667969,-10.324805,-10.911872,-7.529117,-9.748687
1005.671875,-11.812211,-7.058978,-10.234912,-15.163671
1005.675781,-10.238216,-8.081962,-10.668515,-7.600936
1005.679688,-13.406528,-4.002357,-12.211324,-6.971654
1005.683594,-7.814797,-8.595261,-5.622367,-10.923174
1005.687500,-6.721647,-9.360718,-7.574110,-2.391512
1005.691406,-5.940164,-10.354410,-6.806018,-7.228763
1005.695312,0.608942,1.049691,-2.086469,-3.914760
1005.699219,-2.512332,-0.123851,1.626627,-3.315881
1005.703125,-0.409300,-8.951795,0.051081,-2.908154
1005.707031,4.732693,-2.397673,9.480532,0.648685
1005.710938,9.531941,-1.982452,3.489257,2.027826
1005.714844,9.711591,9.693681,7.104972,5.097748
1005.718750,6.627625,14.635767,11.647022,7.207033
1005.722656,17.228910,8.528688,13.777772,12.965633
1005.726562,16.625521,7.262957,10.211442,8.953483
1005.730469,9.967758,9.062138,5.559905,9.293421
1005.734375,12.042801,11.668355,6.877089,11.852314
1005.738281,8.167719,2.461181,7.288194,0.615415
1005.742188,0.519693,2.633516,3.847997,9.511928
1005.746094,-0.921192,6.348095,11.450603,6.608900
1005.750000,3.837045,2.407072,-2.748223,-3.630472
1005.753906,-1.913527,-1.481453,-3.573699,-2.782289
1005.757812,-2.900191,-4.723872,4.979182,-9.478872
1005.761719,-11.655011,-11.465148,-7.632814,-5.670102
1005.765625,-6.022311,-3.807997,-4.847528,-11.460172
1005.769531,-6.014035,-2.637943,-1.777478,-10.351782
1005.773438,-7.082887,-2.388111,-11.228915,-10.490861
1005.777344,-4.500342,-0.992566,-6.166645,-9.720406
1005.781250,-9.125257,-4.242640,-9.810979,-13.014069
1005.785156,-12.914793,-8.089526,-9.398818,-5.072924
1005.789062,-9.357616,-5.077452,-6.715119,-7.213403
1005.792969,-6.371207,-0.135815,-9.769608,-3.714582
1005.796875,-9.548007,0.040040,0.767497,-6.058151
1005.800781,-2.203820,1.021111,1.477175,-1.325431
1005.804688,6.451650,10.056771,6.365873,5.337021
1005.808594,6.163343,5.771627,1.920014,8.714272
1005.812500,7.766952,3.876698,12.578985,15.846125
1005.816406,18.108282,17.705079,10.362419,11.367010
1005.820312,15.836446,7.026448,8.449048,7.909662
1005.824219,17.851000,12.053581,6.160923,11.168951
1005.828125,14.500248,9.539164,6.173845,1.881353
1005.832031,8.197009,9.795114,14.408005,9.191753
1005.835938,11.738629,13.745703,-0.086340,8.134661
1005.839844,0.186852,5.186114,-0.069762,17.002934
1005.843750,5.328143,5.454306,3.576418,3.071478
1005.847656,9.909853,-2.110663,-5.125469,-1.554513
1005.851562,3.081823,-0.768517,1.488539,-2.231607
1005.855469,-2.170033,4.331252,-3.443609,0.100876
1005.859375,-12.792630,-2.479320,-9.231000,-7.561773
1005.863281,-6.402677,-4.564115,-3.738096,-8.599916
1005.867188,-9.356906,-22.474716,-12.397528,-10.269388
1005.871094,-4.379929,-5.305264,-12.691059,-8.256986
1005.875000,-7.564583,-12.501053,-3.812405,-14.118909
1005.878906,-11.364826,-8.652838,-9.903211,-11.569154
1005.882812,-7.834695,-2.007852,-9.462065,-5.542794
1005.886719,2.734591,-5.625040,-9.966911,-13.385647
1005.890625,-0.559506,-4.571283,-5.130357,4.521197
1005.894531,1.301820,-6.531905,-4.231248,-4.043513
1005.898438,-1.773749,-0.496642,-1.310124,2.232213
1005.902344,-4.019882,-0.844790,-1.500384,6.475935
1005.906250,-4.478064,1.458172,9.698231,3.389446
1005.910156,4.285800,5.153133,-2.415751,11.822514
1005.914062,9.418037,8.738101,8.919997,1.313732
1005.917969,13.902404,1.875485,6.465235,5.639317
1005.921875,12.235128,6.138592,12.815464,9.860817
1005.925781,14.645181,7.172847,7.593631,13.260740
1005.929688,16.052539,12.203002,13.526235,6.612031
1005.933594,10.359591,4.634875,13.291514,9.048487
1005.937500,8.081476,10.738049,6.432080,3.007111
1005.941406,10.748377,3.107006,9.629273,10.102942
1005.945312,8.301149,-1.188029,5.683000,3.368416
1005.949219,-1.802396,2.751399,3.188794,1.454987
1005.953125,3.328998,0.974659,-2.661480,2.958482
1005.957031,-4.846683,3.771094,2.684586,2.335866
1005.960938,-10.940957,-9.657580,-2.923780,-12.182893
1005.964844,-4.298598,-7.078223,-9.655772,-1.625204
1005.968750,-5.720266,-17.949602,-10.861967,-6.722270
1005.972656,-14.425717,-17.344681,-17.535939,-9.839672
1005.976562,-11.867268,-8.434442,-13.327475,-4.446039
1005.980469,-13.546434,-12.018146,-8.160364,-2.208664
1005.984375,-7.927269,0.822234,-4.337170,-2.715221
1005.988281,-1.444985,-6.878186,-3.182066,-13.411011
1005.992188,-1.850804,-0.087271,-2.479420,-10.001357
1005.996094,0.079923,0.417697,-1.294529,-5.205066
1006.000000,-2.624373,-4.482128,6.677760,3.009430
1006.003906,3.695111,-0.466855,4.844993,-0.234385
1006.007812,6.945059,-1.478779,6.615011,-1.395859
1006.011719,8.998816,3.662138,3.373512,9.561417
1006.015625,8.560423,6.173362,5.664784,9.135205
1006.019531,12.064058,12.792065,6.334948,7.390552
1006.023438,13.104796,1.961209,14.417144,14.610470
1006.027344,10.707086,3.189070,13.877091,8.988647
1006.031250,2.049946,18.598814,12.800022,13.171662
1006.035156,7.082784,9.854164,11.251879,11.912776
1006.039062,5.179246,7.678966,2.594912,7.011042
1006.042969,7.623308,3.781015,1.922508,0.495721
1006.046875,-5.074510,-5.548592,2.362322,-6.225308
1006.050781,-5.205088,-4.160564,-4.504422,3.281671
1006.054688,-5.034654,-5.750465,1.238880,-4.670614
1006.058594,3.888886,-5.885185,-9.452455,-5.225164
1006.062500,-4.637341,-3.935704,-12.756055,-4.612276
1006.066406,-9.752442,-11.234185,-7.988007,-14.603601
1006.070312,-3.378681,-17.067936,-11.607298,-8.339735
1006.074219,-7.438003,-9.500887,-10.909595,-10.985258
1006.078125,-1.488930,-7.686865,-15.902260,-8.252456
1006.082031,-11.342835,-6.929117,-5.787257,-5.363194
1006.085938,-2.091036,-7.225964,-5.521266,-7.341987
1006.089844,-0.865444,-2.017060,-12.676379,0.485733
1006.093750,2.500952,-2.980602,-7.164131,-3.382972
1006.097656,0.671825,2.303067,-2.799465,-3.677112
1006.101562,1.985443,2.430797,5.081233,5.059525
1006.105469,4.204515,9.706347,3.171942,2.840550
1006.109375,9.560389,3.373790,9.519801,7.677522
1006.113281,4.874777,4.697116,6.558155,11.687262
1006.117188,2.895294,6.600211,17.789665,7.482875
1006.121094,9.903261,6.191829,16.422493,10.190792
1006.125000,8.176477,6.569515,6.887709,13.808224
1006.128906,4.425030,12.540746,9.666791,10.266133
1006.132812,5.609215,10.981685,9.245946,7.466324
1006.136719,5.061913,1.806799,5.965690,7.348250
1006.140625,6.364161,7.140306,-0.019467,3.474338
1006.144531,-1.436322,9.088488,0.144451,9.087549
1006.148438,-0.986506,4.360592,-2.569922,1.486193
1006.152344,-6.351559,-2.400682,0.249823,-0.480294
1006.156250,-0.328268,-1.643799,-3.244402,-1.888629
1006.160156,-10.011233,-7.076655,-3.463576,-4.735062
1006.164062,-4.884790,-14.739268,-5.322551,-12.021968
1006.167969,-5.930868,-6.316698,-6.757032,-4.701618
1006.171875,-8.596443,-3.500651,-11.645472,-8.352128
1006.175781,-21.368984,-9.445121,-10.408930,-6.814628
1006.179688,-9.826325,-12.885416,-10.668064,-4.656361
1006.183594,-11.385740,-12.314378,-13.327510,-8.971398
1006.187500,-3.460077,-9.780883,-4.808989,-6.130852
1006.191406,-2.982652,-4.301512,-13.590251,-2.776346
1006.195312,-10.383601,-8.585777,-1.520175,2.600560
1006.199219,2.775763,1.284931,-5.521587,6.133307
1006.203125,-1.328048,-2.865214,1.333510,-3.337381
1006.207031,2.770767,-3.754575,-3.497154,-0.068752
1006.210938,6.420926,6.618888,7.935625,13.217203
1006.214844,7.609008,11.158223,7.019018,7.083636
1006.218750,12.446860,8.663244,8.120161,9.310941
1006.222656,13.013352,13.702870,13.098367,6.042172
1006.226562,14.456674,11.645333,14.239760,11.916296
1006.230469,11.812443,3.704730,2.116141,13.822926
1006.234375,13.758157,11.234389,5.233260,18.300340
1006.238281,4.103873,3.692516,4.213919,8.042370
1006.242188,1.958197,5.297443,-5.632070,9.069071
1006.246094,-0.295184,6.461033,6.425282,2.986922
1006.250000,-0.730667,-6.292144,-7.397920,3.839432
1006.253906,-5.340645,-4.973741,-3.970112,-4.711568
1006.257812,0.304492,-5.139727,-5.403705,-9.071801
1006.261719,-7.529964,-9.532078,1.900565,-10.880175
1006.265625,-10.692425,-6.414781,-9.433711,-7.102647
1006.269531,-10.389149,-7.034209,-9.962743,-8.385195
1006.273438,-13.217194,-4.033075,-5.292153,-14.233580
1006.277344,-5.563870,-13.482368,-7.303327,-12.183679
1006.281250,-4.463825,-9.165373,-7.196061,-11.559816
1006.285156,-7.676979,-9.965501,-11.932425,-14.594482
1006.289062,-8.022786,-2.651855,-9.302242,-11.992829
1006.292969,-4.602110,0.146293,-9.504272,-8.968002
1006.296875,0.006610,4.252377,-7.649699,-1.695135
1006.300781,-4.277973,6.282254,-4.185514,-1.680853
1006.304688,3.724826,1.749594,6.866949,2.611773
1006.308594,5.125935,6.916413,5.554748,7.532432
1006.312500,0.752162,9.084380,5.606205,5.620736
1006.316406,5.585435,6.612123,9.610593,10.294290
1006.320312,15.369410,14.061743,2.330373,16.551259
1006.324219,9.597885,10.728048,8.412575,0.748582
1006.328125,10.803700,15.389732,15.000742,7.024035
1006.332031,10.483592,12.432475,8.695393,9.454676
1006.335938,8.963942,6.973719,0.977458,4.951035
1006.339844,4.340597,4.154975,0.743727,5.043873
1006.343750,0.453652,5.815024,1.579000,2.655762
1006.347656,5.739470,-2.536510,4.504087,7.028590
1006.351562,-0.253417,1.570380,0.809909,-0.469622
1006.355469,-7.107769,-3.500489,-5.343896,-4.008308
1006.359375,-2.074313,-2.744885,-15.485173,-7.455324
1006.363281,-4.194109,-7.151992,-9.133791,-2.274554
1006.367188,-0.860441,-1.274716,-15.788060,-9.964861
1006.371094,-4.123594,-2.854191,-10.195613,-8.770332
1006.375000,-15.280336,-10.879770,-11.974171,-12.364443
1006.378906,-10.756398,-12.739358,-4.790196,-11.397915
1006.382812,-8.714738,-8.862450,-3.334299,-12.541867
1006.386719,-11.480898,-9.193647,-13.588978,-6.718116
1006.390625,-1.681254,-2.749984,-7.063467,-10.026255
1006.394531,-6.039124,-5.859972,-12.381659,-1.837732
1006.398438,-1.985662,3.100306,-2.269023,-6.482729
1006.402344,-1.874307,0.583205,2.254698,5.178421
1006.406250,-2.848888,5.904602,-1.692923,7.712612
1006.410156,5.867019,-0.223183,6.806227,6.465716
1006.414062,3.383904,0.874497,18.988089,7.685474
1006.417969,11.255760,8.107743,7.333352,12.370703
1006.421875,10.060259,13.607177,15.713355,10.146071
1006.425781,11.505891,17.122855,16.156058,5.965960
1006.429688,4.565098,9.418776,14.045146,7.622331
1006.433594,7.482294,9.208249,11.130174,11.785239
1006.437500,9.041350,11.140765,13.419709,6.943335
1006.441406,15.991421,4.802604,7.345415,9.258111
1006.445312,4.462428,2.549375,5.663597,3.361553
1006.449219,-3.731540,1.868713,0.478591,2.957350
1006.453125,-3.566191,-4.433848,2.526862,-2.749815
1006.457031,-1.501870,-1.788887,-6.578479,-5.887668
1006.460938,-2.323782,-12.670602,-10.767119,-6.709941
1006.464844,-5.120387,-5.664822,-2.509172,-9.921594
1006.468750,-14.388753,-9.439452,-11.802945,-10.676585
1006.472656,-17.244295,-5.235186,-8.273023,-11.234820
1006.476562,-1.838107,-6.320354,-8.966421,-11.172425
1006.480469,-14.184288,-4.067174,-16.521731,-13.311107
1006.484375,-0.570308,-2.063487,-11.322120,-4.214551
1006.488281,-4.188981,-2.076589,0.160290,-11.273071
1006.492188,-4.170054,-1.210384,-12.347355,-5.319378
1006.496094,-3.702494,-6.548607,-5.529825,-0.871183
1006.500000,-3.149033,7.237020,7.656371,3.261859
1006.503906,3.400853,-0.519188,1.100686,0.628869
1006.507812,0.731148,-5.718514,6.711174,2.094757
1006.511719,6.323309,7.006674,6.722848,6.571571
1006.515625,6.611874,14.984967,9.834760,2.384997
1006.519531,4.864136,11.325896,14.477444,17.543646
1006.523438,9.373805,4.170597,10.589653,7.171947
1006.527344,15.859337,9.516851,6.626630,9.740461
1006.531250,11.000898,9.145964,14.502011,11.168428
1006.535156,4.770292,1.040192,3.303328,7.288950
1006.539062,2.187200,5.274979,8.555633,5.936668
1006.542969,10.209849,6.367455,2.902130,1.969607
1006.546875,0.296224,8.579076,4.931542,-6.500975
1006.550781,-1.615119,-3.242340,2.987668,-6.134313
1006.554688,-5.550577,-7.602303,1.245942,-1.425233
1006.558594,-4.777243,-2.029932,2.499429,-6.547688
1006.562500,0.614339,-5.292056,-13.091103,-5.094135
1006.566406,-6.359424,-7.955074,-10.332358,-4.940985
1006.570312,-10.822364,-12.395839,-7.254068,-11.644245
1006.574219,-9.947774,-6.205172,-14.602312,-8.501881
1006.578125,-9.168523,-2.318252,-7.585343,-14.470651
1006.582031,-5.721883,-12.440350,-6.779032,-16.971666
1006.585938,-7.654594,-0.172175,-10.860513,-1.327520
1006.589844,-10.320376,-3.974940,-6.983662,-6.631966
1006.593750,3.358760,-11.928493,3.785390,-8.625276
1006.597656,-1.367354,3.275899,-1.951177,-5.551929
1006.601562,-0.809583,-8.746186,-2.624551,2.405936
1006.605469,2.119740,3.842276,7.437855,1.406572
1006.609375,8.685531,12.241748,2.571179,-0.639010
1006.613281,8.699974,5.866103,4.507602,0.668820
1006.617188,8.920467,10.752733,13.769434,0.720928
1006.621094,13.449600,6.604472,10.472103,7.608948
1006.625000,8.934101,8.354604,8.150271,9.034816
1006.628906,8.493289,7.397281,12.448526,10.208382
1006.632812,4.594497,11.522065,5.684945,9.200311
1006.636719,7.686282,6.647973,11.674721,11.572721
1006.640625,6.436766,2.570942,4.155861,7.210197
1006.644531,2.066577,0.005389,3.600413,-5.598383
1006.648438,6.293607,-3.795440,1.572345,4.415322
1006.652344,-5.961277,-2.550367,-2.249990,-4.996850
1006.656250,1.095750,-9.055830,-0.981764,-2.788418
1006.660156,-5.145140,-8.688463,-9.561481,-2.886590
1006.664062,-6.719129,-5.343549,-10.466718,-9.985508
1006.667969,-3.474591,-8.565085,-10.953304,-1.827625
1006.671875,-10.081578,-3.738612,-15.532742,-11.514411
1006.675781,-11.691757,-9.718518,-8.093327,-3.741896
1006.679688,-5.550758,-7.042347,-8.891224,-7.741289
1006.683594,-22.010242,-15.905474,-2.630480,-10.198453
1006.687500,-11.440332,-5.481988,-2.594393,-6.832862
1006.691406,-8.814089,0.723463,-2.698500,-1.463116
1006.695312,-5.242272,-0.414159,-3.731965,-4.913301
1006.699219,-5.208601,5.281781,-1.320787,5.431977
1006.703125,2.836246,3.110249,-0.578153,-1.628358
1006.707031,8.224324,1.783417,2.212072,2.488273
1006.710938,9.792950,-0.424042,9.662418,0.748681
1006.714844,6.060462,4.444611,5.025641,6.072120
1006.718750,2.045180,10.280248,13.863318,11.441114
1006.722656,9.866142,9.134329,9.252730,9.176215
1006.726562,11.710805,14.515124,8.673005,6.255423
1006.730469,13.284510,11.124625,6.275419,10.998156
1006.734375,14.407015,5.963066,9.324051,4.741680
1006.738281,4.538471,9.450271,8.583437,10.075638
1006.742188,14.248641,4.841457,0.142852,6.250574
1006.746094,-1.782030,2.871670,0.970702,-0.572269
1006.750000,3.945933,-4.260439,0.225683,1.821515
1006.753906,-4.069428,-6.112316,0.946756,8.594877
1006.757812,-2.247597,-3.866325,-8.278443,-2.761222
1006.761719,0.706589,-4.394744,-7.003459,-8.688796
1006.765625,-6.789681,-6.296090,-9.668005,-2.155061
1006.769531,-14.096003,-11.743587,-9.897833,-8.900338
1006.773438,-13.668782,-6.299262,-4.407627,-9.804576
1006.777344,-9.436175,-12.842857,1.929558,-6.805533
1006.781250,-9.916931,-12.449470,-7.771908,-6.044029
1006.785156,-11.166506,-7.982785,-2.774041,-9.939463
1006.789062,-11.597645,-6.354227,-3.167125,-6.656267
1006.792969,-7.040192,1.960463,-7.046182,-9.878676
1006.796875,-0.089083,-6.729515,-7.332953,-6.836404
1006.800781,2.424696,1.684466,-5.542159,-2.383654
1006.804688,6.756386,9.623224,5.881832,5.631533
1006.808594,-3.075724,10.247971,1.405844,8.503676
1006.812500,14.309936,3.136830,9.379652,7.449155
1006.816406,9.917600,6.004780,12.307534,8.292351
1006.820312,12.745559,12.274125,8.430240,13.181351
1006.824219,14.976820,10.647002,16.379043,13.244229
1006.828125,6.523710,11.418255,11.742853,14.523276
1006.832031,12.120764,6.827640,3.365857,9.158048
1006.835938,4.459836,0.748501,9.145838,4.315655
1006.839844,4.554841,-1.439110,2.380964,5.009253
1006.843750,9.836714,6.365296,5.984374,7.602014
1006.847656,-1.623699,6.348660,5.400900,5.243276
1006.851562,-4.676508,3.899533,2.790350,0.431849
1006.855469,-8.435633,-5.966434,4.927390,-2.252167
1006.859375,-10.389962,-6.400130,-11.721001,-6.690421
1006.863281,-9.525633,-5.077446,-13.332694,-4.960567
1006.867188,-10.751726,-11.844753,-7.025329,-4.977341
1006.871094,-7.273032,-9.094305,-9.273023,-2.336244
1006.875000,-5.639524,-11.436877,-7.499865,-9.824405
1006.878906,-8.135252,3.302621,-8.349271,-7.547871
1006.882812,-12.450154,-6.919119,-7.710467,-14.331284
1006.886719,-9.197536,-11.571481,-4.083340,-10.265741
1006.890625,-5.673391,-11.133619,-4.302099,-5.261088
1006.894531,-3.852159,-3.734040,-6.276373,-3.017164
1006.898438,-6.270925,0.322927,0.476549,-7.874633
1006.902344,0.192237,-0.026965,5.158571,-0.344377
1006.906250,7.041490,-1.399901,10.696215,2.466149
1006.910156,3.105043,7.180545,6.019223,-0.126043
1006.914062,2.536517,7.118380,6.026148,3.838191
1006.917969,13.518724,15.783241,4.263404,11.756463
1006.921875,10.024147,10.728946,6.924510,7.524976
1006.925781,7.728847,6.869932,2.715939,11.967473
1006.929688,12.797427,11.145183,9.203994,14.358046
1006.933594,10.644764,12.054511,9.553791,6.668544
1006.937500,9.934939,4.409586,9.464344,16.674305
1006.941406,12.665756,9.516930,3.274377,7.079477
1006.945312,5.688186,3.346375,2.208015,2.242278
1006.949219,3.236381,-2.535802,3.445271,1.200635
1006.953125,-3.596343,2.937764,-3.596628,1.228816
1006.957031,-0.466220,-11.738713,-10.498854,-6.745909
1006.960938,-6.824463,-5.292499,-9.328221,-7.858242
1006.964844,-9.293084,-8.691098,-3.476271,-3.062345
1006.968750,-7.621410,-11.664131,-6.839038,-7.212010
1006.972656,-9.203544,-6.979987,-10.594044,-8.245639
1006.976562,-4.329295,-12.713983,-7.425616,-13.912695
1006.980469,-7.121480,2.164654,-9.814475,-14.855263
1006.984375,-16.383553,-17.631088,-12.388926,-11.583595
1006.988281,-6.997562,-8.024050,-6.818999,-7.340677
1006.992188,-2.483315,-2.988039,-1.231198,-3.531564
1006.996094,2.548263,0.947558,-0.231763,-5.038815
1007.000000,1.694959,-1.086270,5.169106,-6.041278
1007.003906,2.051200,-2.744842,-3.896852,2.068240
1007.007812,0.144534,0.373529,7.045830,-3.983323
1007.011719,6.887086,10.084796,6.857832,13.496644
1007.015625,11.246254,7.255428,10.727445,1.947399
1007.019531,15.310527,1.429976,5.448081,12.197689
1007.023438,11.575056,12.691376,5.135981,4.354072
1007.027344,3.337925,15.362460,17.157066,16.512066
1007.031250,6.575788,7.945728,11.688755,7.248795
1007.035156,4.418719,6.765214,7.003413,8.773823
1007.039062,12.315800,4.088077,8.433367,-0.715539
1007.042969,-0.515900,4.317022,3.484466,2.886087
1007.046875,-0.361818,3.221365,0.038372,-0.866973
1007.050781,-5.467408,2.399593,5.639619,-3.269781
1007.054688,-5.210061,-2.573850,-9.590303,2.221850
1007.058594,-7.900065,-5.527223,-0.181740,-4.504117
1007.062500,-6.972397,-10.118056,-7.587654,-8.539767
1007.066406,-8.808241,-13.372213,-8.727223,-9.994968
1007.070312,-8.213800,-6.408003,-15.130968,-14.765127
1007.074219,-13.370515,-7.612051,-13.332489,-15.341012
1007.078125,-3.947156,-13.479187,-14.298681,-16.313918
1007.082031,-8.487031,-8.200160,-15.520128,-12.273570
1007.085938,-2.955048,-10.661053,-10.439483,-3.453853
1007.089844,-2.651671,-3.713207,-14.210460,-5.483512
1007.093750,0.153898,-2.259163,-8.552375,-8.611856
1007.097656,-0.504537,2.686225,2.848414,-7.482931
1007.101562,-2.534707,5.957380,-0.843895,-4.944450
1007.105469,9.502299,2.531415,4.125953,11.001838
1007.109375,3.614602,2.567717,7.905335,8.493815
1007.113281,11.293604,14.707731,0.736149,2.979817
1007.117188,9.421733,1.977618,7.300388,5.156931
1007.121094,9.988761,5.600476,10.389443,5.131455
1007.125000,1.388491,13.534101,2.509849,6.382089
1007.128906,3.624108,10.180666,7.349108,3.894805
1007.132812,4.515066,13.713301,-0.313375,8.094520
1007.136719,4.560228,6.559104,8.425929,3.581276
1007.140625,10.507401,5.724552,-2.051277,2.639494
1007.144531,-5.746678,13.085299,-0.478244,1.618108
1007.148438,0.508282,1.303760,0.039134,1.212661
1007.152344,-4.682694,0.203593,1.110730,-4.882952
1007.156250,-3.032538,-1.035890,-8.714180,-6.249154
1007.160156,2.417654,-4.244664,-9.280501,-5.185391
1007.164062,-9.585292,-1.127392,-12.007310,-11.626522
1007.167969,-10.724162,-6.723148,-13.073420,-7.124530
1007.171875,-11.215250,-10.187977,-4.144551,-2.598357
1007.175781,-9.310817,-15.262827,-14.195579,-6.120213
1007.179688,-17.173464,-10.425893,-10.114858,-4.419665
1007.183594,-7.435211,-11.739452,-9.176284,-15.440443
1007.187500,-5.750020,-10.541468,-11.026624,-3.645936
1007.191406,3.030146,-7.503298,-15.435313,-4.384498
1007.195312,-8.104424,-3.020854,2.727469,-0.458431
1007.199219,-1.904892,-0.881928,-2.532316,-6.232403
1007.203125,4.228390,8.347131,1.147356,1.772694
1007.207031,5.532243,5.402254,2.591134,5.169293
1007.210938,3.385747,5.481322,3.042343,2.706153
1007.214844,4.323496,5.578800,3.742033,11.635646
1007.218750,10.065671,8.422208,15.316930,9.886627
1007.222656,1.016492,11.049389,11.652049,10.991850
1007.226562,6.178620,15.588824,9.544054,10.960706
1007.230469,10.503644,8.111090,12.749223,5.447010
1007.234375,16.871035,11.516891,15.588462,12.146277
1007.238281,9.932095,8.637466,5.532376,6.853036
1007.242188,10.696807,0.155993,1.137147,2.525608
1007.246094,5.125369,4.870620,4.602705,2.988842
1007.250000,1.050585,6.254357,4.086587,-1.445675
1007.253906,-1.173691,-5.691557,-3.338881,6.512840
1007.257812,-2.177380,-13.809159,-2.583241,1.717766
1007.261719,-8.616448,-8.904408,-6.860636,1.389713
1007.265625,-2.746545,-14.228241,-5.232397,-9.020410
1007.269531,-6.204534,-6.003720,-7.368146,-3.437686
1007.273438,-7.977502,-2.137704,-12.299488,-7.400471
1007.277344,-10.396672,-8.729322,-8.269073,-9.958447
1007.281250,-8.947223,-6.604761,-11.983113,-8.019169
1007.285156,-5.417153,-6.316827,-16.340648,-10.387977
1007.289062,-5.311593,-10.221708,-3.503567,-4.259445
1007.292969,-1.895753,-3.460408,-5.439208,-8.930854
1007.296875,-10.116428,-0.170293,-3.199353,-0.656095
1007.300781,-6.614561,0.019208,2.587541,-9.448889
1007.304688,9.800037,3.065171,6.328051,3.178215
1007.308594,4.675510,5.869295,8.250111,3.020090
1007.312500,6.759683,4.492557,2.542938,8.107646
1007.316406,8.222886,9.167301,6.884993,15.804309
1007.320312,13.263600,7.384019,11.779091,6.622588
1007.324219,5.893935,-0.476277,10.319371,17.267520
1007.328125,1.535652,4.083446,15.317232,9.349875
1007.332031,3.268843,6.297476,16.826552,7.215379
1007.335938,5.760007,6.223875,15.156704,7.873046
1007.339844,9.451677,7.335289,7.143583,7.232666
1007.343750,1.573786,-1.645179,12.109056,7.227864
1007.347656,0.483165,3.945996,8.479059,9.866927
1007.351562,-6.270946,6.516432,5.177335,-5.084660
1007.355469,-12.233449,-10.944353,-5.193439,6.016995
1007.359375,-2.907136,-9.295162,-8.570678,-8.396373
1007.363281,-8.145129,-5.767830,-15.283317,-13.113350
1007.367188,-3.634233,-7.317622,-10.503873,-7.497764
1007.371094,-8.025440,-14.116163,-7.658358,-11.653885
1007.375000,-11.662591,-9.533198,-12.346299,-10.586070
1007.378906,-12.715526,-8.083168,-11.627696,-7.933549
1007.382812,-9.274678,-2.712145,-12.466588,-14.862315
1007.386719,-8.235593,-7.743828,-1.927567,-7.480579
1007.390625,-3.881103,-5.834732,-9.259090,-4.770143
1007.394531,5.571847,-0.345552,-1.962035,-9.949426
1007.398438,-0.849783,-0.080003,-6.730868,0.415207
1007.402344,-0.694750,1.132741,1.828139,1.985482
1007.406250,7.575001,-1.025651,4.514435,6.769920
1007.410156,6.695220,1.337168,6.299307,13.118546
1007.414062,7.950829,4.005498,8.685097,2.424097
1007.417969,9.738443,16.883119,7.983676,6.740572
1007.421875,9.509212,7.905481,6.618292,9.512740
1007.425781,13.362436,9.628364,10.399667,13.103407
1007.429688,6.391209,10.190868,7.276177,13.067296
1007.433594,-0.601109,7.479959,8.162461,11.969566
1007.437500,7.976804,10.040993,4.846974,12.559079
1007.441406,5.517146,5.833545,2.821148,4.665971
1007.445312,6.712954,3.467918,1.163967,0.316145
1007.449219,0.751063,3.451530,1.034460,0.104254
1007.453125,-4.257485,-7.691801,-0.633982,3.654373
1007.457031,-5.516552,-4.113162,-8.009888,-4.428252
1007.460938,-5.733561,-4.993825,-0.456186,-2.050640
1007.464844,-17.305286,-6.435165,-9.043581,-2.977810
1007.468750,-6.262220,-7.726043,-10.168961,-10.073453
1007.472656,-11.427451,-7.992618,-9.500080,-13.953737
1007.476562,-10.007265,-10.522725,-6.950863,-14.468522
1007.480469,-16.050534,-5.063622,-15.983220,-13.493871
1007.484375,-9.493842,-11.745605,-7.140792,-8.166185
1007.488281,-2.442204,-9.424470,-0.925876,-8.235013
1007.492188,-2.402708,-4.386151,-9.781463,-4.984417
1007.496094,-0.787788,-2.638365,-6.284864,2.224669
1007.500000,1.049421,9.745907,1.114211,-8.337331
1007.503906,0.947573,-2.552772,5.367863,7.437474
1007.507812,10.796478,10.648339,2.953169,13.863237
1007.511719,7.717144,8.836776,13.933750,5.157754
1007.515625,2.992141,18.044947,6.375574,10.641469
1007.519531,7.856979,7.915082,5.234824,9.352025
1007.523438,14.060874,14.041372,6.111421,10.193469
1007.527344,7.846805,10.839295,6.459721,1.128678
1007.531250,11.955284,2.867338,5.792350,5.697389
1007.535156,11.297776,5.765084,10.300609,6.296573
1007.539062,9.346215,4.453582,3.836105,7.603343
1007.542969,5.884092,2.844272,6.428887,6.232044
1007.546875,-2.037130,1.852906,10.398985,5.555948
1007.550781,-1.565624,3.636354,-1.768083,-2.167706
1007.554688,-0.655160,-7.885914,-5.569424,0.689839
1007.558594,-0.337443,1.650702,-6.144298,-5.270974
1007.562500,-4.484312,-6.490064,-8.774228,-3.448183
1007.566406,-9.336220,-10.535020,-4.109907,-9.930522
1007.570312,-10.867606,-6.405898,-9.376880,-15.977457
1007.574219,-5.703440,-18.296394,-9.356142,-10.595864
1007.578125,-10.223609,-4.909759,-6.144621,-4.627753
1007.582031,-14.629090,-9.555887,-15.174883,-9.224178
1007.585938,-9.923241,-9.807646,-10.011186,-6.926876
1007.589844,-0.223792,-3.815832,-5.081463,-5.971534
1007.593750,-4.854669,-1.549930,4.946484,-7.378319
1007.597656,5.624245,-7.178448,2.780428,3.575458
1007.601562,6.160049,-0.887384,3.931501,3.579794
1007.605469,-0.542444,9.577465,7.823340,5.848582
1007.609375,7.408731,3.522811,6.059595,10.134488
1007.613281,4.244915,8.504570,7.592603,0.978555
1007.617188,9.759132,6.840743,9.752970,9.908599
1007.621094,18.767291,13.860033,10.823258,14.479601
1007.625000,10.213439,5.830410,7.242932,12.080636
1007.628906,8.298662,10.728439,14.331291,10.479997
1007.632812,9.347935,3.925807,10.007903,5.044532
1007.636719,8.310901,0.684704,15.383387,7.352492
1007.640625,7.941929,10.057225,7.959217,1.306181
1007.644531,7.671264,-2.728158,3.790699,10.315266
1007.648438,4.957663,-2.771823,4.892104,8.425663
1007.652344,-5.212730,1.363215,-2.928186,-1.333112
1007.656250,-0.405639,-9.069135,-16.073050,-7.601174
1007.660156,-6.431111,-4.053108,-6.127637,-3.305024
1007.664062,-5.649594,-0.799151,-6.580547,0.528573
1007.667969,-3.815335,-8.432694,-8.120583,-11.319025
1007.671875,-8.071958,-9.032013,-13.586265,-14.909722
1007.675781,-16.389493,-9.755381,-11.243687,-7.441156
1007.679688,-18.376003,-6.394697,-7.834195,-6.901465
1007.683594,-12.907827,-5.113834,2.951188,-13.959822
1007.687500,-5.756637,-6.840703,-10.147904,-6.915996
1007.691406,-10.189110,-1.391621,-4.748521,-6.692469
1007.695312,-7.478854,-4.520967,-2.516791,-4.636014
1007.699219,-4.335062,-3.782638,2.827060,0.848901
1007.703125,0.600868,-6.822867,3.359128,8.439141
1007.707031,6.579978,0.997321,1.182211,8.344624
1007.710938,10.133725,9.309115,4.791036,0.314267
1007.714844,3.683543,8.928864,10.773264,8.800243
1007.718750,11.321724,9.549932,6.705935,6.772767
1007.722656,8.338661,12.121650,5.743053,7.933901
1007.726562,12.997471,10.232106,8.084631,14.016417
1007.730469,7.496060,2.792277,14.229733,16.954599
1007.734375,9.618599,4.567277,9.088308,2.707481
1007.738281,6.692433,4.550841,10.764382,7.542181
1007.742188,7.858061,2.325847,8.309372,-4.154931
1007.746094,-2.605796,3.559767,7.721263,3.013638
1007.750000,2.518892,-3.104907,3.651504,1.835684
1007.753906,-1.199712,-2.360340,3.497732,-4.006982
1007.757812,-6.016036,1.107769,-9.163443,-6.198378
1007.761719,-6.169291,-8.352463,-6.067921,-7.556966
1007.765625,3.163510,-7.007362,-12.517126,-13.692301
1007.769531,-16.581912,-8.265959,-9.918226,-6.326922
1007.773438,-7.472950,-10.205180,-7.620247,-6.303327
1007.777344,-8.323230,-9.448723,-0.386814,-16.817693
1007.781250,-20.335650,-9.724169,-0.484438,-12.357111
1007.785156,-9.667256,-1.084407,-4.708469,-8.570059
1007.789062,-7.164378,-12.869326,-5.600432,-14.721808
1007.792969,-2.282447,-8.024103,-1.841690,-4.402298
1007.796875,11.333533,-3.267319,-5.100120,-7.568584
1007.800781,-1.977547,-4.769217,-1.892324,2.163878
1007.804688,-0.232099,-7.177347,5.625659,2.920568
1007.808594,3.712246,9.738076,1.855427,5.558225
1007.812500,7.208036,9.617707,7.801315,9.568194
1007.816406,1.948353,6.113388,4.071196,8.944018
1007.820312,5.267213,10.805280,7.285487,11.634661
1007.824219,11.658511,8.887554,4.702880,12.484516
1007.828125,9.011640,18.132855,15.819204,10.977075
1007.832031,19.731396,0.032893,6.677019,2.884057
1007.835938,5.648756,4.985015,9.358648,5.916333
1007.839844,7.787286,6.201484,3.466355,9.500573
1007.843750,6.010240,-2.179343,10.843477,1.654002
1007.847656,-3.288536,-2.879087,-2.278682,-0.330583
1007.851562,-2.753308,-1.213775,-1.108523,2.520394
1007.855469,0.313720,-5.515694,-6.849897,-2.906621
1007.859375,0.211392,-16.456208,-5.623588,-4.947738
1007.863281,-1.098456,-1.996526,-10.953845,-7.929008
1007.867188,-12.302161,-7.915669,-9.203121,-10.089803
1007.871094,-4.282726,-9.275958,-18.509319,-10.904904
1007.875000,-10.496515,-6.785377,-16.918275,-10.962034
1007.878906,-4.055769,-15.999381,-12.867472,-6.703044
1007.882812,-6.046298,-12.168596,-9.228888,-11.482841
1007.886719,-7.897476,-11.503614,-4.992108,-10.956166
1007.890625,-1.172857,1.874815,-10.501590,-7.440545
1007.894531,0.521576,-9.011899,1.949816,3.507674
1007.898438,10.884906,-3.334198,-2.237187,3.345921
1007.902344,-0.533343,-7.927006,-5.056071,1.373866
1007.906250,-1.766623,-0.941781,0.152678,4.011560
1007.910156,6.626188,4.833799,9.754261,6.441787
1007.914062,8.305263,6.216771,14.271800,8.312224
1007.917969,9.717071,7.462177,7.305707,4.117258
1007.921875,9.214773,8.094817,8.065996,1.751300
1007.925781,8.054040,10.607957,8.547070,8.772028
1007.929688,13.378676,2.840500,10.227281,16.168726
1007.933594,0.669959,13.799396,3.008895,9.599140
1007.937500,7.723405,10.566323,7.871253,8.927493
1007.941406,9.516683,9.537581,4.151410,4.844683
1007.945312,2.448483,6.413636,-1.555066,-1.947789
1007.949219,1.343199,5.954231,0.849512,-5.300120
1007.953125,-3.737606,6.791335,-0.617149,9.522815
1007.957031,-4.800840,-3.191005,-2.585935,-4.075466
1007.960938,-7.171980,-0.984603,-4.848237,-6.528440
1007.964844,-4.777902,-2.253212,-3.920373,-10.618987
1007.968750,-2.653752,-8.773881,-4.461591,-10.565766
1007.972656,-12.034852,-7.126826,-9.745855,-5.537464
1007.976562,-2.412044,-12.176869,-9.084805,-11.345797
1007.980469,-18.509799,-14.487582,-7.746327,-8.655032
1007.984375,-7.755851,-0.390709,-3.114162,-12.747879
1007.988281,-5.561276,-7.694161,-5.922232,-7.238606
1007.992188,3.293070,-7.713284,-6.567228,-2.771355
1007.996094,-0.281462,-0.865063,-0.976017,5.374724
1008.000000,0.617730,1.283113,-3.348969,1.662251
1008.003906,-4.280244,0.914388,4.607819,2.096008
1008.007812,-0.415275,0.312723,-1.990231,3.099128
1008.011719,8.153972,5.351426,5.067640,13.322435
1008.015625,9.537030,15.008340,14.564782,10.792545
1008.019531,12.213902,7.446340,8.549845,14.659988
1008.023438,9.333596,3.185028,16.738607,8.120761
1008.027344,8.358485,5.213543,12.253859,10.759799
1008.031250,0.190256,9.382741,7.966608,11.087552
1008.035156,1.051321,7.321616,2.762203,8.277344
1008.039062,6.044343,8.496702,9.293418,10.913730
1008.042969,7.509453,-3.090029,5.819079,0.591571
1008.046875,1.000495,3.958374,2.670059,-5.107185
1008.050781,1.829927,0.813430,0.496271,2.477857
1008.054688,0.257735,-8.179685,1.384274,-0.825456
1008.058594,-1.870225,-3.887352,-4.433047,-8.823460
1008.062500,-4.519542,-12.642406,-13.209395,-11.316731
1008.066406,-10.132224,-16.343346,-4.342937,-6.939407
1008.070312,-14.177567,-2.668446,-10.862077,-5.512288
1008.074219,-8.273048,-13.713643,-11.996159,-8.888765
1008.078125,-9.270102,-8.231678,-0.382100,-9.724405
1008.082031,-11.403029,-9.957494,-16.680613,-6.153368
1008.085938,-8.535513,-8.226359,-1.473241,-2.658308
1008.089844,1.630366,-8.880555,-14.501846,-2.663284
1008.093750,-0.933662,-1.119809,-6.699879,-3.042753
1008.097656,-3.102626,-2.764992,0.011965,-8.378433
1008.101562,-3.623865,0.141156,-5.811352,-3.931496
1008.105469,5.926737,11.244282,8.945620,-3.705001
1008.109375,6.506517,5.801702,8.219442,14.706614
1008.113281,4.085265,12.028579,12.696112,13.696366
1008.117188,6.292325,11.292219,6.797848,11.714953
1008.121094,7.411406,11.869425,4.520817,11.321326
1008.125000,10.739015,3.455344,12.433828,13.201406
1008.128906,13.393931,9.960170,4.443619,14.951389
1008.132812,13.125521,8.172027,7.886169,10.479928
1008.136719,-0.738324,3.678013,10.470294,7.597001
1008.140625,9.052477,3.597617,3.907660,11.654483
1008.144531,7.744884,1.858914,-0.934876,5.278200
1008.148438,-6.807056,-2.921743,2.613593,1.183080
1008.152344,1.489381,-4.394780,0.724961,0.205630
1008.156250,0.642505,-3.760354,-7.222005,-12.007523
1008.160156,-10.226898,-5.949304,-0.886458,-2.968489
1008.164062,-6.072594,-7.411036,-11.606957,-4.072835
1008.167969,-6.372328,-10.609396,-8.499875,-13.036538
1008.171875,-4.614925,-2.064466,-13.311698,-9.877501
1008.175781,-11.357478,-20.090803,-14.414248,-11.241053
1008.179688,-5.486941,-11.153153,-11.903064,-3.902983
1008.183594,-9.907928,-9.476486,-11.696023,-7.807892
1008.187500,-7.275663,-7.648640,-10.739450,-10.458294
1008.191406,-3.275657,-7.896784,-3.044756,-4.690754
1008.195312,-1.488875,0.554462,-1.693482,-4.740200
1008.199219,-0.946280,3.169953,5.219290,-4.107338
1008.203125,-2.833250,1.726969,0.255980,6.837762
1008.207031,2.033341,3.406737,3.374308,3.486954
1008.210938,7.677651,4.230216,9.807145,4.597421
1008.214844,11.485738,11.944316,7.367683,3.942293
1008.218750,4.833690,13.989713,8.242750,12.605301
1008.222656,17.396506,6.873175,10.466230,10.090094
1008.226562,12.864209,7.911687,9.117817,8.964408
1008.230469,4.763244,7.000083,11.924238,11.289464
1008.234375,16.240003,3.531670,-1.336225,9.335129
1008.238281,14.891137,13.634871,12.176255,12.443943
1008.242188,5.654353,3.082497,5.415967,2.153554
1008.246094,-2.582532,4.291088,-2.934965,9.228265
1008.250000,-0.940403,-1.488512,-3.970782,2.740267
1008.253906,-7.650108,4.487141,-7.884845,-4.956139
1008.257812,-2.575178,-6.147235,-2.820190,3.843662
1008.261719,-9.291197,-8.702808,-3.956636,-2.284468
1008.265625,-6.653460,-9.321406,-6.146447,-5.135026
1008.269531,-11.134144,-12.059978,-6.782899,-9.826352
1008.273438,-11.198757,-13.389605,-11.200663,-11.448435
1008.277344,-3.025812,-8.911978,-9.875947,-8.543559
1008.281250,-8.440959,-9.755385,-4.116083,-6.186295
1008.285156,-7.982371,-11.753037,-3.059760,-10.130394
1008.289062,-12.407746,-3.662542,-13.647092,-8.315509
1008.292969,-6.778710,-13.003999,-4.629961,-8.742638
1008.296875,0.871925,-9.065045,-2.781291,2.036059
1008.300781,4.904242,-0.185295,4.931445,-2.580925
1008.304688,-1.557092,11.943777,6.181715,5.693319
1008.308594,6.253467,0.314759,-0.084418,5.618624
1008.312500,-0.234391,7.782231,6.023499,6.454997
1008.316406,9.397967,11.029770,7.920140,8.140775
1008.320312,4.279427,9.381932,5.805765,12.160805
1008.324219,14.629074,3.996339,5.742811,8.736881
1008.328125,17.087604,7.939955,5.068500,10.705928
1008.332031,15.881969,8.798954,6.878368,9.196073
1008.335938,2.197881,1.747048,6.984812,6.061476
1008.339844,7.305729,-2.189166,9.989878,1.966812
1008.343750,1.182068,4.858085,-3.170103,7.541615
1008.347656,0.695335,-5.245399,6.287046,5.085278
1008.351562,3.544645,-7.307323,-4.994938,2.466873
1008.355469,0.748193,-2.802157,-3.079125,-7.074833
1008.359375,-3.130673,-2.886444,-4.792074,-3.619048
1008.363281,-6.612869,-2.757465,-12.552715,-2.645167
1008.367188,-11.159417,-7.068609,-6.557598,-16.498268
1008.371094,-9.612332,-6.192683,-12.169315,-9.755522
1008.375000,-11.458298,-2.140924,-14.410208,-10.913995
1008.378906,-12.890307,-9.246964,-7.500792,-9.399402
1008.382812,-10.918277,-3.391241,-6.560716,-18.127074
1008.386719,-7.114655,-7.233829,-2.669416,-5.384081
1008.390625,-6.480116,-8.119956,-5.087350,-8.038978
1008.394531,-10.199201,-0.406460,-6.294992,-3.327357
1008.398438,-7.861597,-1.957222,-3.477325,1.346564
1008.402344,3.901378,-1.471145,1.773748,-1.000961
1008.406250,0.284101,-0.896785,4.192261,5.189049
1008.410156,5.484852,6.899059,3.484336,11.992977
1008.414062,6.641045,2.796108,12.335270,3.829817
1008.417969,5.410617,6.951193,6.525350,6.793687
1008.421875,4.573198,11.955415,7.188777,10.126025
1008.425781,7.574584,13.709520,15.171244,8.773343
1008.429688,12.437192,5.703323,8.049080,4.898295
1008.433594,14.721032,16.376511,7.329281,7.570231
1008.437500,9.987928,6.878439,8.769976,4.101628
1008.441406,3.801844,6.923952,-0.720010,6.372553
1008.445312,1.067577,3.264333,5.091721,4.310303
1008.449219,1.003489,-6.638040,4.501093,-9.731786
1008.453125,4.567646,-4.089108,-5.063979,-1.819258
1008.457031,-8.216615,-5.817804,-9.997182,-0.295187
1008.460938,-3.263081,-7.415829,-8.611674,-4.428018
1008.464844,-6.574333,-16.640395,-9.559419,-7.793185
1008.468750,-11.323943,-7.970523,-17.009798,-6.080823
1008.472656,-12.082791,-14.934010,-8.787984,-5.229215
1008.476562,-5.776464,-12.727866,-8.249125,-13.903737
1008.480469,-6.990985,-7.335535,-3.942007,-10.425526
1008.484375,-8.299173,-7.871550,-12.430979,-6.893996
1008.488281,-3.735210,-8.279554,-3.990998,-5.681694
1008.492188,-1.866011,-8.857028,-6.915142,-3.617699
1008.496094,4.953175,3.536124,-4.158836,-2.235519
1008.500000,1.490595,4.703711,-8.380423,-5.595668
1008.503906,1.052678,-4.567473,2.298131,5.768604
1008.507812,13.015216,9.800804,2.882872,5.110389
1008.511719,1.012241,3.867826,6.504323,7.248135
1008.515625,7.691136,10.280327,4.616218,5.876524
1008.519531,7.992042,8.502562,8.480066,4.660958
1008.523438,5.729970,9.642968,6.048339,2.836617
1008.527344,15.518159,10.911509,7.015279,14.255495
1008.531250,3.218633,8.122987,9.074454,6.282231
1008.535156,-2.812449,1.773429,9.658483,9.294833
1008.539062,6.579456,5.528936,9.632302,5.909698
1008.542969,7.701443,8.357244,4.066077,5.950905
1008.546875,-2.675452,-0.950985,-2.677568,1.960286
1008.550781,-4.791555,-6.204868,-3.434574,-0.799806
1008.554688,-2.555623,-3.202589,3.623569,-7.580079
1008.558594,-1.073421,-2.322605,-2.395508,-5.939270
1008.562500,-6.117627,-5.237183,-11.756989,-8.503743
1008.566406,-13.940501,-10.796399,-11.831135,-4.534742
1008.570312,-11.849048,-10.819166,-5.780483,-9.767522
1008.574219,-21.645231,-8.422121,-13.934378,-10.764141
1008.578125,-12.331312,-11.628647,-8.602689,-9.319952
1008.582031,-8.970816,-6.392069,-3.515917,-11.118114
1008.585938,-11.212976,-10.825184,-10.240683,-8.605664
1008.589844,-14.263036,-5.046213,-10.356066,-7.154090
1008.593750,-1.930134,-3.992034,-5.881241,-8.672726
1008.597656,-4.602536,-1.445053,-4.697964,-4.928787
1008.601562,-3.941060,5.708868,4.580206,2.917768
1008.605469,4.206707,2.556320,1.282646,-5.893313
1008.609375,3.524423,6.362931,1.743518,6.398763
1008.613281,4.711510,10.369644,4.096394,8.829417
1008.617188,12.953361,16.638152,7.726772,2.974274
1008.621094,12.026238,9.527201,9.049622,7.522478
1008.625000,7.014791,11.491352,14.554398,4.284704
1008.628906,14.905005,11.819422,14.205728,6.063154
1008.632812,3.963507,7.782502,8.892526,11.505320
1008.636719,14.077372,6.561557,-0.474792,-0.696855
1008.640625,11.375886,7.742561,7.086701,3.696448
1008.644531,3.251113,2.537379,5.825363,-2.489986
1008.648438,1.369721,5.034514,7.582349,4.188462
1008.652344,5.138901,0.266561,-3.943378,0.029667
1008.656250,-2.478121,-3.114090,0.509043,-4.097485
1008.660156,-6.575620,-8.700159,-0.055472,-4.223533
1008.664062,-8.080030,-7.146360,-6.899882,-3.705481
1008.667969,-15.322686,-11.419758,-2.467963,-7.783063
1008.671875,-10.943172,-8.784492,-11.131262,-10.625062
1008.675781,-2.803877,-6.982208,-4.072682,-10.427588
1008.679688,-12.745596,-10.008172,-7.514751,-9.762323
1008.683594,-10.073762,0.470117,-10.546765,-4.791640
1008.687500,-11.787870,-6.951904,-10.424561,-4.467683
1008.691406,-6.350556,-6.109127,-8.117748,-3.653752
1008.695312,-0.619068,0.300606,0.223722,0.602631
1008.699219,-5.219249,3.875738,0.136483,-1.237675
1008.703125,1.663150,1.664321,-2.848374,-6.203201
1008.707031,7.242043,7.418740,1.728513,7.858914
1008.710938,8.791517,14.834504,6.343438,1.376105
1008.714844,6.199513,12.716538,9.833312,8.533351
1008.718750,7.895177,3.848105,3.250475,5.961413
1008.722656,14.019718,-1.128827,8.315086,4.872302
1008.726562,9.249806,17.142618,11.683733,7.412049
1008.730469,4.552592,4.908231,3.105027,11.519465
1008.734375,3.831335,1.368205,8.304320,5.887958
1008.738281,4.185163,12.088257,5.600068,6.070754
1008.742188,6.267598,-1.822181,7.262340,6.569445
1008.746094,-2.798139,6.458173,-1.117085,4.559151
1008.750000,3.274313,-5.029077,3.785515,0.200147
1008.753906,0.492353,-3.852660,-2.823560,-2.554642
1008.757812,-1.409900,6.754616,-7.211962,1.938368
1008.761719,-9.928413,-4.381258,-1.943432,-3.884261
1008.765625,-8.942965,-3.359937,-5.959113,-7.169529
1008.769531,-15.045222,-11.869352,-7.103922,-6.194870
1008.773438,-11.772217,-20.828062,-7.840599,-1.272751
1008.777344,-18.577405,-5.899629,-7.943574,-9.536446
1008.781250,-14.302856,-10.106115,-8.241196,-17.506626
1008.785156,-2.500051,-7.093607,-5.472603,-6.602535
1008.789062,-3.054139,-6.924358,-6.096386,-6.417586
1008.792969,-6.041915,-4.862082,-0.840592,-0.498849
1008.796875,4.555501,-2.639345,-2.918814,-4.723705
1008.800781,7.743165,-9.397644,3.920122,2.965385
1008.804688,7.109933,1.986624,3.269993,6.026033
1008.808594,-3.526006,4.098555,7.951639,4.894493
1008.812500,6.261171,10.134244,8.964864,6.762680
1008.816406,10.118641,8.447762,10.792456,1.190953
1008.820312,-1.258281,3.689881,8.057450,11.524636
1008.824219,7.625325,3.836804,3.550862,8.570640
1008.828125,4.180901,6.904977,8.968598,9.978511
1008.832031,6.073667,12.550360,6.653611,8.072334
1008.835938,-0.182398,9.256715,12.847543,4.612894
1008.839844,1.631745,9.838126,6.962792,10.725367
1008.843750,0.608402,3.032982,-0.221398,6.166200
1008.847656,-1.933780,3.678188,1.011916,2.379051
1008.851562,1.298917,6.189560,-2.883614,-0.950591
1008.855469,-4.082130,-1.174993,-4.309810,1.757305
1008.859375,-6.968784,-2.514415,-14.498498,-8.801039
1008.863281,-1.801496,-6.036069,-2.856723,-9.927659
1008.867188,-10.972856,-6.730958,-3.266330,-9.322579
1008.871094,-11.958285,-6.302359,-7.461021,-9.807561
1008.875000,-13.915529,-9.769371,-16.221256,-9.021878
1008.878906,-13.068559,-3.995944,-10.632551,-9.965089
1008.882812,-3.149893,-10.319292,-15.247368,-14.857058
1008.886719,-3.063156,-8.620330,-6.613929,-8.174849
1008.890625,-11.478850,-4.670148,-12.517445,-9.635442
1008.894531,-0.237626,-0.412319,-2.850616,-5.868236
1008.898438,-1.738433,-2.325134,-11.117327,4.051042
1008.902344,-0.840417,3.442668,-1.774350,-0.754656
1008.906250,12.392914,-1.945128,4.776683,4.032359
1008.910156,10.585301,4.889572,7.874798,4.064951
1008.914062,4.453982,13.151278,1.937223,0.961279
1008.917969,7.432307,4.050542,5.534408,6.780919
1008.921875,5.710124,4.839070,16.845252,8.700291
1008.925781,8.371467,6.753055,12.584031,8.544312
1008.929688,8.071380,10.991009,6.242905,4.872453
1008.933594,9.853692,14.079237,15.599859,6.158607
1008.937500,6.421276,10.509601,7.778127,6.052064
1008.941406,-4.119476,6.984067,5.165481,7.677753
1008.945312,3.182926,-1.056418,2.481839,9.168959
1008.949219,3.772911,-9.473693,-8.379684,1.399605
1008.953125,-1.305136,-6.150592,-1.777388,2.909658
1008.957031,-8.787023,2.219058,-4.675539,-4.729002
1008.960938,-3.604759,-12.731817,-3.122133,5.214510
1008.964844,-7.888554,-5.544416,-0.633298,-9.013553
1008.968750,-11.946189,-5.711828,-8.818075,-4.881806
1008.972656,-8.388325,-6.874192,-12.478574,-9.753572
1008.976562,-7.732103,-3.416474,-11.718454,-13.640355
1008.980469,-6.971128,-4.835678,-8.663527,-9.553994
1008.984375,-9.865326,-13.298057,-6.642286,-5.861926
1008.988281,-11.702759,-13.858360,-6.260985,-4.670205
1008.992188,-10.586404,-4.403434,-6.337129,-1.639993
1008.996094,2.334348,0.667455,0.918970,-2.543519
1009.000000,-0.668354,-0.759041,-0.225053,-3.647559
1009.003906,-0.103206,3.965807,0.388357,12.111171
1009.007812,11.578335,10.337245,12.981720,2.414807
1009.011719,9.744012,1.842766,7.238971,4.854812
1009.015625,6.941557,12.281720,7.472988,7.338915
1009.019531,14.496040,10.395197,8.308236,5.962644
1009.023438,11.292138,7.806050,4.681240,12.345872
1009.027344,6.653675,10.926839,8.101834,11.967516
1009.031250,0.679744,13.946773,5.816168,10.231042
1009.035156,8.889108,11.670543,8.818997,9.411145
1009.039062,3.277050,2.155805,10.134195,8.449621
1009.042969,4.076900,5.523968,6.254118,2.613551
1009.046875,-0.005201,0.991338,7.187038,4.958281
1009.050781,-1.364718,-6.256019,-4.626204,4.420280
1009.054688,1.026428,-4.482813,-6.871821,-5.400369
1009.058594,-2.809252,-3.107780,-4.177474,1.344582
1009.062500,-6.490657,-9.668772,-8.290925,-0.586904
1009.066406,-13.446878,-17.530620,-3.746002,-3.098212
1009.070312,-7.535820,-10.860916,-10.930752,-3.975868
1009.074219,-14.576507,-11.272914,-14.950463,-11.237413
1009.078125,-4.508634,-6.289742,-8.357518,-9.979486
1009.082031,-6.922042,-0.867660,-17.105087,-11.681047
1009.085938,-7.838631,0.943500,-9.723652,-14.442451
1009.089844,-2.344433,-5.751064,0.479721,-7.335317
1009.093750,-4.894061,-3.811107,-4.425425,-7.375439
1009.097656,7.915761,-7.520787,3.570328,-9.397904
1009.101562,1.707324,-1.050041,-2.947057,-0.594123
1009.105469,0.830090,6.435590,3.456671,7.800863
1009.109375,4.070897,10.472011,11.969214,12.115948
1009.113281,9.162863,1.295003,11.192858,6.468451
1009.117188,14.209757,12.243197,7.415500,6.243423
1009.121094,14.479831,10.066822,8.711958,4.794020
1009.125000,7.385120,16.292916,15.354323,9.209861
1009.128906,8.309233,9.250831,8.233793,13.361079
1009.132812,7.411023,7.042750,5.971068,10.962574
1009.136719,1.773625,5.346339,17.923548,7.519992
1009.140625,2.358344,13.659579,12.046319,9.628666
1009.144531,3.329649,10.360050,5.633681,8.419851
1009.148438,2.334662,4.153624,0.853334,0.928741
1009.152344,-2.555250,-3.161642,2.008860,-6.790410
1009.156250,1.033453,-0.517689,-6.809743,-0.888391
1009.160156,-2.804902,-4.320289,-5.041802,-8.309533
1009.164062,-11.954883,-11.975580,-14.526512,-6.019792
1009.167969,-6.492045,-8.260967,-10.089216,-9.529810
1009.171875,-19.454646,-7.077628,-10.786961,-12.246704
1009.175781,-8.041141,-3.000382,-10.708706,-9.675707
1009.179688,-14.256382,-8.996055,-11.698164,-5.818956
1009.183594,-10.228957,-7.336342,-4.031211,-6.227827
1009.187500,-8.484055,-14.045512,-8.020985,-6.328464
