timestamp,TP9,AF7,AF8,TP10
1000.000000,-4.232914,8.260537,1.040055,-5.784678
1000.003906,3.164133,4.871965,4.810627,1.413757
1000.007812,3.002668,6.504136,6.977474,13.255918
1000.011719,7.754534,-0.332179,10.031358,3.374070
1000.015625,7.757662,3.255736,12.486768,3.654649
1000.019531,2.556514,8.191712,11.910348,11.039208
1000.023438,13.206794,15.630249,12.817342,7.068528
1000.027344,8.080253,12.080665,7.547560,13.022014
1000.031250,7.084026,9.078911,5.839422,4.478961
1000.035156,9.380042,13.605839,12.506496,6.442600
1000.039062,3.403675,-1.027897,9.213085,19.851641
1000.042969,7.887009,2.590509,8.606344,6.221990
1000.046875,0.589633,12.312752,2.360979,3.995311
1000.050781,-2.800788,0.864035,2.062927,-13.344157
1000.054688,-5.117625,-1.480762,-4.100127,2.408012
1000.058594,-8.834888,-4.729693,-12.171503,-4.431069
1000.062500,-7.011675,-9.042211,-13.133114,-10.374252
1000.066406,-10.744913,-13.293934,-5.173367,-20.444683
1000.070312,-12.415298,-6.120385,-4.832032,-7.208354
1000.074219,-5.170791,-12.150455,-14.615139,-8.143432
1000.078125,-13.278627,-5.783417,-14.375414,-9.032950
1000.082031,-9.916904,-10.225477,-5.330681,-8.618396
1000.085938,-9.623673,-17.555214,0.294800,-9.272338
1000.089844,-11.526206,-4.849355,-6.778872,-7.021844
1000.093750,-5.244957,-8.040811,-4.833133,-2.954829
1000.097656,-4.512359,-5.696033,-4.550922,-1.163811
1000.101562,6.532317,1.650477,-2.045108,4.081035
1000.105469,12.115539,5.486668,2.913884,8.130965
1000.109375,10.411944,0.523579,6.462379,7.580028
1000.113281,10.189966,7.001917,5.245903,4.184670
1000.117188,11.501271,7.967602,11.246830,16.010639
1000.121094,14.259136,12.501576,8.096022,8.423792
1000.125000,17.133790,7.420986,2.892415,10.782607
1000.128906,2.403885,10.294736,9.142874,11.215073
1000.132812,7.993110,8.122753,8.295682,3.680452
1000.136719,9.540488,19.753080,1.711192,1.599726
1000.140625,5.170303,2.459141,6.567987,10.158984
1000.144531,5.739149,6.452689,2.860408,2.540181
1000.148438,-3.793141,-0.023633,-0.027274,0.982643
1000.152344,5.405504,0.311604,-1.254997,-0.848999
1000.156250,-7.900816,-2.736732,-1.935020,-4.112669
1000.160156,-6.116832,-5.686865,-6.224969,-4.118093
1000.164062,-2.440436,-3.895851,-7.497949,-13.350560
1000.167969,-8.267294,-11.090226,-2.450691,-9.200752
1000.171875,-15.220860,-12.719252,-13.145067,-13.330990
1000.175781,-11.348538,-9.786902,-11.520749,-12.739592
1000.179688,-5.241652,-11.669814,-4.583269,-18.374206
1000.183594,-15.449640,-10.071475,-6.395206,-7.070211
1000.187500,-8.980489,-4.797786,-3.796178,-3.599007
1000.191406,-2.387464,2.216105,1.671188,1.374834
1000.195312,-6.463904,-2.325810,-1.778189,-3.617807
1000.199219,8.154243,2.194950,-1.350873,-1.735483
1000.203125,4.636400,17.900232,1.033317,-0.502974
1000.207031,4.880962,3.663868,6.022879,-0.109718
1000.210938,11.029972,6.945689,6.084693,9.288091
1000.214844,8.844124,10.016412,6.197406,6.602471
1000.218750,7.936110,13.925461,7.888287,8.250027
1000.222656,12.407579,7.902449,4.515512,14.328248
1000.226562,5.563536,1.453038,9.386785,3.364009
1000.230469,3.247388,15.101187,4.090484,11.047033
1000.234375,5.196195,8.138714,6.018951,2.112612
1000.238281,6.635277,3.941075,9.043328,13.098400
1000.242188,4.159616,3.879220,4.769434,0.830086
1000.246094,2.109079,0.418815,4.433531,-4.192637
1000.250000,1.342887,5.513210,-4.380340,-3.681408
1000.253906,-11.112625,-3.372573,0.264708,-7.914468
1000.257812,-9.937358,-3.005187,-5.760072,-9.774609
1000.261719,-3.841348,-7.414663,-5.076213,-2.068491
1000.265625,-9.184546,-7.200986,-10.687807,-9.683777
1000.269531,-8.226438,-5.277164,-10.121825,-8.244972
1000.273438,-12.631808,-9.943384,-10.541840,-16.109842
1000.277344,-11.276281,-1.829934,-13.978608,-17.097710
1000.281250,-14.431402,-11.658747,-3.517166,-6.769151
1000.285156,-11.400723,-10.556788,-5.579131,-11.040248
1000.289062,-3.541399,-0.845457,-5.966508,-9.164855
1000.292969,-4.867389,-11.341743,-5.157169,-4.763353
1000.296875,3.593742,-4.245286,-2.423209,-2.068462
1000.300781,1.868766,4.557627,-2.599026,-1.407321
1000.304688,-1.051298,-4.268857,0.281144,0.510421
1000.308594,9.369219,6.611262,11.756700,8.350970
1000.312500,5.873421,-1.778574,10.442946,5.546472
1000.316406,14.905052,9.337111,6.489100,5.978703
1000.320312,10.039919,6.218870,11.173896,3.108211
1000.324219,11.232792,8.270160,6.165911,4.820229
1000.328125,7.171967,16.218557,8.192546,16.356497
1000.332031,7.309721,7.304018,4.985989,8.469197
1000.335938,11.726054,7.242380,5.601473,12.500110
1000.339844,3.182997,2.719229,8.314024,5.659718
1000.343750,4.977537,2.571988,7.513098,3.889375
1000.347656,3.295957,7.669464,1.521338,-0.550295
1000.351562,0.749092,-3.119980,4.653515,-3.414397
1000.355469,2.615723,-6.667633,-1.299622,-2.490864
1000.359375,-4.864965,1.412459,-8.051677,-10.640490
1000.363281,-6.441416,-7.402193,0.355469,-5.756353
1000.367188,-3.463769,-1.252339,-10.475341,-7.989900
1000.371094,-12.070814,-15.072092,-13.587518,-2.882960
1000.375000,-11.514787,-6.544106,-11.225966,-15.759324
1000.378906,-16.968070,-5.428031,-5.913853,-6.728046
1000.382812,-6.840330,-10.136242,-6.242394,-6.607651
1000.386719,-10.017554,-7.697422,-4.008123,-3.522757
1000.390625,-3.494192,0.245018,-9.692554,-1.974479
1000.394531,-3.938431,-7.166491,-2.648350,-2.104333
1000.398438,-0.632709,-1.169621,-5.965162,-0.084430
1000.402344,4.769349,-1.339640,3.734218,0.532664
1000.406250,2.132926,3.926920,1.727805,7.931017
1000.410156,11.110714,0.603756,8.291293,8.502843
1000.414062,2.826350,4.787624,12.675641,5.755852
1000.417969,2.283652,10.006778,5.278858,15.230395
1000.421875,9.381603,9.512875,9.171566,11.894809
1000.425781,5.493612,6.241930,11.277030,10.593011
1000.429688,5.668173,12.142438,6.539097,8.167807
1000.433594,6.995864,7.121250,5.129649,6.223694
1000.437500,4.298134,7.037068,6.178863,13.164035
1000.441406,7.925258,2.555047,7.518054,9.131460
1000.445312,1.191397,6.686479,4.733359,9.776681
1000.449219,1.653245,2.710688,7.834216,-0.064199
1000.453125,2.833172,1.947753,3.172657,-2.826005
1000.457031,2.949302,-3.204732,-6.848520,-3.848700
1000.460938,-0.697922,-5.236580,-4.574085,-2.812529
1000.464844,-10.779216,-3.554988,-7.433411,-13.549858
1000.468750,-4.324380,1.457545,-5.262273,-17.030228
1000.472656,-7.594616,-14.308196,-9.293851,-11.431837
1000.476562,-4.973726,-13.251000,-16.425014,-8.915416
1000.480469,-8.481596,-10.094503,-8.019575,-6.723751
1000.484375,-6.321025,-11.084185,-11.938329,-7.805533
1000.488281,-4.729053,-4.496066,-9.231390,-3.692561
1000.492188,2.334024,-8.432863,-8.234796,-4.321126
1000.496094,-2.809492,-3.401205,-3.239863,-8.104465
1000.500000,1.353907,3.335215,-0.257641,8.644833
1000.503906,0.143317,-1.416071,1.696660,-1.667304
1000.507812,-0.894420,7.978440,-0.088933,7.841322
1000.511719,4.225535,8.187473,10.410837,2.293455
1000.515625,1.936926,11.527462,8.392416,-0.297660
1000.519531,17.386234,11.709094,8.863397,4.777649
1000.523438,10.494394,5.843147,0.116397,5.106140
1000.527344,12.939317,2.181595,12.059213,11.035435
1000.531250,10.384421,9.584199,3.650587,9.032646
1000.535156,10.498081,5.273406,9.755896,12.122462
1000.539062,5.058454,1.497025,3.436002,6.601410
1000.542969,0.861203,-0.884217,7.130853,1.495362
1000.546875,-0.983050,-3.915088,5.665252,4.075600
1000.550781,0.454747,-5.607315,1.536973,-1.740093
1000.554688,-10.992342,-5.429322,-8.527001,-0.290809
1000.558594,-3.282583,-1.777050,-1.237611,-6.425552
1000.562500,-9.685084,-1.188578,-4.693893,-9.707661
1000.566406,-4.348836,-5.427825,-10.424330,-12.529006
1000.570312,-11.252140,-13.181724,-5.953873,-6.807158
1000.574219,-10.270378,-3.616475,-11.805474,-9.558372
1000.578125,-9.177453,-5.235191,-0.730940,-11.843391
1000.582031,-2.893111,-4.219068,-8.269292,-11.342250
1000.585938,-4.432362,-5.669987,-15.913660,-14.608755
1000.589844,-3.708653,-17.944251,-5.492033,-8.760590
1000.593750,-3.977407,-5.567620,-6.914373,-6.358052
1000.597656,-6.707320,-0.167598,-11.281202,2.703448
1000.601562,-1.734249,5.208964,-2.804023,-5.728425
1000.605469,-1.799269,6.040666,0.518772,3.346883
1000.609375,13.062757,11.160252,7.878185,13.204765
1000.613281,2.227760,13.489317,6.944476,12.422161
1000.617188,7.416644,12.538533,7.035738,13.313182
1000.621094,13.537378,10.398444,3.955456,15.293688
1000.625000,7.931482,15.462321,13.711087,10.685872
1000.628906,11.297801,9.928263,4.516146,8.092524
1000.632812,11.010917,5.128925,7.049603,10.314092
1000.636719,6.129160,8.828141,11.086396,4.672487
1000.640625,10.695866,3.583433,10.064438,0.272507
1000.644531,4.929823,2.368170,4.276032,-3.558952
1000.648438,-3.763981,-3.848552,1.830033,2.493445
1000.652344,-7.570031,2.220473,-6.685198,-4.585267
1000.656250,-5.603787,-5.834630,-6.087069,-1.060870
1000.660156,-5.185560,-7.994104,-15.032092,-2.714322
1000.664062,-9.278483,-5.068002,-7.342037,-4.550223
1000.667969,-7.795032,-17.684833,-5.799261,-7.824347
1000.671875,-8.837976,-16.063839,-12.573615,-10.278612
1000.675781,-11.300162,-5.401347,-3.554688,-20.779477
1000.679688,-7.093605,-11.823314,-2.546920,-12.301588
1000.683594,-16.235959,-8.409131,-0.943272,-13.910410
1000.687500,-4.996625,-13.559482,-8.348176,-5.927388
1000.691406,-3.142282,1.662217,-1.408096,-3.212163
1000.695312,4.158436,-3.590459,-0.578974,-1.492505
1000.699219,6.282881,3.415213,-0.028432,-2.668676
1000.703125,2.258586,8.224899,2.265037,5.382277
1000.707031,3.395800,5.310869,0.579302,1.604598
1000.710938,3.870481,6.451446,3.868622,5.726999
1000.714844,14.961725,7.955123,7.175730,5.907596
1000.718750,13.783354,7.497906,3.935837,6.749052
1000.722656,10.940840,8.391600,7.277157,1.978081
1000.726562,8.776419,8.741079,2.588705,6.634191
1000.730469,12.241724,7.717718,14.874945,0.139586
1000.734375,16.511077,-0.777849,10.527626,6.943267
1000.738281,-2.636082,8.863864,4.681329,7.724922
1000.742188,10.931553,-1.509407,-6.204508,5.135385
1000.746094,-2.716738,3.825358,0.649954,0.096337
1000.750000,0.509437,-0.044721,-0.780648,5.630974
1000.753906,4.943413,-1.231030,0.397889,-4.904841
1000.757812,-9.378179,-3.933412,-6.603137,-6.846745
1000.761719,-9.395259,-5.993797,-9.970760,-6.059712
1000.765625,-12.734912,-12.994835,-3.481620,0.031185
1000.769531,-5.109211,-14.078094,-2.442659,-8.473502
1000.773438,-10.196485,-6.735847,-4.583831,-10.762819
1000.777344,-14.269862,-13.073196,-10.724097,-9.790140
1000.781250,-4.456248,-13.569104,-5.265521,-9.796179
1000.785156,-11.092061,-15.057945,-12.646023,-11.397376
1000.789062,-5.455290,1.110008,-3.093424,-4.389170
1000.792969,-4.255698,-2.155089,-6.484356,-0.111317
1000.796875,-7.311529,-1.682574,0.036575,-1.687860
1000.800781,1.193576,-1.756433,8.387339,0.467268
1000.804688,5.722254,6.041663,-1.184290,4.149956
1000.808594,-0.352815,5.794930,4.309363,0.969524
1000.812500,15.143686,12.084824,10.710524,1.909275
1000.816406,10.112362,10.952591,7.680663,6.331188
1000.820312,10.080017,8.992772,6.106368,17.419867
1000.824219,13.206691,6.651267,14.429249,9.622051
1000.828125,5.835878,5.647833,6.875533,16.834423
1000.832031,11.298836,6.767489,5.776791,-0.490137
1000.835938,8.814856,11.755949,8.485271,7.130731
1000.839844,8.150039,3.877386,2.423180,5.612943
1000.843750,-11.980887,2.536664,7.867899,12.935065
1000.847656,0.787546,1.904882,-0.211954,1.445511
1000.851562,-2.803202,-4.099264,-3.178707,-0.005493
1000.855469,-4.615527,-3.862649,-1.153112,0.954565
1000.859375,1.532000,-5.274848,2.713193,-3.336660
1000.863281,-13.771765,-10.726981,-1.062121,-7.992278
1000.867188,-10.416720,-12.059247,-5.128966,-8.680359
1000.871094,-7.719007,-2.685498,-9.595803,-14.706891
1000.875000,-6.262289,-5.970184,-14.300511,-9.699026
1000.878906,-9.462715,-6.681038,-4.950600,-10.086396
1000.882812,-14.195231,-3.909868,-12.383634,-5.342885
1000.886719,-9.262019,-6.555492,-10.094415,-2.533396
1000.890625,-6.419167,-0.024767,-10.135629,-11.635372
1000.894531,3.417703,3.234252,1.742849,1.970253
1000.898438,-0.565382,-3.746787,3.230487,9.187912
1000.902344,-0.688946,10.398924,2.693890,9.103261
1000.906250,6.371197,1.437270,4.932450,-0.047220
1000.910156,6.454464,7.741206,1.758019,0.937234
1000.914062,9.194901,11.839685,9.288657,9.306856
1000.917969,4.197149,8.001511,4.628538,11.934710
1000.921875,-1.489185,2.245217,8.233057,-1.111227
1000.925781,5.110479,11.524835,14.289322,7.832798
1000.929688,11.390336,6.144699,6.536688,13.397461
1000.933594,6.149207,7.312821,5.730531,9.891069
1000.937500,9.021160,3.146864,7.223739,5.143503
1000.941406,8.333142,8.029087,12.458651,1.198117
1000.945312,7.601485,6.416060,11.907924,8.493275
1000.949219,-2.459435,1.930381,-3.562203,1.732025
1000.953125,-2.688970,-4.396954,-5.541368,1.681600
1000.957031,3.047593,-4.681414,-0.280229,-5.708659
1000.960938,-4.790769,-3.266650,-14.993671,1.790524
1000.964844,-7.562400,-7.880479,-9.755557,-12.605431
1000.968750,-3.583578,-9.125053,-6.495073,-7.487890
1000.972656,-12.130316,-16.445576,-10.624031,-1.776536
1000.976562,-14.130793,-9.261919,-9.656647,-7.684940
1000.980469,-9.855085,-8.185962,-7.322371,-8.276971
1000.984375,-3.790570,-2.717933,-4.188123,-8.322538
1000.988281,-8.381939,-2.829865,-6.119403,-7.656615
1000.992188,-0.470070,-1.699722,-0.464436,-1.558006
1000.996094,-0.949203,-1.504967,-0.578658,-1.837839
1001.000000,1.063111,5.175452,3.180904,3.551712
1001.003906,2.049720,3.014227,2.672254,0.149200
1001.007812,5.742563,5.777158,1.296432,9.904227
1001.011719,2.650211,6.108173,7.649368,2.176764
1001.015625,11.913213,-3.731844,7.904658,15.131221
1001.019531,6.210970,8.142223,21.212456,9.329988
1001.023438,12.990416,12.097074,16.655073,6.293573
1001.027344,3.292157,5.345125,3.409135,16.547174
1001.031250,8.297679,5.280956,4.196586,11.180402
1001.035156,8.579753,7.500400,7.279973,7.359928
1001.039062,8.495442,9.429207,8.483316,3.209083
1001.042969,0.805865,5.513116,4.183315,-5.567179
1001.046875,7.165227,1.426281,6.208588,7.516471
1001.050781,-5.856889,-2.102092,0.939007,-2.673658
1001.054688,3.453608,-8.097741,-2.192046,1.266953
1001.058594,-3.861209,-9.724427,-9.313172,-7.234870
1001.062500,-8.641173,-7.123170,-10.413604,-4.471893
1001.066406,-11.254339,-7.568459,-11.304669,-10.897265
1001.070312,-11.059075,-17.180962,-14.978802,0.174857
1001.074219,-12.550428,-17.283471,-1.481073,-6.684994
1001.078125,-11.729280,-9.630938,-11.058169,-10.808745
1001.082031,-8.243838,-10.525464,-16.731076,-11.992055
1001.085938,1.532675,-14.166033,-7.120568,-4.646607
1001.089844,0.991680,-4.297755,-4.461992,-2.841549
1001.093750,-8.171303,-8.963222,-6.416828,-2.804149
1001.097656,2.011705,1.123815,-10.281067,-6.352761
1001.101562,3.453677,2.431921,-2.752791,6.576813
1001.105469,3.424314,-2.842186,5.219217,0.433238
1001.109375,7.386935,5.532832,5.268556,4.402384
1001.113281,11.519714,12.729806,3.367171,11.079162
1001.117188,12.401169,7.938345,11.251526,9.371998
1001.121094,9.914134,9.435148,13.267749,6.552369
1001.125000,19.207783,6.846976,16.828738,10.785750
1001.128906,10.990891,16.085025,13.741292,5.880074
1001.132812,13.671609,10.319754,9.471644,11.480625
1001.136719,9.234877,6.309532,10.741276,5.194368
1001.140625,6.022472,7.982080,7.225284,5.739606
1001.144531,12.334994,1.393496,6.765042,5.711666
1001.148438,0.522340,-0.421555,-1.989890,0.303160
1001.152344,-1.273090,2.340156,3.962377,-2.136707
1001.156250,-3.326391,-6.197643,-5.007091,-5.233397
1001.160156,-11.398487,-5.538691,-13.137323,0.210981
1001.164062,-10.079247,-11.317260,-2.223626,-2.864257
1001.167969,-16.582119,-8.978790,-5.741095,-7.752774
1001.171875,-10.213619,-11.253479,-8.944816,-19.735017
1001.175781,-11.614231,-6.864089,-7.777822,-6.951058
1001.179688,-6.320295,-10.775075,-13.730198,-9.797068
1001.183594,-8.829239,-12.303161,-4.289279,-12.038306
1001.187500,-6.887059,-8.191596,-4.821099,-2.151198
1001.191406,-5.622303,-9.708245,-5.768820,-1.476129
1001.195312,-7.510105,-3.545805,-5.163713,-0.787572
1001.199219,-3.120584,-2.482827,-5.188897,5.164664
1001.203125,3.865821,2.868904,0.972775,-0.722738
1001.207031,6.707317,8.798071,0.451084,0.617713
1001.210938,3.953955,5.682611,3.853515,3.677044
1001.214844,13.437043,3.486384,11.086654,4.551097
1001.218750,8.360654,8.290013,10.239754,11.098707
1001.222656,6.460194,16.076747,8.414211,5.804696
1001.226562,3.974563,9.668675,12.976953,5.866926
1001.230469,14.277941,10.179483,19.965679,17.231859
1001.234375,2.775030,10.879690,10.803486,8.737823
1001.238281,8.266956,7.385800,9.890226,8.651105
1001.242188,6.588692,-0.010201,0.995912,0.270491
1001.246094,-7.051362,9.919990,4.654056,-1.461897
1001.250000,-0.953926,5.014818,1.454659,-2.433247
1001.253906,0.828326,-4.774248,-5.343026,-5.633769
1001.257812,1.148732,-3.573614,-2.755377,-5.016081
1001.261719,-9.963905,-11.081079,-5.150507,-2.101608
1001.265625,-7.418845,-4.214867,-13.793590,-8.304166
1001.269531,-12.386124,-18.998792,-11.194692,-12.797499
1001.273438,-10.032072,-12.285689,-6.745049,-12.075740
1001.277344,-8.392682,-8.714582,-8.122198,-7.668257
1001.281250,-5.535900,-7.750313,-8.889325,-11.735827
1001.285156,-8.130292,-7.258937,-13.331233,-6.393206
1001.289062,-4.418513,-8.191591,-3.080864,-2.179450
1001.292969,-2.490611,-12.790872,-6.911000,-3.275578
1001.296875,-10.652437,3.759026,-5.893825,-3.651798
1001.300781,-1.450878,-0.415567,0.849618,4.473942
1001.304688,3.749246,2.152853,3.233970,-2.269410
1001.308594,-0.453881,4.502130,3.675999,7.915454
1001.312500,11.381823,9.315981,10.069056,5.629831
1001.316406,2.589776,5.736916,-1.822793,12.251818
1001.320312,0.746329,18.404071,15.564572,16.048722
1001.324219,10.337397,6.159494,13.660780,13.493344
1001.328125,9.218280,22.941984,10.080567,10.301426
1001.332031,17.162868,5.435937,3.314343,6.433093
1001.335938,9.079714,4.400163,8.944918,11.225745
1001.339844,12.295819,6.521290,1.358918,10.207998
1001.343750,1.021467,11.724335,7.192817,10.226478
1001.347656,0.488794,5.492534,1.640783,-0.742959
1001.351562,-5.178865,3.811017,3.988026,0.782646
1001.355469,-3.145806,-1.503435,-4.804135,-4.095479
1001.359375,-2.883604,-10.220670,-4.031143,-6.320504
1001.363281,-14.502079,-7.696989,-5.285700,-8.493174
1001.367188,-9.271212,-9.855377,-4.074453,-7.614044
1001.371094,-16.231516,-14.592108,-3.868461,-3.581411
1001.375000,-14.554306,-8.187333,-5.041764,-6.554046
1001.378906,-12.950715,-3.250226,-11.770159,-10.469570
1001.382812,-6.786328,-5.207924,-7.960884,-8.500613
1001.386719,-0.810157,-2.514576,-8.032198,-12.175770
1001.390625,-3.584297,-6.410376,-8.638477,-1.569980
1001.394531,-8.065736,-0.112050,2.288495,-4.114695
1001.398438,0.190766,-1.414064,-2.091699,1.742630
1001.402344,1.702470,3.689320,3.818825,11.276469
1001.406250,4.901022,1.600317,1.005745,8.511673
1001.410156,6.613642,12.505128,8.071432,9.564214
1001.414062,4.721379,10.602599,7.384392,7.224825
1001.417969,15.430325,12.015818,7.030631,6.655799
1001.421875,14.178125,7.321112,11.120030,14.148565
1001.425781,18.746847,6.815810,11.506627,10.806806
1001.429688,6.672900,5.391006,9.486290,14.293138
1001.433594,6.491915,14.644120,9.490400,9.942677
1001.437500,11.709367,1.938220,14.406729,5.825652
1001.441406,-2.354914,4.472519,6.617541,2.344051
1001.445312,2.650014,-0.803868,1.089665,-4.623798
1001.449219,-4.850675,3.023002,-1.936721,6.737273
1001.453125,-1.473652,-3.271328,1.338011,-3.641734
1001.457031,-6.172827,-2.665522,-4.292103,-8.388756
1001.460938,-10.898392,-4.441642,-10.037555,-6.664593
1001.464844,-5.505949,-13.022694,-3.355239,-5.857100
1001.468750,-16.380414,-11.418084,-2.325359,-7.060120
1001.472656,-9.026689,1.191079,-11.813974,-1.946180
1001.476562,-12.389554,-11.258365,-9.747507,-12.405957
1001.480469,-17.986101,-9.311988,-9.959639,-7.764641
1001.484375,-8.060249,-3.405600,-9.100139,-15.159496
1001.488281,-8.250321,-7.125675,-9.838504,-0.958029
1001.492188,-6.675699,-8.361499,-10.358848,-6.210378
1001.496094,0.449549,-0.898231,1.170574,-4.253754
1001.500000,1.377461,7.479790,3.357268,0.490268
1001.503906,2.467788,1.781855,-2.275952,-0.608257
1001.507812,-1.547103,7.748961,6.606269,1.171237
1001.511719,4.603337,1.277479,6.646382,10.384301
1001.515625,2.745086,12.785992,9.076032,4.544148
1001.519531,8.300991,10.344349,10.875534,7.501665
1001.523438,11.383562,10.286031,4.323548,12.177696
1001.527344,7.111707,12.969803,8.866928,12.552813
1001.531250,14.098527,14.421699,13.338134,9.549586
1001.535156,-5.291763,6.788065,6.118558,11.831390
1001.539062,9.305627,15.771504,9.413281,1.959405
1001.542969,3.312698,5.856156,0.300979,3.723021
1001.546875,4.050360,5.366053,-0.972351,-3.755357
1001.550781,-0.509159,-2.208008,0.866677,-2.731072
1001.554688,-11.869990,-3.762829,-3.878680,-8.177719
1001.558594,-9.990630,-6.617071,-4.824185,-8.759928
1001.562500,-12.300477,-3.980799,-1.144938,-7.999222
1001.566406,-10.021557,-7.307185,-11.482326,-12.574050
1001.570312,-8.610846,-8.175360,-13.577290,-9.431460
1001.574219,-4.580060,-13.362886,-11.624969,-13.247413
1001.578125,-10.112042,-7.557842,-5.163210,-10.251463
1001.582031,-6.531068,-12.936922,-12.707379,-7.771902
1001.585938,-10.831508,-9.480864,-9.048647,-5.839579
1001.589844,-3.088230,-6.307578,-3.922878,-11.003899
1001.593750,-5.940052,-5.205953,-5.833735,-1.758350
1001.597656,-5.615676,-1.823550,5.012943,-0.623276
1001.601562,-2.633563,1.116597,-3.328020,-3.717546
1001.605469,3.883101,6.026829,5.847441,1.866117
1001.609375,1.943256,0.232547,2.022609,2.533664
1001.613281,13.670097,2.658369,5.524665,3.378658
1001.617188,4.130035,8.601635,13.302694,8.761306
1001.621094,13.436011,13.536240,8.876015,17.481095
1001.625000,11.354762,7.136099,6.409958,11.628601
1001.628906,3.837674,8.632618,13.987274,13.251093
1001.632812,13.388174,9.628060,11.359020,7.226797
1001.636719,0.847685,-0.580768,8.190237,8.417203
1001.640625,2.537593,8.298109,-2.430651,0.908708
1001.644531,1.553702,9.732757,0.393062,-0.151161
1001.648438,0.150841,3.263618,3.046414,-0.525710
1001.652344,-0.080603,2.279902,0.215556,-0.119086
1001.656250,-9.294775,-8.795245,-2.086782,-0.834846
1001.660156,-10.722805,-0.702535,-12.725403,-9.348809
1001.664062,-8.701579,-5.331915,-2.181030,-6.970037
1001.667969,-9.082326,-12.353838,-14.137106,-10.561425
1001.671875,-9.126576,-14.275710,-11.669802,-10.529619
1001.675781,-9.554354,-9.351690,-10.853950,-11.206630
1001.679688,-7.429097,-17.187156,-8.019979,-10.306477
1001.683594,-7.831874,1.686049,-7.687158,-9.697413
1001.687500,-8.773810,-9.024527,-3.704436,-4.721511
1001.691406,-9.132469,-0.075406,-9.737307,-9.231014
1001.695312,-2.915929,-8.733829,1.416616,-3.107653
1001.699219,7.046229,1.122845,-4.974428,1.386060
1001.703125,-7.310874,0.355697,-3.346313,6.624927
1001.707031,6.930679,1.071083,8.468579,3.459697
1001.710938,8.295773,5.316183,3.098374,4.359369
1001.714844,10.901162,7.396639,9.609581,3.539540
1001.718750,9.395157,8.555031,4.125117,9.972207
1001.722656,5.886827,16.657519,8.215296,5.855464
1001.726562,16.364911,11.945069,12.005957,11.518229
1001.730469,9.038828,13.559884,9.459940,6.473971
1001.734375,4.916891,19.078038,8.767412,8.542652
1001.738281,3.615711,4.431946,10.551412,3.217500
1001.742188,-1.509596,-1.236507,5.079479,1.421923
1001.746094,0.547188,0.214529,-0.268874,1.876191
1001.750000,-2.109148,-0.799557,-3.608083,-1.125775
1001.753906,0.290619,-9.503770,-5.252360,-3.435188
1001.757812,-2.226216,-5.218259,-1.019657,-3.522246
1001.761719,-4.604994,-7.201485,-10.171512,-6.731058
1001.765625,-4.733400,-3.958776,-10.427883,-5.901542
1001.769531,-8.440621,-12.270869,-5.006600,-6.086446
1001.773438,-10.892315,-18.461530,-15.486980,-4.021309
1001.777344,-12.414078,-12.590647,-9.640720,-10.123625
1001.781250,-11.448570,-0.295487,-0.002566,-9.685890
1001.785156,-20.654178,-9.302000,-9.684326,-9.302987
1001.789062,-10.517776,-8.674837,-1.465051,-5.813528
1001.792969,-2.631728,-1.541529,-1.927501,2.916129
1001.796875,-0.127988,-10.204533,-5.149829,5.326950
1001.800781,-0.768597,0.385501,2.358085,-2.079691
1001.804688,-5.899280,5.869428,5.321946,9.148549
1001.808594,3.017073,5.015871,6.040008,6.454995
1001.812500,13.475464,6.888242,6.566568,11.045730
1001.816406,2.716797,9.670266,15.994826,10.443852
1001.820312,-3.695350,7.824482,4.864142,11.729073
1001.824219,3.317054,12.485339,14.505243,4.202531
1001.828125,11.064731,11.607003,8.507448,7.569803
1001.832031,3.780046,7.349062,11.165665,5.409765
1001.835938,4.959418,5.785839,11.248740,5.195172
1001.839844,9.659283,4.274987,7.423812,3.933269
1001.843750,4.909940,4.490062,3.573436,0.170066
1001.847656,-0.202759,-0.787096,-1.925172,3.397498
1001.851562,-0.345507,-3.529822,4.016385,-9.185363
1001.855469,-1.792131,-1.377247,0.955779,-6.057401
1001.859375,-3.655276,-4.654697,-7.232191,-9.961730
1001.863281,-11.875322,-10.306895,1.074548,-11.902118
1001.867188,-0.341262,-13.076227,-5.140346,-2.569640
1001.871094,-9.873699,-10.498847,-3.542287,-6.995491
1001.875000,-11.269122,-12.449067,-9.176548,-13.719655
1001.878906,-12.044922,-13.357078,-1.410303,-5.838723
1001.882812,-9.878520,-6.604919,-9.538804,-5.736528
1001.886719,-9.612062,-4.139868,-5.745582,-9.933493
1001.890625,0.522404,-6.670915,-10.995311,-7.917798
1001.894531,-7.785499,-1.631442,-0.824717,-2.192038
1001.898438,-2.137172,-4.096246,-6.060788,-3.442669
1001.902344,-3.376103,-1.533137,5.457578,0.321488
1001.906250,-0.457399,8.605441,5.672736,2.940102
1001.910156,6.941879,2.261080,9.962806,8.188180
1001.914062,6.596960,2.107103,7.761514,9.463219
1001.917969,3.545840,7.517665,9.516349,21.490121
1001.921875,7.081833,7.687607,8.194553,7.543341
1001.925781,11.921475,11.880624,8.822791,13.682536
1001.929688,5.833829,9.843012,1.052572,13.101943
1001.933594,12.319624,8.999804,0.442397,4.421172
1001.937500,4.646721,4.186472,4.981145,6.586850
1001.941406,8.338580,5.285794,5.734356,6.327915
1001.945312,11.258917,5.448322,4.255193,6.193233
1001.949219,2.134101,0.107228,9.956608,4.570527
1001.953125,-4.075114,-2.126151,-3.384069,-3.893592
1001.957031,-3.491660,3.049988,-3.208594,-3.190035
1001.960938,-4.868324,-0.452265,-8.703805,-4.404897
1001.964844,-7.101762,-6.839359,-12.150503,-10.393885
1001.968750,-10.685315,-8.239411,-7.638643,-13.727698
1001.972656,-15.671584,-4.038844,-8.243671,-5.842452
1001.976562,-7.703603,-5.223562,-7.910284,-3.673192
1001.980469,0.438112,-5.011681,-16.717164,-3.302926
1001.984375,-3.496705,-19.052573,-7.966713,-3.156481
1001.988281,-12.951967,-6.955972,-11.088824,-3.909253
1001.992188,-3.130575,-3.932647,-0.408110,-2.424581
1001.996094,-0.909200,-8.682256,-3.843225,-9.588823
1002.000000,0.250350,1.677061,4.288441,3.811415
1002.003906,6.456679,6.226452,0.724072,5.367006
1002.007812,8.424039,6.014116,2.876522,0.455051
1002.011719,10.271483,2.164177,1.981454,4.674500
1002.015625,6.045638,6.206957,10.153015,4.843264
1002.019531,11.704342,6.082840,16.031848,4.249313
1002.023438,4.580769,9.492222,9.263395,12.566480
1002.027344,11.796914,2.258678,11.056413,9.042650
1002.031250,7.382551,13.768636,11.257649,11.496606
1002.035156,5.997165,10.582364,14.524231,13.917592
1002.039062,-0.065658,3.361899,9.850366,2.153320
1002.042969,4.701826,-3.009021,7.478195,1.689504
1002.046875,7.389582,1.408375,1.395671,0.065690
1002.050781,2.217284,-3.539370,-0.893446,-1.704099
1002.054688,-2.584406,1.853604,-5.369370,-0.630410
1002.058594,-3.708451,-0.519708,-4.102942,-4.706604
1002.062500,-16.450438,-3.387899,-11.212608,-5.574768
1002.066406,-3.083248,1.510261,-9.189616,-12.642645
1002.070312,-7.058810,-12.089302,-10.160628,-6.612729
1002.074219,-17.215968,-8.111536,-9.674790,-10.260284
1002.078125,-9.877087,-14.463884,-8.542056,-13.177570
1002.082031,-5.134261,-3.817801,-7.216272,-9.269284
1002.085938,-3.474671,-9.868121,-9.475978,-5.608757
1002.089844,-4.567749,-0.723186,0.443065,-10.381657
1002.093750,-7.462480,-6.067750,-2.164712,-3.561407
1002.097656,2.255621,-3.150281,-4.131470,-4.939696
1002.101562,4.648158,-0.338187,7.377421,1.014124
1002.105469,2.378130,-0.979333,1.738676,0.235244
1002.109375,2.489269,5.332449,-1.314130,7.962325
1002.113281,4.208324,4.367430,5.294229,13.393551
1002.117188,19.550685,5.692106,8.436996,13.098298
1002.121094,14.871735,3.855358,12.509052,11.983421
1002.125000,9.586426,10.349984,5.362896,7.771836
1002.128906,5.392962,2.996602,9.609280,9.601308
1002.132812,15.493844,6.219233,3.751168,5.186540
1002.136719,4.801378,9.186543,9.759445,10.024299
1002.140625,7.012976,11.325105,3.195402,8.884513
1002.144531,16.363438,1.563319,-0.064479,0.524446
1002.148438,-1.121627,-0.113854,-2.183326,4.913939
1002.152344,-0.695800,-1.698108,3.145262,4.802830
1002.156250,-6.625068,-3.075172,-4.692697,-3.032942
1002.160156,-11.267142,-1.899937,-7.907349,2.326420
1002.164062,-8.986703,-4.541633,-4.140552,-3.864067
1002.167969,-4.892022,-11.570736,-13.280348,-11.853881
1002.171875,-5.879021,-15.126471,-5.342036,-13.051615
1002.175781,-10.316627,-13.610186,-10.049160,-13.212241
1002.179688,-10.020647,-7.950195,-11.979248,-8.728528
1002.183594,-6.073911,-17.557900,-8.686585,-8.264052
1002.187500,-5.835489,-0.885733,-9.043222,-14.261643
1002.191406,-0.819675,-2.363504,-7.666168,-7.910967
1002.195312,-5.931926,0.001326,-6.791054,-1.249588
1002.199219,0.662220,2.610052,1.607308,1.981958
1002.203125,-1.652440,1.691266,-4.003912,10.199285
1002.207031,3.473248,-4.450651,5.138977,5.901798
1002.210938,2.277228,-0.901680,2.784460,8.886958
1002.214844,6.567436,5.913868,10.561181,1.339592
1002.218750,14.262044,14.265772,4.942451,4.940512
1002.222656,7.219774,8.730240,12.014250,10.148332
1002.226562,5.624249,12.366545,12.109141,8.617242
1002.230469,9.312367,13.032473,10.775665,5.895952
1002.234375,10.957549,4.417352,7.114918,7.450668
1002.238281,7.913900,8.404961,7.912723,3.625029
1002.242188,1.857012,1.301742,8.872552,2.144767
1002.246094,-9.955642,5.800087,12.354773,1.078135
1002.250000,-6.628365,-1.161361,7.363035,1.239300
1002.253906,1.718748,-8.604757,-11.350463,-2.460927
1002.257812,-12.886803,-7.088944,-5.804330,-8.623958
1002.261719,-5.145832,-7.691199,-10.506036,-8.610665
1002.265625,-11.581239,-3.384539,-9.834272,-14.551502
1002.269531,-6.683913,-11.146596,-12.295242,-9.630223
1002.273438,-7.167027,-9.699455,-4.321975,-15.542964
1002.277344,-11.872100,-3.287277,-2.604331,-11.430424
1002.281250,-14.082619,-13.598947,-12.808217,-11.430939
1002.285156,-5.335037,-1.282920,-10.268083,-15.011387
1002.289062,-4.852511,3.279059,-1.802961,-7.847227
1002.292969,-3.071199,-0.960804,-1.926549,-7.087901
1002.296875,1.936399,-3.949946,-3.908700,0.928290
1002.300781,2.269122,-1.741809,-2.736278,2.034772
1002.304688,0.828717,2.462039,0.740601,-2.933628
1002.308594,4.018284,8.798910,8.895116,5.128661
1002.312500,4.651747,6.783402,3.087192,2.131533
1002.316406,5.826091,9.812709,6.144402,2.128671
1002.320312,9.072570,10.456265,7.199627,20.977933
1002.324219,16.405503,4.940549,13.647122,11.603129
1002.328125,8.404985,14.734754,16.118934,6.791124
1002.332031,7.231719,6.904303,12.286646,8.621564
1002.335938,12.394982,7.258150,6.717830,8.986320
1002.339844,11.683951,8.111286,11.076521,5.160992
1002.343750,3.410796,7.385589,5.916644,8.070656
1002.347656,3.538029,-3.222186,2.567390,3.493491
1002.351562,-1.372227,-0.378594,-0.469878,1.804451
1002.355469,-8.348071,1.585621,-0.693416,-4.067837
1002.359375,-8.294916,-8.489563,-10.213543,-8.682197
1002.363281,-3.783531,-5.742688,-7.904625,-5.132809
1002.367188,-14.240570,-4.683129,-9.373971,-9.869958
1002.371094,-14.505614,-12.041212,-13.053715,-3.736966
1002.375000,-3.181591,-5.998077,-9.945017,-12.173696
1002.378906,-7.454637,-7.868414,-8.493152,-13.387604
1002.382812,-10.019501,-11.392999,-11.292137,-11.476675
1002.386719,-2.926517,-9.697348,-3.251248,-2.094622
1002.390625,-5.096553,-0.084064,-9.703409,-9.697482
1002.394531,-3.272951,-0.747661,-0.699954,-4.134480
1002.398438,6.378753,-1.962785,5.448978,-6.174599
1002.402344,8.547286,-4.525892,-2.639238,4.187980
1002.406250,3.892366,-0.625523,3.078973,1.047657
1002.410156,5.474225,0.928879,10.374106,-0.193346
1002.414062,7.629210,8.680464,5.344237,10.968925
1002.417969,13.997013,9.184450,9.988338,4.854264
1002.421875,12.359026,12.061216,4.729424,8.957777
1002.425781,10.303541,13.388720,4.845424,12.923017
1002.429688,13.167722,8.106707,16.150372,12.757619
1002.433594,9.212998,-2.140119,13.355270,15.494945
1002.437500,5.911551,4.740383,7.032187,0.992215
1002.441406,4.575415,5.907943,8.758213,7.889528
1002.445312,-1.090400,-0.995857,7.559881,-0.723518
1002.449219,-4.911003,1.214444,1.261511,4.308238
1002.453125,-0.055672,-1.210335,-5.419024,-2.055259
1002.457031,-8.550309,-5.389613,-10.017470,-0.088679
1002.460938,-10.734442,-4.762214,-13.112929,-4.934680
1002.464844,-7.687972,-8.472087,-7.352796,-9.052712
1002.468750,-8.387615,-14.388684,-8.463936,-13.205955
1002.472656,-2.471808,-11.098108,-12.368336,-14.574738
1002.476562,-10.395945,-3.430423,-12.373006,-12.014209
1002.480469,-0.358112,-13.672302,-4.207987,-8.185935
1002.484375,-5.497175,-13.348800,-9.501811,-2.942660
1002.488281,-8.782699,-0.661905,-8.084537,-11.310040
1002.492188,-5.151927,-5.366190,0.023017,2.702439
1002.496094,-6.145928,-6.005940,-5.945038,-1.336881
1002.500000,-1.331809,2.613439,-4.692829,0.767422
1002.503906,2.367450,7.352056,2.096929,-0.722832
1002.507812,3.038171,4.931518,7.378402,7.660001
1002.511719,-0.646015,0.886055,13.092828,8.962404
1002.515625,6.733485,4.352075,12.190992,4.504699
1002.519531,6.623016,3.769059,15.878939,5.928859
1002.523438,7.790314,15.420945,12.959316,11.600974
1002.527344,7.949519,8.930269,7.277418,10.900097
1002.531250,10.494600,3.792661,12.711826,11.088346
1002.535156,-0.427633,7.518469,8.117902,6.072580
1002.539062,5.174550,4.285043,8.753468,7.057889
1002.542969,7.390255,4.163605,2.653855,3.744773
1002.546875,3.553660,-0.399101,6.374429,7.808423
1002.550781,0.076118,4.990784,10.007313,-3.088385
1002.554688,-0.774094,-2.244328,-4.527660,-3.313055
1002.558594,-5.192095,-4.177083,-6.009331,-3.118455
1002.562500,-6.109622,-8.604747,-12.281652,-5.024662
1002.566406,-8.702324,-6.497813,-10.349755,-12.254321
1002.570312,-14.080825,-10.425732,-11.806517,-5.593418
1002.574219,-12.321772,-11.288500,-8.248760,-10.872067
1002.578125,-4.052457,-3.008719,-12.540658,-10.650670
1002.582031,-2.690044,-0.757538,-9.228079,-14.231601
1002.585938,-11.583553,-8.498166,-12.074007,-6.786242
1002.589844,-9.813622,-9.975177,-10.974436,-5.190321
1002.593750,-10.478243,-1.551757,-8.085512,-9.489880
1002.597656,4.783734,-9.764471,-2.689053,1.155155
1002.601562,5.023597,4.115588,7.940285,2.393898
1002.605469,6.601944,11.158099,0.493059,4.562037
1002.609375,9.101072,13.260011,4.738373,5.085521
1002.613281,8.073527,3.847314,9.759809,8.102629
1002.617188,3.943781,7.368975,3.706829,12.056100
1002.621094,8.209944,3.923160,17.392856,9.451904
1002.625000,8.485936,8.568452,11.564477,10.259574
1002.628906,6.860288,9.048710,7.462570,9.477440
1002.632812,9.053785,4.758909,10.435979,10.958339
1002.636719,1.678139,15.867183,4.573358,4.878931
1002.640625,13.325294,6.756899,1.647958,10.113136
1002.644531,6.921123,-2.727301,5.897742,2.331828
1002.648438,7.676063,1.815026,2.002030,9.808959
1002.652344,-5.163704,0.852872,-9.034748,-2.655086
1002.656250,0.460429,-6.514847,-6.680891,-2.526007
1002.660156,-7.728384,-1.131915,-2.974053,-10.863775
1002.664062,-11.445308,-10.009044,-2.716368,-10.231502
1002.667969,-2.711397,0.048409,-14.617868,-10.115397
1002.671875,-19.719553,-5.263786,-10.343254,-9.335895
1002.675781,-13.747663,-7.969363,-11.790990,-6.552466
1002.679688,-8.253816,-3.595316,-13.393582,-4.061186
1002.683594,-8.059273,-8.878369,-0.887287,-3.161419
1002.687500,-7.713433,-9.404883,-1.765612,-4.598257
1002.691406,2.515835,-3.850531,-7.686094,-6.526955
1002.695312,-0.879409,0.913964,-1.810721,-3.311277
1002.699219,-0.952881,-1.553943,-0.786666,-1.828660
1002.703125,-5.871251,-1.269636,-0.170720,0.749773
1002.707031,5.539084,4.375348,6.265944,8.007095
1002.710938,0.638028,6.706894,13.219575,4.999229
1002.714844,11.176292,6.851711,7.202507,2.691466
1002.718750,10.523446,6.922864,13.300639,12.774254
1002.722656,-2.030134,11.805229,9.891035,20.298574
1002.726562,12.376438,4.624401,16.237947,7.750491
1002.730469,20.482330,10.060805,11.189288,6.204004
1002.734375,3.859899,10.179316,6.841554,8.109259
1002.738281,8.843831,6.911383,4.028101,12.731755
1002.742188,-1.033285,10.072127,5.904907,-0.103118
1002.746094,-0.710004,3.095824,0.976972,-0.315455
1002.750000,1.292907,-2.771792,4.546846,0.115425
1002.753906,-6.551511,-3.364751,-6.375995,-0.556972
1002.757812,-1.406016,-2.132595,-8.959959,-3.225531
1002.761719,0.756862,-15.746536,-4.427622,-5.314961
1002.765625,-16.147392,-3.256501,-3.947883,-7.908222
1002.769531,-17.072448,-24.385444,-4.442434,-13.616889
1002.773438,-5.256901,-9.231266,-8.684142,-20.351101
1002.777344,-12.333366,-3.720789,-10.099374,-7.318263
1002.781250,-9.693416,-7.414969,-17.156407,-12.676802
1002.785156,-4.944392,-16.908576,-7.607334,-5.634969
1002.789062,-12.019837,-4.877981,-7.073039,-5.935074
1002.792969,-4.316386,1.803922,-2.359041,-2.997040
1002.796875,-5.467517,-1.912972,-6.709901,-7.749925
1002.800781,0.068762,-7.204949,-1.975377,-0.792520
1002.804688,4.486181,-1.536431,-3.796485,3.882581
1002.808594,1.421164,5.065197,13.689271,8.003775
1002.812500,7.222822,7.617170,4.118679,2.250628
1002.816406,13.430513,5.796737,3.149529,5.620584
1002.820312,10.979577,10.501940,10.479977,7.647383
1002.824219,9.699779,11.112029,10.669604,6.157122
1002.828125,6.462876,11.345001,9.485738,10.573152
1002.832031,5.911237,7.719729,8.794016,5.548162
1002.835938,11.769522,4.779706,3.407641,1.616712
1002.839844,3.068494,11.309852,3.519418,10.221936
1002.843750,3.944791,-2.606934,0.534822,3.880694
1002.847656,-0.902370,3.144729,-2.345185,2.586779
1002.851562,1.850610,-3.301776,-8.783479,2.635942
1002.855469,-8.490894,-5.391784,2.725403,3.254891
1002.859375,-6.454990,-1.928236,-3.304519,-9.450280
1002.863281,-6.830209,-9.976919,-5.538927,-1.107380
1002.867188,-2.578952,-4.745697,-14.343189,-13.246316
1002.871094,-11.580213,-10.900335,-6.000213,-9.315624
1002.875000,-10.224390,-11.683056,-15.740537,-17.416685
1002.878906,-6.760059,-13.178038,-11.154862,-10.066099
1002.882812,-16.355313,-9.686000,-16.426246,-6.442528
1002.886719,-14.256603,-6.246808,-4.425023,-5.892155
1002.890625,-4.177830,3.062412,-2.134634,-0.908138
1002.894531,-2.433636,-4.997964,-0.505476,-2.387005
1002.898438,0.559832,-3.121945,-0.713188,3.006969
1002.902344,4.956358,6.450312,6.204291,1.829344
1002.906250,3.460410,0.356281,1.340686,2.859542
1002.910156,5.664773,6.623693,7.996741,0.442485
1002.914062,2.729976,9.660470,7.860485,2.199249
1002.917969,11.559740,15.369769,5.837886,10.980194
1002.921875,10.557598,13.425313,8.734407,8.441064
1002.925781,0.804112,6.601332,9.637211,9.500818
1002.929688,7.908569,3.437172,4.342113,9.443014
1002.933594,5.207894,10.025864,1.927738,5.698537
1002.937500,7.207962,5.117247,4.980040,11.669049
1002.941406,4.329485,8.730618,5.193067,-0.697465
1002.945312,-1.161740,4.339524,0.011119,-4.032950
1002.949219,-2.528123,2.746920,2.313099,5.008836
1002.953125,1.133575,-6.592780,-2.157397,-3.970785
1002.957031,-9.136032,-4.143130,-1.808914,-4.377187
1002.960938,-3.792512,0.210426,-4.508133,-2.696006
1002.964844,-8.091085,-5.926552,-12.292868,-15.693915
1002.968750,-15.484580,-14.047327,-11.484507,-6.762174
1002.972656,-18.968501,-6.186884,-6.772516,-10.754162
1002.976562,-5.449760,-9.375497,-10.988897,-16.195411
1002.980469,-5.425857,-7.016941,-8.858753,-4.048486
1002.984375,-8.073816,-12.944272,-11.562340,-9.789547
1002.988281,-7.272890,-7.774323,-7.358916,-13.967429
1002.992188,-2.118740,-3.172752,-4.453129,-5.725581
1002.996094,-3.527674,0.252533,-5.030131,0.671989
1003.000000,-3.828295,-0.226292,0.581844,-5.781328
1003.003906,-0.820423,1.131789,6.977298,0.266247
1003.007812,11.111037,1.546855,0.758511,8.475045
1003.011719,10.815953,0.695707,7.409956,7.993658
1003.015625,14.487212,4.305379,8.458437,2.286283
1003.019531,10.641457,4.521299,6.299933,8.605254
1003.023438,12.954714,9.667703,8.583793,12.160057
1003.027344,17.618068,17.185983,10.180041,10.295111
1003.031250,9.312925,8.904135,9.052155,12.666771
1003.035156,10.977499,9.001214,1.787320,10.208155
1003.039062,4.571008,10.220642,4.460185,4.913454
1003.042969,-0.781874,4.810652,6.628359,3.976012
1003.046875,3.406804,8.771882,1.934112,5.612872
1003.050781,2.652556,6.621443,-0.482818,0.679202
1003.054688,4.314911,-3.395066,-2.516260,-0.643957
1003.058594,-2.791605,-8.199220,0.302430,-4.698507
1003.062500,-8.865847,-5.722615,-12.612181,-7.677996
1003.066406,-4.281882,-3.104560,-10.718516,-11.879249
1003.070312,-8.391114,-12.663084,-16.658917,-11.912417
1003.074219,-10.492465,-5.893613,-10.562807,-1.614428
1003.078125,-3.156402,-5.320288,-8.626229,-10.323853
1003.082031,-14.995894,-7.423774,-7.519949,-11.364131
1003.085938,-3.626950,-4.920914,-0.352163,-4.902762
1003.089844,-3.892991,-3.270834,-12.695990,-5.734340
1003.093750,-1.040743,-4.162573,-13.425875,-7.204373
1003.097656,-0.756853,3.224130,3.312674,4.112711
1003.101562,6.050098,6.437974,1.955716,4.264845
1003.105469,-2.708403,8.390447,-1.605889,3.986353
1003.109375,10.620673,9.107162,4.708896,13.238362
1003.113281,9.372340,0.614398,5.989637,13.348399
1003.117188,1.718694,9.772321,8.777811,10.594595
1003.121094,18.252545,-2.096843,9.637044,11.642506
1003.125000,7.277046,7.674682,7.135157,3.951201
1003.128906,16.565804,6.641790,9.493585,12.013376
1003.132812,12.230631,8.786402,2.648933,12.149471
1003.136719,5.903461,9.826952,5.450675,2.846869
1003.140625,10.026294,10.068054,3.551188,4.641500
1003.144531,1.363997,8.581587,-0.438168,4.570234
1003.148438,-1.498656,-2.014127,-4.306577,1.376956
1003.152344,-0.964947,-3.368558,-1.210483,2.090988
1003.156250,-5.263116,-6.093831,-3.902233,-3.928917
1003.160156,-9.334960,-5.375752,0.925611,-2.949070
1003.164062,-3.415021,-4.075933,-15.629263,-5.422191
1003.167969,-5.347219,-2.588045,-4.547792,-20.972354
1003.171875,-4.312918,-9.233167,-12.262713,-8.348298
1003.175781,-9.886743,-3.443812,-5.166258,-6.003596
1003.179688,-12.129216,-14.075907,-16.740182,-11.476935
1003.183594,-7.056876,-10.053603,-11.319165,-8.718238
1003.187500,-6.527342,-9.826215,-4.830345,-4.443993
1003.191406,-9.062021,0.018356,-2.831333,-5.794596
1003.195312,-4.617127,-7.772489,0.790954,-2.707002
1003.199219,5.146047,1.572731,-4.555282,0.141653
1003.203125,3.285186,1.466525,0.008571,0.366801
1003.207031,5.285056,1.543093,-1.372092,5.139217
1003.210938,4.794623,8.766776,-1.376892,3.379800
1003.214844,6.715937,10.049791,5.406742,9.585220
1003.218750,9.010587,-1.790620,13.066348,4.091226
1003.222656,3.763951,11.762771,8.591208,9.618431
1003.226562,10.608986,10.199941,10.178288,2.952594
1003.230469,11.797097,9.201458,12.588772,13.866279
1003.234375,5.630352,8.169066,6.338503,4.007470
1003.238281,6.985574,10.715717,7.926300,1.275218
1003.242188,5.396272,1.102824,-0.244204,5.263827
1003.246094,2.722641,-8.691614,1.640084,-4.056249
1003.250000,4.168093,-0.374948,5.371537,-0.499100
1003.253906,-7.773253,-3.014596,-3.986950,0.339907
1003.257812,-4.221111,-4.987129,-8.308148,-4.639364
1003.261719,0.484433,-6.835061,-4.364311,-5.467155
1003.265625,-7.644911,-1.416533,-8.481041,-9.777752
1003.269531,-6.623399,-11.557354,-11.180680,-19.115190
1003.273438,-10.178152,-15.432643,-18.113244,-12.136319
1003.277344,-8.586452,-18.584447,-8.089999,-9.274573
1003.281250,-8.197874,-9.577855,-4.629601,-6.472558
1003.285156,-16.114850,-15.735919,-8.232272,-7.295858
1003.289062,-5.695333,-6.460635,-5.162321,-2.044370
1003.292969,0.038453,-8.699573,-7.350902,-9.761843
1003.296875,-2.994717,-1.529276,4.577567,-1.003281
1003.300781,4.526752,-3.450596,-4.203933,3.281686
1003.304688,5.637556,4.141960,7.155278,13.216876
1003.308594,-0.439232,2.985278,7.172010,2.568720
1003.312500,11.727790,4.352805,9.883962,6.022354
1003.316406,2.760039,15.738907,7.705399,4.549187
1003.320312,8.151193,8.719206,18.111472,16.209008
1003.324219,9.669020,10.848259,10.265588,17.951700
1003.328125,12.594599,12.814418,8.739245,4.535913
1003.332031,11.000358,11.941514,6.455955,6.675451
1003.335938,7.538276,21.795627,11.117169,11.193335
1003.339844,13.129481,-3.199598,7.142672,8.023216
1003.343750,7.203581,10.815848,2.853938,3.896129
1003.347656,6.110181,-1.256812,7.649447,2.180554
1003.351562,5.933461,-9.724040,-2.819807,-0.376812
1003.355469,-3.831923,-3.747326,1.325958,1.527310
1003.359375,-0.867256,-5.204319,-6.136066,-0.878930
1003.363281,-6.647244,-8.452035,-0.904189,-4.961519
1003.367188,-6.140127,-7.242336,-11.308051,-11.432635
1003.371094,-9.771500,-14.878227,-10.248682,-9.513401
1003.375000,-7.019338,-10.548283,-12.084109,-13.819813
1003.378906,-14.517021,-15.437834,-14.545404,-6.901619
1003.382812,-6.846171,-11.853805,-7.097501,-13.380347
1003.386719,-4.299415,-7.457937,-7.001384,-7.252895
1003.390625,-8.775674,-9.014509,-5.072039,-3.486411
1003.394531,-4.560793,-4.428049,-0.735954,-2.206219
1003.398438,2.990958,-1.519794,-2.571431,3.420314
1003.402344,-2.130821,-0.152672,-2.238178,7.571718
1003.406250,7.418977,2.952359,5.906260,-2.464852
1003.410156,9.546191,5.701595,0.251558,2.809129
1003.414062,2.876901,-2.522440,13.127365,-0.365504
1003.417969,13.359122,8.940053,5.283295,12.554389
1003.421875,6.011542,12.781253,6.993759,10.613863
1003.425781,9.964584,12.460927,9.509759,16.382184
1003.429688,16.497107,10.657592,1.753825,9.201789
1003.433594,7.070911,12.695176,9.891999,12.465307
1003.437500,-2.893572,7.998235,15.444939,5.339591
1003.441406,1.000594,3.869429,7.149777,0.975862
1003.445312,0.438782,-4.237970,1.297531,5.522028
1003.449219,2.077936,5.890535,-0.648119,-4.765345
1003.453125,-5.025722,1.227551,-14.428452,5.020085
1003.457031,-1.926904,-4.032809,-4.681992,-7.903022
1003.460938,-11.565764,-4.965223,-4.881920,-6.488715
1003.464844,-6.655132,-12.109377,-8.814640,-9.218331
1003.468750,-12.700203,-11.283986,-6.304129,-16.156089
1003.472656,-10.675754,-8.322947,-9.246865,-5.285411
1003.476562,-8.067945,-7.979743,-10.098275,-12.280414
1003.480469,-4.216571,-12.506805,-7.288798,-11.896302
1003.484375,-6.628803,-6.394287,-5.853563,-5.054309
1003.488281,-10.156065,-5.436891,-11.302919,-9.191052
1003.492188,-2.865914,-8.320623,-6.825397,-9.570757
1003.496094,-0.896094,-8.696826,0.552794,-0.081369
1003.500000,2.305561,0.254123,4.318808,4.621365
1003.503906,8.054610,-4.247628,1.126882,5.742126
1003.507812,4.709702,9.542771,9.648917,4.887380
1003.511719,9.193610,8.351084,9.705599,8.630357
1003.515625,9.459956,12.479227,8.536157,12.161402
1003.519531,7.892111,13.529308,11.726755,8.248964
1003.523438,16.764288,5.429599,8.170995,11.028971
1003.527344,5.380436,16.033113,9.098235,14.931379
1003.531250,15.571031,5.990556,11.318425,12.472868
1003.535156,4.597091,15.950277,8.411067,4.189562
1003.539062,16.234377,10.934823,3.042537,9.790350
1003.542969,8.401551,3.858305,3.908149,2.395046
1003.546875,-0.260676,-0.695077,-2.982243,4.702572
1003.550781,0.009044,5.473521,-1.848637,-1.257314
1003.554688,-1.202021,1.082181,-0.966929,-3.124533
1003.558594,-3.806627,-5.268640,-0.805984,-5.346355
1003.562500,-6.855119,-7.507741,-2.474731,-11.698100
1003.566406,-14.760767,-6.292052,-6.991609,-8.301693
1003.570312,-3.343281,-6.875362,-15.330522,-10.565730
1003.574219,-4.053486,-8.481903,-7.860548,-8.957612
1003.578125,-6.194536,-19.705043,-6.640368,-4.590309
1003.582031,-9.152793,-10.268065,-9.270134,-9.663436
1003.585938,-3.533848,-10.128336,-7.549397,-7.600085
1003.589844,-12.064546,-3.088633,-3.043317,-6.681538
1003.593750,-6.621799,-0.858057,-6.877688,-8.865210
1003.597656,-1.590626,1.817545,-0.392542,-3.514958
1003.601562,-4.926613,4.987740,-4.291864,8.401573
1003.605469,1.976939,2.806839,4.776563,3.964036
1003.609375,1.970900,9.285212,5.196844,12.916118
1003.613281,12.974568,4.824049,9.920517,5.799233
1003.617188,10.315625,5.002215,6.575538,14.412625
1003.621094,12.788172,13.284243,11.282740,13.086648
1003.625000,8.683194,5.389294,13.589203,18.952765
1003.628906,14.421720,15.878541,10.132812,6.663284
1003.632812,5.193763,5.615643,11.916840,10.201464
1003.636719,4.836482,2.633200,7.939387,5.524870
1003.640625,8.904704,5.450975,3.536976,7.391688
1003.644531,7.332815,-2.725043,-1.532582,4.852747
1003.648438,5.582780,-2.884573,3.738794,-1.851207
1003.652344,-1.433503,-6.296279,-9.112063,3.568952
1003.656250,-3.167283,-0.318513,-4.872257,-4.770041
1003.660156,-7.538511,-7.310527,-7.702328,-2.373658
1003.664062,-6.892906,-10.100834,-5.010649,-6.529895
1003.667969,-7.287390,-8.120046,-9.895608,-4.209933
1003.671875,-13.825468,-12.525884,-7.467164,-8.430308
1003.675781,-11.611782,-8.910250,-7.982565,-11.856398
1003.679688,-7.095891,-9.726799,-5.499975,-14.436134
1003.683594,-1.482570,-7.637795,-10.433741,-12.691415
1003.687500,-6.577753,-0.867229,-6.273869,-18.892571
1003.691406,-13.896053,-7.087785,-0.160984,-3.334036
1003.695312,-7.548958,-7.683667,0.257661,-10.058027
1003.699219,8.933698,3.568297,-1.156730,-0.889754
1003.703125,0.222252,0.461957,5.001991,5.915473
1003.707031,-0.305865,0.337286,6.131790,9.039103
1003.710938,6.053434,11.171588,5.034895,5.994582
1003.714844,10.709746,10.227246,11.644121,9.874371
1003.718750,10.023223,1.779362,3.903997,9.306968
1003.722656,9.379723,5.373157,12.708740,13.494079
1003.726562,14.973234,2.572176,11.503269,16.547643
1003.730469,5.017176,12.130461,9.357772,5.337864
1003.734375,13.242906,12.840060,8.745881,10.346506
1003.738281,7.901181,9.934295,4.519311,5.212957
1003.742188,0.832062,9.263289,3.442470,8.236701
1003.746094,1.151989,2.773406,2.325681,7.216579
1003.750000,0.057828,-3.426535,-5.220958,-4.242357
1003.753906,-7.103818,-4.650213,-0.677261,-3.088548
1003.757812,-6.737458,-3.365865,-2.621125,3.557988
1003.761719,-3.268150,-0.749594,-5.533145,-7.442984
1003.765625,-13.715624,-11.275436,-19.554796,-1.670876
1003.769531,-10.207840,-10.210175,-9.316050,-8.468877
1003.773438,-7.320284,-14.244938,-5.203576,-13.468464
1003.777344,-3.198618,-6.211779,-10.876257,-8.171501
1003.781250,-11.028540,-6.156895,-4.445737,-12.470609
1003.785156,-13.554374,-1.759872,-7.845113,-10.206166
1003.789062,-3.881788,-3.112130,-5.519233,1.984736
1003.792969,-8.035914,0.843476,0.435892,2.089880
1003.796875,-0.956808,-4.293927,-2.085460,0.987158
1003.800781,-1.327417,-2.215318,0.886450,-4.625997
1003.804688,1.314550,4.113896,12.255221,-3.109618
1003.808594,11.307621,2.024644,12.082764,5.539169
1003.812500,9.647769,3.195150,3.915429,10.629380
1003.816406,3.601152,10.473160,9.956651,1.544466
1003.820312,6.443643,4.888809,16.913540,10.019697
1003.824219,1.187587,2.546790,10.319457,12.198969
1003.828125,10.003513,7.100309,12.434574,12.908646
1003.832031,16.246081,4.462798,9.285047,4.727552
1003.835938,-1.395005,11.637582,7.376111,7.299724
1003.839844,0.538189,16.573401,9.902732,5.625177
1003.843750,2.696701,-1.990242,2.650794,2.402143
1003.847656,0.150400,4.513281,3.829516,6.015230
1003.851562,-3.052309,-0.024323,1.065248,-13.699001
1003.855469,-2.772514,-6.490209,-6.026423,-0.422946
1003.859375,-10.809226,1.244477,-7.901270,0.632320
1003.863281,-2.544175,-6.569939,-10.211105,-16.099129
1003.867188,-12.725739,-8.604117,-11.846116,-11.675515
1003.871094,-8.897142,-6.154462,-11.749122,-9.946401
1003.875000,-13.733719,-11.364069,-6.071066,-9.562965
1003.878906,-5.161407,-0.018469,-15.489768,-8.778628
1003.882812,-8.904262,-10.734657,-6.788054,-4.304919
1003.886719,-6.800672,-5.146695,-6.722542,-12.363752
1003.890625,-3.015959,-7.898338,-4.670189,-8.365632
1003.894531,-1.024549,-8.410433,0.521852,-7.376650
1003.898438,-1.626789,0.335339,3.061665,4.728354
1003.902344,-1.265387,-2.205650,-2.465098,-3.711680
1003.906250,6.121851,-0.281747,1.833397,7.696201
1003.910156,6.454764,2.678316,3.099735,7.118703
1003.914062,11.761392,7.517467,16.777966,5.771204
1003.917969,6.991913,10.022689,9.857829,9.145120
1003.921875,12.527112,8.453114,0.587016,8.237989
1003.925781,13.348048,5.440596,6.036667,8.450751
1003.929688,17.359177,12.925026,-0.724191,7.199054
1003.933594,13.377608,5.880477,10.218010,12.514169
1003.937500,10.552854,9.289701,-3.921003,5.892972
1003.941406,0.573168,7.023703,10.381859,9.501373
1003.945312,4.325826,8.104442,-8.386552,7.242379
1003.949219,-7.181591,1.800174,0.929654,-7.210609
1003.953125,1.448002,6.264959,1.779167,4.759309
1003.957031,-3.394705,-2.157584,0.204046,-0.708921
1003.960938,-9.436856,-10.411120,-9.781375,-12.341375
1003.964844,-9.018886,-6.196533,-10.093261,-9.136496
1003.968750,-14.419625,-5.708493,-6.387254,-11.863091
1003.972656,-5.387555,-16.782645,-6.326805,-6.894368
1003.976562,-14.797200,-17.466212,-6.088595,-9.717717
1003.980469,-2.982057,-8.548399,-15.871199,-16.218382
1003.984375,-6.147499,-8.913075,-9.157831,-3.923387
1003.988281,-2.495080,-1.203278,-10.438875,-4.058534
1003.992188,-5.770959,1.748458,3.069393,-1.405214
1003.996094,-8.407117,-5.705490,-2.310393,-2.164677
1004.000000,-6.178168,-0.518172,5.739437,-3.066156
1004.003906,1.356694,2.716693,5.961654,5.504261
1004.007812,0.409611,-3.358051,8.872338,8.554396
1004.011719,10.248905,7.261440,5.090182,8.781155
1004.015625,7.858566,7.178073,16.818418,4.892958
1004.019531,9.660212,7.004258,-1.022281,6.259744
1004.023438,9.033466,15.192478,7.118033,5.990142
1004.027344,8.644509,9.923417,16.388786,1.909532
1004.031250,7.348721,11.068035,7.088757,9.020224
1004.035156,8.777800,3.977047,6.809696,-0.196631
1004.039062,8.957276,7.635318,4.373950,9.556874
1004.042969,0.539906,4.622905,-1.217860,4.313893
1004.046875,2.246973,6.378339,5.480245,7.344911
1004.050781,2.968802,-3.983609,-0.268402,4.245695
1004.054688,0.364076,-5.585377,2.037981,-6.348011
1004.058594,-8.171217,-6.543540,0.342879,-1.863319
1004.062500,-6.402639,-8.798532,-9.021875,-0.675178
1004.066406,-15.692939,-16.208964,-7.423584,-3.069075
1004.070312,-14.502754,-1.648683,-9.978748,-11.346689
1004.074219,-13.184634,-11.386307,-6.272512,-10.389164
1004.078125,-15.592117,-9.062823,-8.714647,-14.040796
1004.082031,-9.621393,-12.507965,-15.059326,-5.289312
1004.085938,-7.713558,-4.693742,-11.915772,-9.115919
1004.089844,-4.303404,-9.675484,-10.618633,-5.504216
1004.093750,-8.639862,-6.431958,-8.314323,-4.172285
1004.097656,-1.633976,11.153334,-2.731150,1.576460
1004.101562,-2.585239,2.999222,-1.643886,-0.775276
1004.105469,2.209730,1.369330,5.116871,5.309505
1004.109375,7.068174,4.882023,6.254585,0.152770
1004.113281,7.474508,9.771341,7.693617,11.986192
1004.117188,8.782954,10.671283,9.183424,15.358759
1004.121094,6.592912,11.505014,10.195713,12.376005
1004.125000,16.561632,15.281259,9.764186,12.388932
1004.128906,12.208413,9.078340,3.991652,11.497550
1004.132812,7.913578,6.669207,8.544926,18.582742
1004.136719,2.184581,9.242077,5.322848,1.415073
1004.140625,2.259178,3.988565,3.187010,8.611528
1004.144531,3.546445,4.015400,1.041960,-4.955560
1004.148438,4.428765,-3.449798,5.104624,-1.831206
1004.152344,-3.660804,-1.048523,-0.892651,2.595415
1004.156250,1.107489,-4.270489,-6.940214,-7.585031
1004.160156,-7.086381,-3.267837,-7.397519,-8.398512
1004.164062,-11.086662,-3.798965,-11.474114,-9.626058
1004.167969,-20.759614,-12.082344,-10.224197,-10.128340
1004.171875,-9.638820,-11.165948,-9.184745,-11.719971
1004.175781,-12.236314,-4.077567,-17.522177,-12.473841
1004.179688,-17.210705,-2.593134,-2.534659,-11.392401
1004.183594,-4.959823,-12.059135,-11.271042,-7.709339
1004.187500,-0.402793,-9.939097,-8.293643,-13.808685
1004.191406,-5.227766,-9.664657,-3.080011,-5.283884
1004.195312,-0.699906,-1.114652,-0.831265,-10.379733
1004.199219,-1.242891,-3.842548,2.865807,1.157994
1004.203125,-8.818690,-0.943890,6.964835,-5.253628
1004.207031,9.123813,5.180030,7.356647,2.938578
1004.210938,-0.662917,7.491688,7.148787,2.872142
1004.214844,11.054285,11.295276,4.950025,6.366291
1004.218750,12.765187,10.343632,11.019455,5.087815
1004.222656,8.090855,13.787414,5.809426,3.015648
1004.226562,7.360962,8.398186,9.583914,10.895838
1004.230469,9.045703,12.022793,14.314746,9.301898
1004.234375,11.924295,5.842085,9.202393,15.146969
1004.238281,3.346997,4.790711,1.899328,3.283728
1004.242188,5.478403,1.827614,12.260044,6.022603
1004.246094,5.832781,-3.936390,3.428099,2.541216
1004.250000,0.010893,-1.867190,4.380321,0.578488
1004.253906,-6.953936,-0.349938,-0.606211,-2.105143
1004.257812,-4.098061,-1.043295,-10.397033,-7.103623
1004.261719,-8.114514,-16.269505,-8.410117,-2.008308
1004.265625,-11.727387,-11.900519,-9.399169,-7.795351
1004.269531,-18.607635,-8.547674,-12.242579,-6.594243
1004.273438,-14.808058,-11.722543,-21.625884,-13.641566
1004.277344,-8.340458,-8.725274,-5.775499,-6.961940
1004.281250,-10.338946,-10.272638,-7.150416,-14.567865
1004.285156,-14.995957,-4.452394,-8.755174,-11.501476
1004.289062,-7.435783,-10.712495,-7.942695,-3.773090
1004.292969,0.537541,-4.987848,0.580507,-9.701947
1004.296875,-6.185895,0.475969,1.108005,-5.498861
1004.300781,4.333981,-4.476609,3.942690,-2.665976
1004.304688,0.683945,6.926852,2.242442,3.282567
1004.308594,11.618263,0.402032,3.332160,1.959285
1004.312500,9.344275,3.993213,10.234439,10.425206
1004.316406,5.352825,15.702155,8.536963,5.314634
1004.320312,12.913177,3.597801,10.930025,6.962192
1004.324219,12.568047,19.421987,11.088516,2.035553
1004.328125,12.661892,13.340709,7.533925,13.645917
1004.332031,8.807382,5.567418,9.309861,2.262988
1004.335938,7.565845,6.957102,14.211822,2.508316
1004.339844,0.034917,6.367446,2.405797,0.695957
1004.343750,5.102816,5.145522,3.145211,-3.203495
1004.347656,4.267905,-0.837147,-7.745712,5.997132
1004.351562,-2.606175,-1.989183,9.254925,-3.183703
1004.355469,4.991417,-1.821935,0.256612,1.050232
1004.359375,2.080719,0.088478,-10.096718,-3.069865
1004.363281,-1.900272,-9.338240,-2.889693,-4.140226
1004.367188,-7.431216,-7.856334,-4.650076,-12.588447
1004.371094,-8.698572,-10.847839,-5.585576,-9.504889
1004.375000,-7.001290,-12.057184,-8.949511,-6.769083
1004.378906,-10.736775,-14.333961,-13.227193,-0.346099
1004.382812,-10.569633,-14.324003,-5.377018,-4.755069
1004.386719,-11.462843,-8.115959,-4.981666,-10.569195
1004.390625,-3.886797,2.275927,-6.896628,-14.060912
1004.394531,-5.167723,-13.726650,-8.939596,-11.792117
1004.398438,3.703579,-1.862043,-5.925189,-4.380000
1004.402344,1.118100,2.002398,8.876857,10.029288
1004.406250,6.778357,-5.822887,9.864189,1.032994
1004.410156,11.721463,7.216202,7.543734,9.096827
1004.414062,8.669329,8.353550,13.652886,10.021106
1004.417969,9.161878,8.831123,3.595148,8.887241
1004.421875,12.986581,9.508537,13.391755,9.224682
1004.425781,7.398875,13.594931,7.986778,9.708591
1004.429688,8.725102,11.006007,11.759409,8.107710
1004.433594,7.653553,8.814277,3.021408,10.921800
1004.437500,10.670331,6.653825,3.836975,11.921302
1004.441406,6.099734,6.303107,8.693624,6.486009
1004.445312,6.621829,5.864879,3.439758,3.352454
1004.449219,-3.798569,-8.283341,-4.743888,0.778605
1004.453125,-5.463706,1.321416,-2.519681,4.825939
1004.457031,-3.826443,-4.305178,-7.448462,-10.520915
1004.460938,-10.744799,-5.365710,-11.595111,-2.572886
1004.464844,-8.802170,-0.233465,3.000035,-7.462571
1004.468750,-6.870494,-7.963130,-8.042102,-9.674667
1004.472656,-9.438018,-10.308186,-11.336856,-19.070626
1004.476562,-13.265252,-8.929585,-9.469961,-7.279090
1004.480469,-5.523927,-8.748024,-13.676490,-7.043375
1004.484375,-7.783068,-4.585533,-5.012788,-5.435355
1004.488281,-8.520805,-10.103611,-9.551572,-6.822094
1004.492188,-1.038532,-3.852918,-1.802830,-8.921151
1004.496094,3.869632,-6.469176,-0.200211,-0.408642
1004.500000,2.809681,1.058701,1.926154,-0.709860
1004.503906,4.702163,-1.098477,0.998373,2.100106
1004.507812,-2.579257,7.388420,-2.982994,7.476970
1004.511719,4.725476,-1.128101,9.962186,9.986143
1004.515625,8.429323,10.505822,3.562183,10.411016
1004.519531,10.413095,4.477472,9.401922,15.988507
1004.523438,10.024227,8.319131,9.757385,4.843271
1004.527344,14.388683,20.555429,9.698633,0.699525
1004.531250,12.866159,12.849350,14.260208,7.893283
1004.535156,11.557332,3.314878,5.771067,10.014688
1004.539062,4.555137,2.353248,7.429013,2.232326
1004.542969,7.286393,0.759097,6.476588,9.152528
1004.546875,-0.360836,3.819129,-0.170745,-4.724428
1004.550781,0.915160,-1.229361,-3.111795,-0.981309
1004.554688,-1.298954,-5.011253,-5.081437,-3.704780
1004.558594,-2.109342,1.532258,-6.268222,-9.516056
1004.562500,-9.751096,-10.360338,-13.254501,-6.023788
1004.566406,-10.069462,-5.672514,-6.825779,-5.777049
1004.570312,-11.303459,-6.406931,-15.817764,-5.699242
1004.574219,-6.316547,-11.646459,-11.198270,-9.644918
1004.578125,-6.336174,-11.051227,-14.169064,-19.028367
1004.582031,-4.901433,-4.663591,-8.177641,-12.272484
1004.585938,-15.292454,-8.576080,-8.292150,-0.971974
1004.589844,2.566769,-4.982885,-8.514885,-3.433484
1004.593750,-9.013696,-4.234059,-6.349451,-5.877113
1004.597656,-0.581378,-7.420206,-4.065367,-4.931297
1004.601562,6.879527,-1.205459,3.728897,4.711251
1004.605469,5.586805,8.711980,2.576688,3.070373
1004.609375,15.587198,6.364330,10.728708,0.951411
1004.613281,3.282443,6.048456,8.823811,10.432995
1004.617188,6.489530,10.374832,10.091005,10.159420
1004.621094,7.846047,6.229468,7.147464,8.945186
1004.625000,8.584164,8.558283,8.815191,5.081226
1004.628906,11.506802,11.150075,11.226298,7.802759
1004.632812,11.401237,9.689980,12.981867,8.453935
1004.636719,5.063113,2.898523,7.733968,5.374739
1004.640625,2.576954,2.363718,10.893123,7.678493
1004.644531,6.627215,6.443092,9.856073,-0.447909
1004.648438,4.338224,-1.118331,0.169481,6.690858
1004.652344,-2.028245,4.141918,-1.007235,-9.508285
1004.656250,-1.172283,-8.619100,0.539786,-2.104515
1004.660156,-1.856102,-5.534784,-7.839579,-8.524423
1004.664062,-4.151941,-10.817104,-9.583623,-6.850585
1004.667969,-11.410186,-5.857466,-8.708217,-6.537335
1004.671875,-6.832208,-8.236545,-7.250176,-12.066922
1004.675781,-5.280900,-10.919908,-2.473511,5.326448
1004.679688,-9.350826,-6.400555,-5.393885,-7.243968
1004.683594,-14.685346,-7.644204,-5.686175,-6.836299
1004.687500,-10.413584,-11.387529,-8.187699,-1.224604
1004.691406,-8.555051,-6.137154,-4.675564,-8.843976
1004.695312,-9.813878,-3.694307,-4.373167,-1.580649
1004.699219,1.936577,-5.321329,1.159894,2.586980
1004.703125,5.853621,2.402546,13.758684,-0.898831
1004.707031,1.880520,3.035007,7.045844,-1.239654
1004.710938,3.560224,2.625187,7.199841,4.033891
1004.714844,9.227438,9.842480,9.420642,8.174231
1004.718750,9.969752,17.341211,7.199459,1.282698
1004.722656,6.678376,13.364187,12.722062,9.330073
1004.726562,1.948782,8.160184,7.513128,2.457369
1004.730469,5.131063,5.690366,-1.825545,9.225825
1004.734375,16.364742,13.144858,8.308143,10.419613
1004.738281,5.543731,2.041863,-0.028588,1.266294
1004.742188,0.833017,0.530274,5.398765,12.526742
1004.746094,-0.415448,7.908634,5.613731,-3.093701
1004.750000,0.457615,-4.455827,3.075758,3.697787
1004.753906,-4.594761,-2.126160,3.265956,-1.262968
1004.757812,-5.211219,0.590960,-2.070101,-2.146606
1004.761719,-6.371699,1.529288,-4.931953,-7.636905
1004.765625,-1.532741,-10.691580,-10.309865,-10.407576
1004.769531,-9.596569,-11.198238,-9.568017,-12.217297
1004.773438,-16.811779,-7.987227,-13.061561,-13.740557
1004.777344,-13.265095,-10.771453,-6.750279,-7.671589
1004.781250,-5.047461,-10.455661,-9.119461,-9.605177
1004.785156,-9.661323,-3.940113,-8.471881,-7.982585
1004.789062,-3.081820,-1.883917,0.019195,-4.048735
1004.792969,-9.348015,-1.894290,1.508239,-9.857658
1004.796875,-4.253142,-3.761970,-3.729734,-8.019398
1004.800781,2.014393,-6.050397,3.361543,3.979694
1004.804688,6.658188,-1.904702,-1.883079,6.190889
1004.808594,7.920540,3.228986,1.244958,7.581052
1004.812500,2.768617,2.983051,3.133677,6.962278
1004.816406,5.964419,2.641426,3.943431,10.528150
1004.820312,13.971771,9.350853,10.758727,11.341595
1004.824219,8.540634,10.532146,13.602839,1.319944
1004.828125,3.548483,13.673901,14.850053,6.113044
1004.832031,6.707919,5.104763,6.386696,12.649976
1004.835938,12.570376,11.196545,4.840774,5.215414
1004.839844,12.038605,7.231500,0.636884,6.425058
1004.843750,-1.600484,8.033186,-0.205735,9.881630
1004.847656,1.296481,6.905648,8.344568,1.986298
1004.851562,-1.096501,-3.921310,-8.390484,-1.638804
1004.855469,-5.345084,-5.621545,-6.347082,-3.902417
1004.859375,-5.393911,-1.367425,-12.660417,-2.619617
1004.863281,-16.616553,-0.143371,-7.394654,-6.966440
1004.867188,-6.500920,-8.724855,-4.709873,-11.469365
1004.871094,-2.028038,-7.397598,-8.913877,-11.324463
1004.875000,-10.006169,-5.036363,-9.048874,-7.740477
1004.878906,-10.759578,-13.986465,-7.008906,-14.378355
1004.882812,-8.107418,-0.386492,-10.995862,-5.582617
1004.886719,-2.671114,-0.296432,-6.620282,-5.188113
1004.890625,-3.419296,-9.968448,-3.671623,-5.313287
1004.894531,-10.815938,-1.888714,-1.257864,-7.555669
1004.898438,-4.847151,3.272880,-0.416641,1.853793
1004.902344,1.325754,-4.544310,-0.202710,3.439687
1004.906250,1.539616,2.919920,0.766980,1.674140
1004.910156,9.952166,0.308034,9.624274,5.488405
1004.914062,13.160500,8.924374,2.349225,3.920655
1004.917969,12.538389,2.805254,16.098211,6.193011
1004.921875,3.039683,15.197948,4.952669,7.000514
1004.925781,11.536109,8.402048,16.849239,4.260846
1004.929688,10.701289,9.844649,8.829675,13.102810
1004.933594,8.334458,12.175750,9.349660,12.407130
1004.937500,12.196560,13.470821,6.078672,7.180991
1004.941406,7.417641,0.281667,9.413585,-1.780987
1004.945312,4.299349,2.404065,9.566370,1.514980
1004.949219,4.536130,-1.021041,4.845689,9.906097
1004.953125,-0.667748,0.574871,-2.746427,4.160036
1004.957031,-0.739474,-8.383622,-5.976154,-2.957637
1004.960938,-6.042797,-9.731461,-5.201836,-3.929538
1004.964844,-3.918964,-0.462158,-14.192734,-5.614022
1004.968750,-10.452471,-11.552867,-9.463976,-7.376298
1004.972656,-13.871774,-11.351231,-10.034300,-11.248166
1004.976562,-7.953892,0.923196,-16.849717,-13.590917
1004.980469,-12.252691,-11.390833,-13.141979,-6.101352
1004.984375,-8.892427,-2.350739,-9.568116,-2.817826
1004.988281,-4.032451,-5.469979,-7.192023,-11.909845
1004.992188,-2.605395,-9.037336,0.733824,-5.436401
1004.996094,-7.188677,-3.160617,-7.481689,-3.883508
1005.000000,1.085443,2.877257,-0.829574,-3.715565
1005.003906,0.612763,-4.308899,3.183862,0.110160
1005.007812,4.735757,8.749833,-0.545690,-0.798759
1005.011719,8.744096,5.509748,3.448488,5.444231
1005.015625,11.084440,16.176470,11.003729,4.725598
1005.019531,2.064956,12.391570,15.091377,3.299603
1005.023438,15.175263,8.950484,17.994225,7.879517
1005.027344,10.872779,11.285914,11.771795,11.063156
1005.031250,1.377709,8.555709,7.702685,11.778613
1005.035156,4.868060,6.492338,13.911483,10.145544
1005.039062,12.440904,4.252940,9.251849,6.008220
1005.042969,9.820503,4.001788,-0.449912,1.415635
1005.046875,1.792758,1.611781,3.596741,-3.457672
1005.050781,-2.877705,9.800337,-6.321698,-0.199208
1005.054688,-3.335535,0.576859,2.022241,5.473430
1005.058594,-4.162796,-6.930656,3.047583,-6.115680
1005.062500,-1.495587,-5.840275,-2.357613,-6.470848
1005.066406,-10.701256,-1.438777,-11.901086,-3.068250
1005.070312,-12.732602,-2.724870,-12.177162,-10.118011
1005.074219,-9.583847,-11.119039,-10.735027,-11.910179
1005.078125,-6.703237,-11.339411,-11.466534,-14.126035
1005.082031,-4.254308,-6.759968,-4.855542,-9.009425
1005.085938,-4.192962,-4.862468,-4.867994,-9.732537
1005.089844,-1.801033,-3.180760,-6.807830,1.556849
1005.093750,-11.733028,1.686198,-6.336636,-2.318477
1005.097656,-2.212149,-2.355063,-6.440589,-0.764503
1005.101562,1.684990,-1.482532,1.385367,5.973313
1005.105469,7.453309,14.348354,4.854035,2.608715
1005.109375,8.889164,1.159515,2.423902,3.829134
1005.113281,-1.699288,11.837085,5.837473,0.416843
1005.117188,6.272893,10.198583,6.817783,10.176594
1005.121094,10.297811,10.870193,20.737025,5.916966
1005.125000,17.094788,9.234906,7.940864,9.380146
1005.128906,14.263807,1.150386,9.391267,12.174657
1005.132812,5.773496,1.450726,7.482265,12.058162
1005.136719,10.572462,8.488091,3.514021,12.280572
1005.140625,8.007353,3.688930,7.528243,4.861484
1005.144531,-3.344022,7.068308,8.581971,5.282702
1005.148438,-3.007403,-2.682215,-2.383216,1.724040
1005.152344,-6.723077,1.728075,-4.813406,-2.183799
1005.156250,-4.849788,-1.967399,-0.750337,-6.686386
1005.160156,-4.397692,-3.849933,-4.932404,-14.430150
1005.164062,-11.940305,-10.638948,-7.739491,-3.583495
1005.167969,-8.564701,-6.144350,-8.611466,-8.730334
1005.171875,-6.707581,-9.114845,-2.875816,-6.462487
1005.175781,-13.500233,-13.631770,-13.545118,-7.707313
1005.179688,-11.611640,-10.177768,-7.671285,-2.374151
1005.183594,-10.683341,-11.035915,-13.029116,-7.549830
1005.187500,-5.552765,-12.076012,-9.839110,-13.382551
1005.191406,-4.934742,-7.090999,-6.048326,-7.360569
1005.195312,-1.448581,3.625874,1.726061,-3.345612
1005.199219,0.631818,-0.915189,2.363501,3.892144
1005.203125,5.912296,7.783367,6.571748,5.224957
1005.207031,3.170728,0.277253,5.147156,5.357774
1005.210938,9.404930,9.489606,8.848656,6.848587
1005.214844,13.469440,9.522434,3.848744,9.525507
1005.218750,20.578672,8.427534,9.995941,9.617776
1005.222656,5.760369,6.968693,9.799114,8.744735
1005.226562,6.727297,13.912514,1.965741,7.082232
1005.230469,5.611918,8.955579,2.936854,3.685590
1005.234375,11.570437,9.538112,7.409125,5.645689
1005.238281,4.168428,8.580889,1.367196,-3.734951
1005.242188,-0.782858,5.723715,11.580836,6.511371
1005.246094,2.080680,9.548229,14.552886,2.332693
1005.250000,5.743361,3.620401,-2.656967,4.209164
1005.253906,6.268938,1.595489,0.599325,-8.777439
1005.257812,2.215719,-8.745688,-4.480606,-2.230772
1005.261719,-8.231878,-1.121442,-4.953694,-7.861238
1005.265625,-2.717893,-9.155043,-8.086329,-4.400559
1005.269531,-11.151723,-11.758137,-11.624837,-7.361541
1005.273438,-11.771212,-7.148756,-13.756695,-13.454507
1005.277344,-8.334141,-8.813508,-14.007900,-13.073821
1005.281250,-18.732866,-4.529858,-4.746177,-10.373468
1005.285156,-3.224230,-6.293975,-11.623656,-4.507693
1005.289062,-8.870785,-2.074193,-11.428375,-7.490162
1005.292969,-0.777518,-2.973315,-3.008470,-9.894648
1005.296875,-3.867013,-6.205743,0.218958,-0.040404
1005.300781,6.564149,5.196612,0.131332,1.089708
1005.304688,3.381580,-0.087933,-1.681910,0.825441
1005.308594,0.050107,2.553223,-0.614202,1.782465
1005.312500,5.283880,10.571795,6.935443,8.546225
1005.316406,16.879514,4.006666,6.301720,8.959033
1005.320312,11.041936,5.012779,11.215888,14.077093
1005.324219,9.832201,3.482236,6.526599,8.166962
1005.328125,11.832694,8.542598,9.649047,13.472452
1005.332031,4.692568,12.072367,11.554200,11.176657
1005.335938,15.788914,9.716778,5.667071,3.643685
1005.339844,10.462039,3.869880,11.844433,9.111048
1005.343750,6.795590,5.400194,4.655394,3.335033
1005.347656,4.047570,3.863537,10.257295,2.856779
1005.351562,2.797499,-6.581748,-4.401721,-2.769279
1005.355469,5.261556,-1.703012,1.010412,-5.947829
1005.359375,-15.229620,-0.264296,-10.120895,-8.288441
1005.363281,0.642723,-5.554817,-4.807851,-5.267679
1005.367188,-5.152511,-3.501865,-11.449969,-7.564425
1005.371094,-7.857809,-4.704496,-12.681051,-5.292313
1005.375000,-8.345718,-9.875613,-7.923635,-7.859225
1005.378906,-5.513340,-5.437502,-12.052203,-14.636763
1005.382812,-3.179297,-7.510957,-13.007205,-9.321494
1005.386719,-14.392973,-5.986074,-10.352057,-4.758869
1005.390625,-7.500926,-4.620594,-1.563192,-5.421122
1005.394531,-2.637143,3.037738,-0.986435,-6.219931
1005.398438,-5.161974,-6.878167,-7.912676,-5.469418
1005.402344,2.888738,-0.122245,-1.788078,10.869112
1005.406250,3.075081,0.922529,6.837700,9.882561
1005.410156,5.255323,6.285058,2.021353,10.118932
1005.414062,-0.921557,12.035616,7.956666,9.412985
1005.417969,15.091466,1.968566,14.561488,11.406007
1005.421875,7.670977,2.487232,12.414709,9.294769
1005.425781,6.122922,10.094516,11.326196,15.360923
1005.429688,9.994394,7.976943,16.576295,8.098115
1005.433594,10.395459,8.831387,14.108585,3.702292
1005.437500,10.224320,5.513137,10.239522,6.007648
1005.441406,4.693566,2.586593,2.847307,4.025604
1005.445312,4.006237,-3.902832,2.023651,1.985463
1005.449219,2.636388,3.818203,-2.715144,-1.340674
1005.453125,1.766262,-1.724491,8.264097,-3.278451
1005.457031,-4.417815,-0.670354,-0.569624,-2.731008
1005.460938,-2.845625,-3.876271,-4.103858,-10.546028
1005.464844,-4.501690,-11.563742,-1.816265,-8.526668
1005.468750,-8.510057,-7.376653,-8.744372,-17.411651
1005.472656,-11.845967,-10.292943,-6.152923,-15.251407
1005.476562,-3.494140,-6.701266,-11.405777,-9.726039
1005.480469,-13.353039,-6.827417,-7.234781,-7.607009
1005.484375,-2.566620,-6.613256,-14.543406,0.235700
1005.488281,-5.502473,-13.514782,-9.328423,-4.420731
1005.492188,-10.171975,-7.166840,-3.635090,-11.579820
1005.496094,-10.444636,0.077884,0.811133,5.968445
1005.500000,0.489110,2.052626,0.807671,5.503564
1005.503906,8.066524,2.939933,-2.481883,2.229134
1005.507812,-2.904156,7.092648,2.670316,8.547942
1005.511719,-3.634719,14.133781,11.283163,8.626791
1005.515625,10.827271,5.693277,13.336571,6.440280
1005.519531,9.185308,2.107191,10.847692,8.821494
1005.523438,6.811706,4.500283,12.136809,9.726915
1005.527344,12.675516,11.525582,6.962699,11.846659
1005.531250,14.369866,2.117965,9.595454,9.400971
1005.535156,15.299015,9.057293,9.224525,5.098010
1005.539062,1.499597,4.908468,8.160452,8.669505
1005.542969,0.552535,1.102745,7.524600,4.808793
1005.546875,9.525496,3.070434,4.425550,1.675470
1005.550781,5.004247,-0.458984,0.238578,1.935055
1005.554688,-4.216095,-1.445738,-3.777498,1.541702
1005.558594,-1.981659,-6.250599,-2.637701,-1.644798
1005.562500,-2.808017,-6.947882,-9.975484,-4.488604
1005.566406,-9.610977,-12.112791,-3.546022,-5.594155
1005.570312,-3.945035,-12.609583,-8.978683,-14.361099
1005.574219,-7.525572,-9.625063,-7.808072,-13.788852
1005.578125,-3.365000,-8.862092,-17.074665,-18.120398
1005.582031,-5.119336,-13.559726,-12.467909,-9.231561
1005.585938,-8.738485,-9.762121,-11.679900,-2.495200
1005.589844,-5.242518,-2.767570,-5.604725,-2.151683
1005.593750,-4.030505,-8.783050,-9.136577,-6.797124
1005.597656,-3.811906,2.717117,-0.830078,0.114511
1005.601562,-3.757161,-0.480915,1.019471,-0.653147
1005.605469,-0.784038,3.419022,11.732326,-2.172240
1005.609375,-0.309224,11.596274,2.380940,5.214286
1005.613281,11.482990,4.213382,11.006654,5.775348
1005.617188,5.737156,10.085116,9.016738,11.956447
1005.621094,9.466298,17.303266,6.890503,8.610667
1005.625000,3.263112,5.541846,2.389594,7.789002
1005.628906,12.925233,9.453815,5.127470,8.375687
1005.632812,7.287789,11.280965,4.766030,11.965860
1005.636719,1.020686,5.541240,5.873578,2.404551
1005.640625,4.275010,11.309207,3.464518,8.485946
1005.644531,-0.592523,3.266278,2.863255,14.527924
1005.648438,-2.232735,7.664129,4.552845,-2.309867
1005.652344,-1.774569,2.037150,-3.206983,-4.048306
1005.656250,-1.147065,-10.007009,-1.194659,-4.973164
1005.660156,-11.238343,-2.391958,-5.311589,-6.822851
1005.664062,-6.646322,-6.456821,-6.047144,-8.391245
1005.667969,-10.256859,-9.056538,-8.773326,-3.927077
1005.671875,-8.425809,-9.140349,-7.337513,-5.343174
1005.675781,-11.453380,-9.345535,-8.343586,-6.344830
1005.679688,-10.656333,-8.531012,-6.109454,-10.306445
1005.683594,-6.740086,-11.914405,-9.806114,-3.491247
1005.687500,-7.476599,-6.771714,-14.758753,-2.442990
1005.691406,-4.518204,-9.793226,-5.807829,-6.679780
1005.695312,-6.800644,-3.442876,-8.081304,-7.951819
1005.699219,8.166502,2.197727,-0.663849,1.044253
1005.703125,4.066838,-1.861990,5.569002,2.389294
1005.707031,3.454951,7.083785,1.236751,6.688634
1005.710938,10.533043,6.888656,8.107049,1.781310
1005.714844,11.245221,1.508312,13.513025,8.630710
1005.718750,10.970116,11.368592,13.865653,5.434586
1005.722656,7.347640,10.456275,4.307578,8.080916
1005.726562,8.067617,6.089735,11.186818,10.556313
1005.730469,7.266020,14.003954,2.683324,2.930524
1005.734375,13.583028,7.550898,4.212371,3.978495
1005.738281,3.130192,11.907911,13.204692,9.763424
1005.742188,6.041419,-0.146831,-0.934993,3.153820
1005.746094,-0.442453,1.111884,-3.131866,4.961571
1005.750000,2.043353,0.592335,2.965631,4.745357
1005.753906,1.766968,-1.964226,-7.049666,-7.884111
1005.757812,1.097755,-5.250415,2.267687,-6.144731
1005.761719,-7.668431,-12.888372,-16.314329,-4.951237
1005.765625,-16.366077,-2.628905,-6.486392,-5.929881
1005.769531,-12.368589,-4.070218,-9.449666,-16.684484
1005.773438,-2.713672,-6.351288,-9.541768,-8.311674
1005.777344,-5.671227,-10.405400,-11.005033,-9.800260
1005.781250,-2.567144,-8.486308,-7.916016,-7.424408
1005.785156,-7.434916,-6.196863,-4.449995,-10.097691
1005.789062,-9.032243,-2.380299,-13.011856,-12.952036
1005.792969,-2.992112,-5.654155,-5.806383,-6.984801
1005.796875,-2.955093,-3.011931,-0.483872,1.153550
1005.800781,-0.492860,-5.856697,1.039258,1.564836
1005.804688,4.342504,3.233152,2.794146,4.757824
1005.808594,6.177094,9.138440,11.135725,4.189943
1005.812500,12.893583,7.006030,16.675492,7.321052
1005.816406,5.779014,7.602984,4.757569,10.952203
1005.820312,10.539915,8.671498,6.612223,2.278911
1005.824219,15.115537,18.915935,6.258748,10.025935
1005.828125,6.523038,7.836567,13.900506,11.054290
1005.832031,3.242185,15.072348,12.757128,4.249475
1005.835938,5.232985,12.663936,14.977969,6.131617
1005.839844,10.471919,9.201824,10.345875,14.057792
1005.843750,-0.193975,10.956366,-0.768747,4.380289
1005.847656,2.409636,2.113192,0.632830,7.582903
1005.851562,2.194941,-0.340314,-0.398972,-6.296217
1005.855469,-5.483729,-10.649085,0.453852,-1.333049
1005.859375,-4.994901,-0.292468,-5.751890,-10.834173
1005.863281,-10.066959,-13.447590,-9.184353,-16.082015
1005.867188,-8.086926,-9.618265,-4.325917,-6.279514
1005.871094,-9.108435,-12.752302,-6.416334,-9.341131
1005.875000,-8.252506,-14.589751,-9.477124,-1.961968
1005.878906,-6.759104,-12.910215,-11.346152,-15.610723
1005.882812,-4.772424,-17.127023,-4.285613,-11.726538
1005.886719,-8.823742,-9.051414,-4.649725,-12.644279
1005.890625,-4.170000,-9.347858,-10.575401,-6.348716
1005.894531,-2.306070,-3.203847,-1.367686,-1.983986
1005.898438,1.592023,-5.673086,-2.227940,-2.012120
1005.902344,6.002743,7.864712,-2.912212,4.318953
1005.906250,-2.054450,2.344198,2.883512,-0.699723
1005.910156,9.351512,3.031642,9.419560,-1.067341
1005.914062,-0.346557,16.647112,8.067939,4.514639
1005.917969,0.013442,9.957577,10.616304,11.340436
1005.921875,14.182660,6.493862,16.615793,12.688183
1005.925781,6.289726,13.175106,15.387190,11.618840
1005.929688,9.300423,10.772905,15.833469,10.122438
1005.933594,6.069766,5.398811,5.551323,8.993714
1005.937500,7.614840,11.767140,8.155726,10.916602
1005.941406,-0.776195,6.143091,11.510468,9.236488
1005.945312,8.206786,3.797560,1.778218,-2.271366
1005.949219,-3.087957,0.240914,3.412090,7.579784
1005.953125,-8.297194,1.055381,5.009693,-1.658445
1005.957031,-7.954695,-2.997850,-2.498839,-5.861495
1005.960938,-4.491036,-8.557710,-0.114123,-2.776287
1005.964844,-3.653757,-0.119005,-3.185850,-5.790631
1005.968750,-10.086489,-10.684659,-8.289353,-9.436464
1005.972656,-8.261363,-10.184196,-3.463069,-7.808259
1005.976562,-9.600071,-14.405226,-10.386271,-5.409954
1005.980469,-5.706447,-6.863518,-8.363186,-3.845151
1005.984375,-9.101150,-8.515402,-13.455250,-12.325358
1005.988281,-1.186351,-11.079767,0.414019,-4.532335
1005.992188,1.897891,-10.574712,-3.368609,-1.551135
1005.996094,2.572236,-7.768231,-1.933666,-8.057926
1006.000000,-7.423662,10.463085,-0.023869,-3.479783
1006.003906,7.904995,5.075341,2.071482,-1.475513
1006.007812,6.203182,4.246569,12.216873,2.779652
1006.011719,7.967723,-1.346467,3.803745,4.541528
1006.015625,6.833837,10.220769,8.621707,4.744019
1006.019531,12.083958,13.451101,9.800300,6.992352
1006.023438,5.608151,15.210273,6.664406,16.400586
1006.027344,10.983568,15.932858,14.977807,9.589273
1006.031250,13.255398,12.419503,4.299317,8.518117
1006.035156,10.108488,11.831398,12.943582,3.923973
1006.039062,0.718656,6.670829,1.832145,10.925507
1006.042969,-0.505629,3.727298,2.351378,8.794583
1006.046875,10.293345,5.964016,-4.728401,1.414774
1006.050781,2.003200,-5.019097,3.230578,-3.560712
1006.054688,-6.418275,-2.092059,-4.412608,-1.792553
1006.058594,-8.126918,-4.899924,-2.811775,-4.263726
1006.062500,-0.860830,-10.574273,-6.511547,3.332807
1006.066406,-13.583748,-8.138012,-15.288015,-5.513665
1006.070312,-9.605765,-5.299242,-3.882476,-5.116307
1006.074219,-11.129660,-10.140678,-6.599401,-18.686046
1006.078125,-12.021754,-3.221908,-5.661816,-14.207049
1006.082031,-8.393121,-6.600540,-13.696839,-14.723762
1006.085938,-6.423540,-9.646381,-2.287529,-7.114145
1006.089844,-4.045822,-3.767983,-11.695330,-10.036117
1006.093750,-7.712017,-1.909899,-11.852567,-10.173546
1006.097656,-2.961731,-4.503756,2.478511,-3.680598
1006.101562,2.298795,2.336882,-2.414917,0.705089
1006.105469,3.907258,0.016211,5.525983,6.511245
1006.109375,7.947570,4.283729,-0.895491,2.798948
1006.113281,9.031975,2.202623,11.577153,6.027692
1006.117188,1.375162,9.508684,5.773457,7.803945
1006.121094,16.044425,6.656077,7.584951,15.238990
1006.125000,11.511297,13.626337,0.005136,10.509948
1006.128906,9.985690,6.783191,5.547790,7.125968
1006.132812,9.194980,7.887481,11.540685,8.612567
1006.136719,5.768458,13.029076,13.575298,9.669149
1006.140625,4.133878,1.697492,2.956517,10.146011
1006.144531,6.394553,12.579499,5.766399,5.504334
1006.148438,0.271171,1.416967,-3.087323,-0.535965
1006.152344,-3.373757,0.671086,4.541569,-0.252329
1006.156250,3.845241,-4.107233,-9.468564,-4.331454
1006.160156,-3.872697,4.866311,-7.173062,-6.174652
1006.164062,-9.878021,-7.393907,-12.311302,-5.185034
1006.167969,-8.789980,-15.819012,-9.225128,-3.520640
1006.171875,-16.661276,-3.932157,-11.004160,-9.648020
1006.175781,-7.221048,-7.362904,-7.596660,-11.087464
1006.179688,-0.814141,-11.347929,-5.504070,-8.861506
1006.183594,-13.388232,-6.662507,-8.478530,-5.358268
1006.187500,-1.628235,-7.578969,-12.726222,-10.709424
1006.191406,-7.235991,-6.131701,-11.371567,-2.549711
1006.195312,5.900721,-6.276623,-1.509317,0.088547
1006.199219,2.585949,1.498716,2.856320,-0.816131
1006.203125,-1.513890,6.100077,-2.376307,4.749933
1006.207031,0.956763,12.353851,9.383829,9.009603
1006.210938,11.743445,4.512629,6.334232,2.041836
1006.214844,4.855520,9.179557,3.590199,5.858305
1006.218750,11.957673,2.037433,8.868992,6.886547
1006.222656,12.530879,9.976888,11.068425,9.022683
1006.226562,8.280936,13.361261,5.616467,12.332371
1006.230469,12.800745,11.160791,5.723486,8.505696
1006.234375,-0.504456,3.313527,1.474919,10.550056
1006.238281,5.397241,4.487985,3.143286,1.242550
1006.242188,8.815207,9.440771,3.745252,1.732000
1006.246094,11.061959,6.536364,6.357189,2.650145
1006.250000,3.276940,-2.865003,-4.263352,1.239585
1006.253906,-3.444660,-2.256339,2.495305,-0.251413
1006.257812,-1.384394,2.989222,1.362460,-6.749819
1006.261719,-9.097698,-7.231231,-11.155748,-1.539832
1006.265625,-7.350809,-4.281806,-3.696851,-13.335798
1006.269531,-8.807784,-7.047890,-6.715165,-12.261459
1006.273438,-6.347037,-8.647903,-5.957814,-14.640832
1006.277344,-8.542439,-8.264746,-11.712247,-3.592752
1006.281250,-8.984266,-14.032726,-4.877780,-16.182852
1006.285156,-9.354378,-5.647931,-6.454944,-9.255826
1006.289062,-8.106293,-5.621189,-7.103408,-2.358194
1006.292969,-3.093219,2.027751,-6.172701,-0.391770
1006.296875,0.127425,4.591564,-4.474918,1.555336
1006.300781,-9.471186,4.394485,-6.135904,0.029989
1006.304688,1.474910,9.261583,0.095150,1.478067
1006.308594,6.538551,2.065321,7.707969,2.680821
1006.312500,5.026932,5.244353,6.216621,9.716351
1006.316406,13.489649,14.650917,11.583359,9.718557
1006.320312,3.294820,0.344318,13.756848,18.077653
1006.324219,7.799905,6.212418,2.285630,14.261540
1006.328125,15.691553,12.950793,8.669298,13.794629
1006.332031,9.265980,8.900369,5.046323,5.730788
1006.335938,0.874985,12.098786,9.230771,5.053236
1006.339844,10.231881,11.906302,11.694324,4.277493
1006.343750,11.627384,11.906100,2.623538,1.367847
1006.347656,-3.252373,2.099016,1.817945,2.911587
1006.351562,-0.154998,-0.433931,-4.454693,-10.420049
1006.355469,-4.646081,-5.471790,-5.111799,5.076113
1006.359375,-1.222299,4.777440,-5.130686,-4.988198
1006.363281,-2.891249,-8.878710,-5.084749,9.807028
1006.367188,-7.818054,-9.501804,-8.604617,-10.317308
1006.371094,-7.527919,-7.632829,-3.182140,-12.820647
1006.375000,-14.549834,-13.496492,-11.256282,-13.344454
1006.378906,-9.244664,-9.606471,-8.243506,-12.760462
1006.382812,-7.428311,-10.828272,-3.027830,-9.598168
1006.386719,-8.551526,-11.202917,-7.099495,-0.605642
1006.390625,-5.877311,-6.140628,-4.760663,-7.919545
1006.394531,-1.230205,-5.291077,-5.159194,-5.595330
1006.398438,-8.248548,3.619686,-4.006241,-5.493317
1006.402344,0.211368,1.576516,-3.253780,4.476278
1006.406250,6.145987,8.230951,3.800098,-6.582939
1006.410156,4.644243,0.262263,4.242508,6.298416
1006.414062,4.074050,11.419022,15.574672,8.076239
1006.417969,1.158003,9.775211,10.187842,8.159845
1006.421875,11.737920,14.047364,17.301219,13.323043
1006.425781,12.399397,6.643395,9.657943,10.039273
1006.429688,5.131480,11.973090,8.055385,7.893926
1006.433594,9.830964,20.036384,10.140881,8.175733
1006.437500,7.719900,11.763801,4.235979,5.725903
1006.441406,7.291617,-0.552225,9.113835,11.389528
1006.445312,8.930038,1.309109,1.502345,10.259318
1006.449219,1.356268,2.539176,-0.757147,-0.912102
1006.453125,4.674504,-2.442473,-8.253537,-9.292671
1006.457031,-4.140332,-0.522916,-12.335008,-4.320110
1006.460938,-5.894518,-6.279372,-4.360444,-7.231373
1006.464844,-8.727797,-9.739522,-5.985952,-11.855628
1006.468750,-9.438075,-11.707091,-12.533090,-3.900387
1006.472656,-14.085742,-8.513912,-10.267456,-5.380046
1006.476562,-10.131983,-15.078564,-10.032469,-7.955231
1006.480469,-8.328701,-11.477842,-1.998903,-9.908470
1006.484375,-7.847038,-4.430811,-12.593611,-1.484521
1006.488281,-6.468600,-6.531566,-7.316023,-10.672040
1006.492188,-6.518959,-1.255019,-8.144497,-3.449406
1006.496094,-0.443138,-1.403540,-1.170566,-3.914114
1006.500000,-3.208107,0.416263,-4.171875,4.475555
1006.503906,4.032983,-0.657414,3.712981,7.252899
1006.507812,1.670534,5.072724,2.880450,4.297661
1006.511719,9.991201,1.369094,10.603083,6.091917
1006.515625,9.923820,8.947322,19.029839,8.850862
1006.519531,11.731910,8.425224,6.386095,15.411968
1006.523438,9.487771,14.708188,6.862645,7.168299
1006.527344,13.784986,13.297893,6.115125,-1.701772
1006.531250,10.920857,13.015297,10.115519,8.195457
1006.535156,6.911259,6.046922,5.286130,13.937722
1006.539062,15.564199,6.458680,8.588816,9.545336
1006.542969,-0.511461,10.617357,-0.599904,8.384506
1006.546875,6.797089,0.481019,0.865417,-7.619927
1006.550781,-4.452775,-5.186442,-4.115465,2.798704
1006.554688,-0.832798,-3.919164,-4.019208,-6.368502
1006.558594,-2.173603,-1.639938,-5.198720,-7.462029
1006.562500,-8.576973,-1.733554,-6.540961,-11.964271
1006.566406,-5.528941,-7.266227,1.065544,-7.476253
1006.570312,-10.093478,-3.318319,-5.320632,-10.090682
1006.574219,-10.371531,-1.367865,-19.022375,-8.585476
1006.578125,-14.434748,-5.521747,-6.041460,-8.502650
1006.582031,-10.940295,-5.381717,-4.733984,-7.229808
1006.585938,-8.990828,-5.061553,-5.776337,-7.460859
1006.589844,-10.908437,-9.610743,-8.651709,-5.100601
1006.593750,-0.708522,-2.264063,-2.418768,-4.948839
1006.597656,4.371728,-8.542689,8.992078,-4.306568
1006.601562,2.896768,0.380493,-2.875354,2.581105
1006.605469,-7.284652,0.250282,-0.893899,2.993700
1006.609375,1.877382,7.164205,-2.127039,6.459732
1006.613281,12.967333,2.607678,5.730469,14.287681
1006.617188,10.960474,2.020713,8.964961,10.647109
1006.621094,13.146331,8.561712,12.470415,13.195975
1006.625000,12.015311,14.813758,7.587158,3.547402
1006.628906,11.954948,6.672403,14.920505,9.783314
1006.632812,16.960465,5.103467,0.003084,2.554157
1006.636719,10.512317,7.529850,8.374606,11.601684
1006.640625,11.644918,6.472145,4.889235,6.708238
1006.644531,-1.489917,4.934131,0.593404,4.510253
1006.648438,0.540327,4.602309,2.378649,1.947091
1006.652344,1.239824,-9.480467,-1.537791,-2.905899
1006.656250,-5.439784,-5.392052,-9.172602,-7.080398
1006.660156,-8.351421,-2.999216,-4.732539,2.636641
1006.664062,1.234436,-5.214724,-9.842147,-6.013317
1006.667969,-12.939067,-5.071334,-7.012583,-8.977495
1006.671875,-4.958202,-11.983070,-12.850760,-11.525869
1006.675781,-17.951153,-3.359842,-11.125933,-3.691616
1006.679688,-9.318406,-15.545128,-15.997860,-13.114202
1006.683594,-10.750796,-7.785152,-7.824187,-3.188020
1006.687500,-0.607914,-14.461518,-2.586644,-13.228194
1006.691406,-3.293202,-3.721302,-5.141873,-2.931746
1006.695312,-13.101799,-3.959538,-11.879511,-4.529156
1006.699219,1.813296,-4.244466,0.650429,0.728578
1006.703125,9.019270,4.818460,0.492661,-6.137529
1006.707031,4.973308,-0.936300,-0.220687,-6.975596
1006.710938,8.321292,0.015027,6.958271,4.340094
1006.714844,3.262420,3.361005,2.010405,-3.452452
1006.718750,12.618463,11.056796,6.779193,10.097898
1006.722656,12.365707,9.275936,10.804368,8.732301
1006.726562,8.637493,4.710786,1.983874,17.073737
1006.730469,10.823143,10.829016,5.366552,15.371469
1006.734375,11.147526,5.671730,12.972258,8.017630
1006.738281,-5.410817,13.739510,6.537472,8.839092
1006.742188,1.136954,10.960667,0.617912,6.944881
1006.746094,0.033376,4.201447,3.361763,3.159204
1006.750000,-0.895441,7.221718,2.605826,-3.512198
1006.753906,-4.356679,1.811342,-5.634375,-0.952068
1006.757812,-2.117153,-3.833449,-6.678597,-3.068779
1006.761719,-3.215964,-7.891128,-14.542664,-6.230531
1006.765625,-13.513432,-12.277874,-7.573473,-3.977079
1006.769531,-0.940168,-5.329103,-12.340420,-9.590416
1006.773438,-11.128813,-11.709996,-7.691682,-9.006389
1006.777344,-11.628098,-10.338490,-18.493027,-7.329286
1006.781250,-8.715839,-12.322994,-6.209774,-6.414889
1006.785156,-6.383722,-7.374327,-3.256939,-9.580271
1006.789062,-10.377871,-2.843661,-13.262399,-2.737386
1006.792969,1.639534,-6.878424,-5.702270,-6.151371
1006.796875,-6.417593,1.166541,-2.705574,6.746591
1006.800781,4.045773,-2.757071,4.472975,2.028666
1006.804688,5.164528,5.887148,1.710261,2.272157
1006.808594,-2.427079,2.807704,11.738097,8.582742
1006.812500,9.736988,10.357540,8.300069,8.318685
1006.816406,10.086192,17.953875,9.085430,12.157132
1006.820312,12.802589,11.289365,14.078771,7.571761
1006.824219,16.233489,6.159297,11.273623,13.508803
1006.828125,9.772684,8.480847,9.009469,7.171214
1006.832031,11.772292,10.478058,11.375365,7.740106
1006.835938,10.965185,2.993628,3.597931,8.524779
1006.839844,9.214305,12.704013,5.383734,11.452776
1006.843750,3.469145,6.263429,4.743160,4.335261
1006.847656,9.020419,-7.151225,-2.794931,1.140870
1006.851562,-3.411812,0.888677,-2.049140,-0.780604
1006.855469,-8.621013,-9.102156,-2.117453,-4.146533
1006.859375,-4.029005,-7.727827,-5.853243,-4.417889
1006.863281,-9.565890,-3.952630,-12.183607,-8.040401
1006.867188,-7.905108,-12.812689,2.767412,-8.105372
1006.871094,-5.908085,-11.463683,-9.078944,-9.351853
1006.875000,-11.654341,-7.562907,-11.137909,-4.867685
1006.878906,-10.402768,-11.908896,-4.775714,-13.864417
1006.882812,-7.419496,-10.933215,-9.114696,-10.106924
1006.886719,-5.490307,-8.410268,-8.367183,-7.994628
1006.890625,-5.142849,-6.500699,-1.238934,-5.261439
1006.894531,-4.538697,-2.175826,-2.451649,-6.387174
1006.898438,0.582486,-0.481106,3.562776,7.633943
1006.902344,0.662507,1.392886,7.493439,1.949699
1006.906250,8.688352,-1.919045,3.618959,-2.103499
1006.910156,11.821465,3.430183,2.171714,1.428316
1006.914062,7.978528,2.401141,1.840554,6.766641
1006.917969,12.482981,13.686152,11.340721,2.284616
1006.921875,8.577446,11.431478,8.710807,9.357439
1006.925781,7.594549,8.980191,14.913500,10.426749
1006.929688,8.399968,10.375097,13.325444,8.473750
1006.933594,6.651357,11.270694,13.493217,11.185730
1006.937500,-1.159244,7.103082,6.063124,8.227027
1006.941406,5.762092,9.429376,7.212807,6.069818
1006.945312,-3.622898,1.177463,0.927128,0.155886
1006.949219,0.480508,3.713013,-5.906123,3.688578
1006.953125,-2.397316,-0.379833,-11.114778,-11.130969
1006.957031,-2.399241,2.670307,-4.995471,-0.844906
1006.960938,-11.846989,-5.333240,-8.732564,-4.618365
1006.964844,-10.648251,-10.445351,-19.541867,-7.094977
1006.968750,-9.236917,-6.142741,-12.787739,-14.413194
1006.972656,-9.148496,-14.240404,-12.055869,-10.726601
1006.976562,-11.211652,-10.544704,-6.370578,-11.939686
1006.980469,-7.004606,-16.823677,-11.424468,-14.101076
1006.984375,-10.066910,-11.097746,-2.555779,-4.172540
1006.988281,-5.345370,-13.156786,-1.549332,-7.271424
1006.992188,-1.551446,-6.144200,-9.104127,-10.093992
1006.996094,-6.836517,-0.318308,-1.364656,-7.808140
1007.000000,4.466712,5.477230,-12.283429,-0.662373
1007.003906,4.727506,1.192076,1.333272,5.368029
1007.007812,4.465467,0.544242,0.738426,-3.252493
1007.011719,3.515877,11.031314,4.940751,7.050316
1007.015625,1.968591,0.655393,10.346293,5.040587
1007.019531,14.585936,5.221819,9.310391,11.500604
1007.023438,6.677863,7.174327,14.070394,11.542999
1007.027344,6.827945,11.657742,12.188607,11.136208
1007.031250,7.961679,4.004559,6.852344,9.661986
1007.035156,15.837309,6.228923,4.380301,9.860682
1007.039062,13.430279,13.357247,5.527047,6.715860
1007.042969,12.479831,4.448178,7.724443,1.030903
1007.046875,5.778336,5.499045,3.645094,-4.423357
1007.050781,5.039393,1.023311,-0.994964,-1.269173
1007.054688,-2.189575,2.690391,1.234926,-4.035119
1007.058594,-8.087564,-1.797248,-9.700478,-2.868154
1007.062500,-8.954672,-8.734634,-12.215112,-5.833719
1007.066406,-5.440187,-6.837284,-7.471767,-6.359869
1007.070312,-10.730344,-9.837607,-18.301687,-11.036758
1007.074219,-11.953730,-14.550402,-12.974523,-10.919082
1007.078125,-7.853212,-13.404680,-14.379815,-7.070373
1007.082031,-10.002563,-5.514288,-10.757186,-5.956680
1007.085938,-2.040285,-3.893419,-5.728054,-16.583782
1007.089844,-3.089561,-5.962087,-1.469618,-4.417356
1007.093750,0.589166,-2.000756,-0.124322,-4.798943
1007.097656,-0.978527,-3.055315,-2.953782,0.626845
1007.101562,5.665669,-7.296561,2.815293,0.368422
1007.105469,7.674954,5.529515,-5.049932,-1.618665
1007.109375,8.104931,-1.275604,-3.021538,8.884980
1007.113281,9.781029,1.238926,9.730442,4.526492
1007.117188,9.157197,7.395660,14.844010,14.504412
1007.121094,16.112823,12.820669,13.612342,14.194942
1007.125000,9.990411,12.244951,5.441932,0.958467
1007.128906,10.155760,7.956200,3.404337,8.540621
1007.132812,11.123528,12.597507,3.795623,4.147829
1007.136719,7.209942,8.839686,4.148372,10.289916
1007.140625,8.268926,6.216504,10.957990,7.139943
1007.144531,-3.115240,-1.467552,8.178810,4.266010
1007.148438,9.098660,1.025923,4.381295,1.531405
1007.152344,-2.224542,-6.087063,2.716377,6.286086
1007.156250,-2.337898,-10.721845,-0.691719,-2.252390
1007.160156,-5.577896,-6.577756,0.051174,-0.390647
1007.164062,-12.945306,-3.729976,-2.883151,-10.837251
1007.167969,-9.483106,-6.458533,-3.480461,-13.556210
1007.171875,-11.850790,-11.947248,-11.368389,-18.918631
1007.175781,-13.768984,-15.021118,-9.274449,-8.231783
1007.179688,-2.318960,-13.909032,-8.323908,-10.274083
1007.183594,-6.232552,-6.830894,-5.872982,-6.213002
1007.187500,-10.397710,-5.168902,-2.334517,-8.778193
1007.191406,-6.921941,-3.139947,-1.446988,-8.869216
1007.195312,-0.252841,-9.351311,-1.826512,-2.464376
1007.199219,-3.675138,-3.131617,2.682941,-2.072048
1007.203125,6.339346,6.920587,10.529789,3.359898
1007.207031,3.934563,5.344210,5.511566,5.480507
1007.210938,8.008070,-0.785569,5.878819,9.179196
1007.214844,9.729952,7.103225,0.672636,15.506786
1007.218750,14.397263,14.570635,13.582360,18.322964
1007.222656,16.920547,6.865170,17.460511,9.817516
1007.226562,11.166718,15.957048,11.022695,8.698222
1007.230469,16.132563,11.933033,7.273395,7.379736
1007.234375,8.591003,8.059767,14.926921,5.270493
1007.238281,7.973490,14.276834,13.204487,5.109656
1007.242188,8.349570,8.152961,8.969429,7.567853
1007.246094,5.687526,3.343813,6.236661,2.648257
1007.250000,0.526665,-0.770315,-4.543993,-6.881942
1007.253906,-5.195653,-10.386241,-6.750243,-1.973936
1007.257812,-3.579069,1.386477,-2.853158,-4.635086
1007.261719,-4.956543,-4.617697,-5.747964,-3.797225
1007.265625,-6.310739,-4.168032,-10.145511,-6.199483
1007.269531,-5.785740,-19.246412,-5.473958,-2.765791
1007.273438,-10.827226,-11.661681,-8.751224,-8.747101
1007.277344,-2.995506,-8.514395,-3.275906,-11.171714
1007.281250,0.893615,-14.268208,-7.748768,-12.764718
1007.285156,-2.670103,-13.211336,-4.013535,-12.886933
1007.289062,-5.542802,-3.948411,-4.662103,-9.249303
1007.292969,2.093913,-0.385750,-0.597555,-5.682577
1007.296875,-3.709902,-0.837167,-7.473377,-2.607947
1007.300781,-0.217492,2.816787,-3.932698,3.131639
1007.304688,6.064829,5.742849,-3.248740,2.373930
1007.308594,5.555943,2.304239,4.260308,7.238983
1007.312500,7.837524,5.771141,13.013691,5.266079
1007.316406,9.368083,10.349201,11.504551,15.851477
1007.320312,5.074321,7.547788,3.109343,9.483313
1007.324219,17.058856,11.385103,14.072182,10.056577
1007.328125,9.586164,13.802093,10.298498,16.199108
1007.332031,5.778807,12.068850,11.971875,3.171611
1007.335938,9.654885,-1.884734,5.853377,1.669742
1007.339844,11.820383,11.047345,9.374109,7.512221
1007.343750,7.708783,1.001724,-0.156069,5.464776
1007.347656,1.788219,6.025761,-1.056935,-2.797350
1007.351562,-0.288215,0.330540,-7.642528,-3.445156
1007.355469,-7.678143,-8.260986,-0.506688,-3.111375
1007.359375,-7.024138,-12.199528,-11.217620,-11.103016
1007.363281,-8.958841,-12.889950,-6.615236,-1.603426
1007.367188,-8.992631,-7.045905,-16.052561,-19.773967
1007.371094,-5.244762,-8.718138,-2.134672,-13.609841
1007.375000,-14.462376,-9.652801,-8.520701,-11.486167
1007.378906,-4.886457,-10.160737,-13.779656,-10.292850
1007.382812,-12.305572,-8.854534,-3.110039,-10.515608
1007.386719,-4.932656,-6.681728,-6.950427,-5.715174
1007.390625,-3.165335,0.950374,-2.131156,2.457598
1007.394531,-1.520303,0.698969,-8.589046,-5.477099
1007.398438,-9.244017,3.485448,-1.299844,4.121141
1007.402344,-4.244518,3.258933,0.980104,-6.266261
1007.406250,5.184255,6.212324,9.913799,2.104598
1007.410156,8.543826,9.366453,7.179935,4.918801
1007.414062,0.012435,8.789406,10.518303,3.738560
1007.417969,11.042488,5.235150,8.757121,5.553883
1007.421875,10.043993,14.023309,12.398650,9.110113
1007.425781,14.438931,11.232049,14.922489,11.088955
1007.429688,9.324340,5.472104,-0.376294,6.723032
1007.433594,15.737134,9.089698,7.479757,10.839156
1007.437500,-0.293525,2.939930,4.512762,8.786136
1007.441406,3.261231,8.203012,0.970865,-2.306920
1007.445312,2.180828,1.740842,2.808288,-2.526026
1007.449219,5.182850,3.903279,-0.151137,1.069088
1007.453125,-2.898458,-4.590685,0.487626,-5.132328
1007.457031,-3.490563,-4.437851,1.387768,0.804143
1007.460938,-3.640555,-5.916271,-10.292324,-2.834148
1007.464844,-11.202114,-7.331851,-6.408747,-1.982567
1007.468750,-10.606567,-9.295518,-17.857399,-12.877479
1007.472656,-9.425043,-10.183997,-15.707983,-3.253285
1007.476562,-10.805144,-12.110301,-12.460512,-12.542752
1007.480469,-3.500111,-4.141874,-11.571173,-11.066836
1007.484375,-3.817269,-10.090660,-10.328030,-4.591575
1007.488281,-7.038814,-6.276816,-4.103140,-11.205812
1007.492188,-3.914432,-2.126409,0.794161,-0.747705
1007.496094,-11.751408,5.105356,1.914321,3.550486
1007.500000,1.792941,2.168772,2.912341,1.022812
1007.503906,6.646933,9.568657,-1.641224,2.764602
1007.507812,9.547467,-1.975129,2.481015,2.255067
1007.511719,6.132279,11.157546,5.695955,5.304947
1007.515625,4.868451,10.758428,6.518258,3.413047
1007.519531,3.795718,19.931260,6.913849,11.137269
1007.523438,13.164866,11.215190,6.751602,17.075624
1007.527344,12.654801,9.035393,7.259767,10.495026
1007.531250,9.398356,11.231743,8.352798,12.595948
1007.535156,8.251804,11.769729,7.434707,5.500475
1007.539062,1.235906,11.910100,4.400827,12.178109
1007.542969,1.918428,3.027796,7.597594,-0.115373
1007.546875,-3.278715,0.696201,-5.529666,0.066592
1007.550781,1.758897,0.526789,-2.238218,-11.401050
1007.554688,-2.441855,-11.237324,-0.640162,1.601141
1007.558594,-5.565882,-2.926881,-5.731795,-7.265353
1007.562500,-3.500482,1.632754,-9.334188,-6.095973
1007.566406,-2.789339,-3.010851,-7.039583,-6.240284
1007.570312,-14.522936,-12.477276,-12.995506,-12.465901
1007.574219,-13.625356,-19.164115,-15.057515,-11.952299
1007.578125,-13.299239,-5.919425,-15.200615,-2.511992
1007.582031,0.104481,-3.987623,-11.996320,-5.091363
1007.585938,-10.620001,-10.837384,-10.011948,-13.266169
1007.589844,-4.085840,-8.069397,-6.912755,-5.632703
1007.593750,1.270279,-2.106466,-2.322592,-3.182519
1007.597656,-4.320802,3.626515,-10.537156,-1.488014
1007.601562,9.679141,2.563239,-2.884362,-3.533101
1007.605469,-0.302081,7.040183,0.586617,-0.576418
1007.609375,1.511257,11.806784,6.125298,3.636806
1007.613281,8.464231,4.339214,9.796596,-2.775711
1007.617188,11.013244,8.292921,6.540301,9.282471
1007.621094,-0.661086,12.514759,7.161608,13.086998
1007.625000,15.929156,8.740714,9.453011,8.609265
1007.628906,13.472877,9.981476,5.310520,1.798706
1007.632812,12.174445,16.390461,3.060038,4.138604
1007.636719,2.482375,9.238172,2.405945,6.630655
1007.640625,3.646910,1.236482,10.608459,11.179361
1007.644531,6.453803,-2.710617,7.943584,9.268612
1007.648438,3.417089,-0.276924,4.041041,2.103521
1007.652344,-14.652702,-4.336778,2.218324,-2.033307
1007.656250,-1.859530,-10.174569,-3.101079,-9.399986
1007.660156,-5.150579,-0.352466,-7.699295,-2.841091
1007.664062,-10.386179,-6.882286,-8.847977,-4.828630
1007.667969,-9.078244,-5.383812,-5.346211,-10.612962
1007.671875,-9.310167,-6.992873,-10.630368,-7.059607
1007.675781,-11.642854,-15.467750,-15.172542,-11.185664
1007.679688,-11.251630,-13.848946,-7.294264,-4.199264
1007.683594,-1.861572,-6.085756,-6.424031,-9.041784
1007.687500,-5.378998,-11.229407,-4.811627,-0.456848
1007.691406,-8.893192,-10.597851,-7.089319,-8.470969
1007.695312,-0.954978,-6.652188,-0.250273,-5.316257
1007.699219,-4.798805,2.397166,2.511150,-8.999943
1007.703125,1.122466,3.939097,-5.928717,-2.321275
1007.707031,6.825353,8.982654,5.775771,7.777532
1007.710938,6.841029,0.232604,9.646307,2.708991
1007.714844,9.737945,5.674621,3.700798,8.247168
1007.718750,7.218635,7.951446,11.843960,9.726186
1007.722656,-0.951376,17.939136,6.555200,12.623202
1007.726562,13.644189,15.545585,6.820526,7.897820
1007.730469,6.325711,3.733285,12.775831,7.589937
1007.734375,4.991726,0.477686,16.749956,11.067918
1007.738281,3.074499,9.495102,5.931284,3.821834
1007.742188,4.538015,-1.176474,6.335465,0.066208
1007.746094,3.355227,-2.897193,-5.137071,-1.472979
1007.750000,1.363956,5.133715,5.162747,-2.225579
1007.753906,-0.811068,-3.646282,-5.235252,-1.237838
1007.757812,-8.917475,-2.523841,2.837079,-7.054624
1007.761719,-11.425094,0.651727,-2.810647,0.902871
1007.765625,-1.204759,-6.379062,-8.187693,-16.136802
1007.769531,-20.249327,-9.922558,-8.088778,-13.810688
1007.773438,-9.946345,-10.368184,-6.945720,-7.560548
1007.777344,-4.463470,-0.339728,-10.914043,-7.808996
1007.781250,-3.896487,-8.310616,-12.047673,-14.052615
1007.785156,-10.156708,-6.546169,-15.466980,-10.434783
1007.789062,-12.504888,0.762678,-4.067533,-5.855169
1007.792969,-9.808053,-2.836572,0.338100,-6.133451
1007.796875,0.809428,-4.394921,0.984451,-4.386974
1007.800781,2.428312,4.812037,-0.386060,4.405718
1007.804688,8.271519,8.904267,9.544359,0.274935
1007.808594,4.853118,2.405500,5.826832,1.923507
1007.812500,4.541269,4.376421,7.046818,3.155016
1007.816406,9.463559,7.120244,2.099944,6.171623
1007.820312,12.216245,11.306712,14.609479,6.329773
1007.824219,14.615017,9.506306,10.562541,1.567532
1007.828125,10.369233,8.538000,15.314171,12.141899
1007.832031,12.182230,13.788205,9.634928,3.944938
1007.835938,3.617486,4.276989,14.255220,13.195990
1007.839844,13.139984,9.603296,3.747726,7.445385
1007.843750,5.831509,6.938415,6.031787,0.672300
1007.847656,0.376541,3.275240,6.553893,-3.746251
1007.851562,-2.230002,-8.677875,-6.852998,0.174243
1007.855469,-3.694725,-1.199521,-2.038405,-0.415887
1007.859375,-2.141178,-6.386660,-8.290488,-11.391354
1007.863281,-4.885119,-9.515645,-8.318234,-2.118299
1007.867188,-0.996537,-9.768745,-9.950097,-7.723050
1007.871094,-14.091028,-9.632564,-1.220123,-4.071449
1007.875000,-9.803918,-15.677067,-15.041891,-14.063145
1007.878906,-7.495129,-14.290070,-2.257956,-14.121293
1007.882812,-6.724687,-16.056538,-6.212583,-5.101281
1007.886719,-11.092297,-6.353307,-8.122614,-13.834917
1007.890625,-7.290041,-4.000315,-3.838105,-9.792757
1007.894531,0.744908,-0.159173,0.576557,-9.951456
1007.898438,-7.072503,-3.399732,-0.688716,-5.361175
1007.902344,7.744004,5.279933,-5.500747,3.361163
1007.906250,-0.895008,8.564113,0.530527,5.589192
1007.910156,-0.034057,6.857967,8.054967,3.603653
1007.914062,4.153533,6.738498,11.306625,12.392238
1007.917969,8.449638,12.120498,14.590601,10.887178
1007.921875,6.078415,9.008001,12.780981,12.754936
1007.925781,9.443249,19.692959,5.579834,17.797539
1007.929688,7.160915,11.837815,6.220903,9.345520
1007.933594,4.402004,-6.958262,5.435729,15.792835
1007.937500,9.693623,6.891646,2.797842,6.771684
1007.941406,6.023817,5.329864,6.207905,-0.642280
1007.945312,-5.695313,0.356370,0.044476,2.227861
1007.949219,-0.087965,-1.549074,1.789395,2.512460
1007.953125,-5.908498,-1.592725,-4.786854,-5.852061
1007.957031,-4.452439,-2.866910,-4.179542,-5.228271
1007.960938,-3.082339,-9.753832,-8.530516,-8.687573
1007.964844,-8.506033,-7.106478,-14.161836,-11.836160
1007.968750,-5.616995,-15.719522,-16.063246,-12.173927
1007.972656,-10.716502,-11.334529,-6.236853,-11.141121
1007.976562,-10.567183,-9.512195,-0.301842,-7.932241
1007.980469,-7.921648,-1.364921,-10.975956,-1.572800
1007.984375,-7.739479,-9.197159,-16.021775,-10.722956
1007.988281,-6.345407,-4.786739,-8.565985,-12.288399
1007.992188,-13.144911,0.118586,-13.698861,-5.385594
1007.996094,-3.117904,2.530153,-4.246080,-9.031364
1008.000000,0.906096,4.625131,5.569398,4.059463
1008.003906,9.580527,-2.573743,-2.842248,0.071405
1008.007812,1.350581,4.499204,2.000887,0.359228
1008.011719,0.844345,6.892773,11.652333,-0.454784
1008.015625,-0.110716,8.596796,6.642638,12.596888
1008.019531,3.554649,5.169474,13.219431,11.549998
1008.023438,13.620550,8.299700,18.109515,11.950478
1008.027344,10.251512,7.825942,7.245353,8.740128
1008.031250,6.673651,8.095380,6.822052,3.528622
1008.035156,10.516306,11.437326,9.176289,12.297670
1008.039062,-4.972522,10.984527,0.528513,2.593248
1008.042969,1.513634,5.116219,2.134102,1.688512
1008.046875,-3.681093,5.072566,-0.885652,-1.452319
1008.050781,-6.374355,1.947137,3.218637,-1.763542
1008.054688,0.995960,1.199812,-2.252088,-6.483915
1008.058594,-9.137881,-6.653384,-4.851242,-9.191560
1008.062500,-4.993073,-13.374851,-3.855176,-2.354486
1008.066406,-15.369196,-8.350596,-5.972778,-15.742280
1008.070312,-5.233017,-5.678663,-8.219970,-10.154060
1008.074219,-10.182325,-8.093676,-7.078545,-8.371945
1008.078125,-3.160291,-10.441063,-11.400102,-11.363897
1008.082031,-7.527641,-6.445101,-0.286126,-5.534003
1008.085938,-6.842052,-6.019593,-7.909838,-3.989643
1008.089844,-5.725034,-2.198972,-5.898207,-5.724296
1008.093750,-0.669166,-8.659874,2.879187,-0.752993
1008.097656,4.292193,0.993620,4.127104,-1.780153
1008.101562,1.668133,-6.211701,-0.327407,2.058555
1008.105469,5.360509,1.718704,2.468191,4.563258
1008.109375,7.726582,8.390870,10.668486,10.825774
1008.113281,7.145343,11.586226,4.928585,9.973511
1008.117188,9.513886,-0.305075,4.628191,9.887308
1008.121094,9.515845,7.014332,6.913309,19.288764
1008.125000,7.060603,9.893174,12.562988,10.568752
1008.128906,9.702629,14.937822,9.059011,12.231056
1008.132812,6.886531,6.533189,15.407138,6.247585
1008.136719,0.036275,7.777858,3.727988,5.269292
1008.140625,0.170392,4.684282,2.515507,3.872725
1008.144531,5.011031,2.386065,-3.844086,-1.002988
1008.148438,1.797508,-4.995743,-10.940451,8.596163
1008.152344,-3.893833,2.305543,-0.239257,-0.478960
1008.156250,-5.157059,-4.219008,1.348428,-2.562875
1008.160156,-4.721114,-5.544559,3.807827,-8.791611
1008.164062,-6.237666,-3.531563,-9.067978,-7.872579
1008.167969,-10.339722,-11.103124,-6.073336,-9.758710
1008.171875,-7.412929,-8.373725,-13.314309,-9.035137
1008.175781,-1.924088,-10.948088,-13.182857,-14.582737
1008.179688,-8.908966,-5.488911,-3.208670,-11.038092
1008.183594,-5.191274,-0.083304,-8.072350,-11.968258
1008.187500,-3.884811,-1.266503,-7.245442,-2.737095
1008.191406,-11.363081,-4.241955,-6.003349,-7.409206
1008.195312,-4.417126,-0.979488,-5.487014,-4.528815
1008.199219,8.630103,-3.953481,-3.313059,4.686950
1008.203125,1.466268,11.932232,2.681226,-5.332548
1008.207031,6.923478,8.458125,-2.325878,2.694666
1008.210938,3.686733,2.046883,8.587534,2.170629
1008.214844,9.356171,6.248106,11.822159,12.113505
1008.218750,12.040827,10.365870,12.015235,17.725919
1008.222656,10.340164,5.231837,9.461243,9.467787
1008.226562,10.915308,3.938666,10.925888,0.497793
1008.230469,5.724495,9.685079,12.720951,9.722239
1008.234375,4.063227,5.970148,10.928629,8.327890
1008.238281,5.484064,4.224097,7.580357,6.412078
1008.242188,11.736094,7.223650,5.385595,12.014360
1008.246094,2.727451,-0.171667,1.454305,3.430811
1008.250000,3.473199,-3.337227,-2.156918,-4.578097
1008.253906,-4.803730,-7.442749,-4.998128,-5.646262
1008.257812,4.138625,-1.603425,-4.979624,-8.495192
1008.261719,2.717330,-6.410456,-4.360162,-7.235711
1008.265625,-10.507263,-11.384209,-12.194079,-10.642937
1008.269531,-1.424737,-12.411838,-11.274872,-6.962556
1008.273438,-13.520450,-12.688801,-4.395920,-6.040121
1008.277344,-12.198333,-3.673761,-2.377235,-6.510769
1008.281250,-11.567898,-11.663756,-7.169292,-8.305498
1008.285156,-6.396927,-4.155980,-6.533601,-15.052044
1008.289062,-4.975937,2.221871,-7.135829,-9.152468
1008.292969,-5.084166,-7.582650,-1.115111,-9.294857
1008.296875,5.749323,-6.700171,-5.778245,0.135578
1008.300781,2.658836,-3.901199,0.377667,-3.722235
1008.304688,5.911917,3.391633,2.577638,3.907221
1008.308594,3.934405,10.413305,7.221741,1.828543
1008.312500,3.414088,-0.273298,6.281058,7.569372
1008.316406,14.918671,11.237918,12.663239,4.785783
1008.320312,-0.576312,4.456047,7.300955,8.805466
1008.324219,6.408744,11.431173,9.108524,11.870056
1008.328125,6.699450,12.234389,11.436182,9.639139
1008.332031,0.393956,14.073374,12.916724,17.940518
1008.335938,5.542321,8.620753,10.523942,1.841908
1008.339844,0.020474,13.538336,4.436415,7.405038
1008.343750,0.653729,3.833772,2.804120,2.093046
1008.347656,9.653508,-0.527777,2.672379,-1.910627
1008.351562,3.570868,-8.143974,-0.894171,2.210217
1008.355469,-4.346234,-9.252786,-10.240642,-6.878889
1008.359375,-6.656823,-4.979169,-6.480112,-8.925539
1008.363281,-12.195559,-8.812029,-7.611849,-11.626541
1008.367188,-8.045935,-3.790997,-16.396789,-7.192206
1008.371094,-10.001746,-11.538685,-14.509336,-5.122194
1008.375000,-14.455644,-16.821184,-11.368919,-18.126034
1008.378906,-7.866083,-0.078703,-10.288171,-10.137041
1008.382812,-9.401170,-8.341813,-9.357810,-7.951962
1008.386719,-15.539925,-3.468249,-12.905219,3.349978
1008.390625,-4.133680,-3.469922,-4.004807,-5.867332
1008.394531,-3.250228,-5.280275,1.050505,-6.248376
1008.398438,-8.673223,-3.156192,0.769998,-2.552714
1008.402344,2.925671,11.509041,-1.492404,1.350742
1008.406250,5.921333,2.533509,-2.117380,10.163722
1008.410156,7.740103,7.120099,6.168240,2.495954
1008.414062,15.695678,4.308879,7.140344,3.892996
1008.417969,7.633129,8.782879,1.074784,9.765209
1008.421875,2.111540,14.055142,9.596661,9.565371
1008.425781,5.389591,8.131550,7.747945,3.381829
1008.429688,10.916076,10.333649,11.401433,10.185678
1008.433594,2.108908,6.629077,20.534169,7.423084
1008.437500,3.594640,6.773616,11.903478,8.406328
1008.441406,5.747220,2.907282,5.225121,8.185385
1008.445312,5.739354,-0.635223,3.355528,4.230395
1008.449219,-0.223286,2.893254,1.914466,6.230849
1008.453125,-1.731277,1.639892,-5.068308,3.587229
1008.457031,2.840104,-6.077875,-5.884516,-7.221388
1008.460938,-4.322749,-2.237984,-12.315774,-11.073608
1008.464844,-6.548410,-8.856024,-10.046302,-10.789643
1008.468750,-0.813035,-8.358535,-8.875425,-14.504282
1008.472656,-7.657959,-11.347222,-9.545834,-14.417268
1008.476562,-5.496696,-16.876237,-5.493767,-10.174891
1008.480469,-6.729271,-10.402824,-11.170838,-6.240908
1008.484375,-15.398128,-13.147354,-7.682731,-7.518480
1008.488281,-11.233804,-4.374922,-7.666571,-14.936340
1008.492188,-5.302761,-6.279663,-0.781008,1.272561
1008.496094,1.807085,-0.198317,-0.371438,-0.333761
1008.500000,-5.120756,3.632983,-1.471175,-0.358684
1008.503906,4.318743,5.329983,5.651161,3.101558
1008.507812,-0.081520,-0.745197,-0.650390,5.125678
1008.511719,3.358423,7.484678,10.384943,3.305304
1008.515625,7.844739,15.278128,16.531288,13.823257
1008.519531,4.171722,15.349857,8.927053,9.961956
1008.523438,9.575520,9.827703,9.497563,4.321211
1008.527344,13.680452,9.092134,3.681158,11.752262
1008.531250,15.735167,4.625935,4.819284,6.330715
1008.535156,6.859232,14.139061,10.518998,7.881641
1008.539062,8.913857,5.579687,3.449364,4.006430
1008.542969,11.245296,3.527802,5.783143,11.977914
1008.546875,0.822015,1.955223,1.649747,2.813591
1008.550781,-2.522153,-3.654477,5.624399,-0.069739
1008.554688,5.629840,-10.686531,-0.885998,0.473732
1008.558594,-9.295191,-2.445955,-12.373068,-13.839719
1008.562500,-14.813443,-9.639000,-3.367533,1.292996
1008.566406,-7.531157,-8.944681,-7.628941,-7.966834
1008.570312,-8.486995,-4.942385,-5.659550,-5.342854
1008.574219,-9.541712,-18.912882,-10.917172,-16.246144
1008.578125,-4.116164,-11.579928,-13.778519,-11.160792
1008.582031,-10.474754,-10.306865,-9.311721,-5.432135
1008.585938,-5.579004,-7.100275,-9.645760,-6.648548
1008.589844,-6.002612,-6.743172,-7.170731,-11.224930
1008.593750,-7.140222,-5.393648,-2.629012,-5.242198
1008.597656,0.938689,-1.752451,-0.413675,0.623259
1008.601562,0.356199,0.363972,-8.264966,3.573306
1008.605469,-0.341237,0.817038,1.381257,0.686185
1008.609375,1.475478,2.052795,8.585935,0.544210
1008.613281,8.764439,6.890936,10.252972,7.680134
1008.617188,8.507520,7.183866,0.625699,8.750018
1008.621094,10.502990,10.404945,11.446199,15.604482
1008.625000,14.316639,3.235293,15.137982,16.841990
1008.628906,9.170935,12.377716,1.771638,12.383484
1008.632812,14.139092,6.185509,8.164587,9.974877
1008.636719,3.873835,11.122030,12.157739,1.774228
1008.640625,3.433167,6.194505,-2.953058,3.588587
1008.644531,-1.915343,1.328458,-3.422190,2.095752
1008.648438,8.000501,-6.128204,11.880967,1.806564
1008.652344,-9.824032,-1.131171,6.367132,0.283245
1008.656250,-2.878460,-3.571925,-6.513977,-2.417712
1008.660156,4.633101,-5.047427,-6.853641,-0.281172
1008.664062,-7.392720,-16.689749,-15.546254,-10.869820
1008.667969,-10.036186,-12.707806,-11.079883,-5.550358
1008.671875,-10.528663,-14.163026,-13.541693,-15.034207
1008.675781,-12.368148,-12.681005,-8.902021,-9.225160
1008.679688,-7.149074,-8.175561,-11.820893,-3.672602
1008.683594,-10.598564,-9.520108,-10.942935,-9.348354
1008.687500,-13.008627,-1.187608,-18.630828,-10.805023
1008.691406,1.684617,-7.914841,-11.676169,-5.576686
1008.695312,-8.066290,-5.539928,-9.325712,-0.907598
1008.699219,-4.484906,0.669425,-3.025772,5.473233
1008.703125,4.148522,-4.465465,6.962538,-5.395935
1008.707031,-1.124187,1.419764,4.895525,3.692569
1008.710938,11.142347,9.198175,9.390366,5.719186
1008.714844,9.621107,5.080118,6.865663,2.238240
1008.718750,4.173491,4.831800,6.178263,16.666127
1008.722656,7.769098,6.735118,3.986662,8.712497
1008.726562,11.742569,6.132403,7.027188,6.904357
1008.730469,15.547201,3.978301,8.057587,3.763233
1008.734375,9.042848,5.393615,5.881939,6.525756
1008.738281,9.231733,10.836080,8.816772,9.218515
1008.742188,-2.752521,-2.420168,0.118538,5.923325
1008.746094,6.164476,-1.050737,-5.676506,4.175139
1008.750000,-5.454068,1.317185,3.198815,-0.678690
1008.753906,-2.552274,-3.378594,-4.218718,3.184801
1008.757812,3.536266,0.024885,0.259563,4.236213
1008.761719,-7.481000,-2.346210,-9.976564,-7.831226
1008.765625,-8.486415,-10.171456,-14.494315,-7.006147
1008.769531,-9.694003,-5.674803,-11.925959,-11.554249
1008.773438,-8.728927,0.420349,-16.292192,-0.833181
1008.777344,-6.047003,-9.210155,-4.742357,-4.065535
1008.781250,-14.666725,-14.127849,-12.637241,-9.826418
1008.785156,-4.534849,-3.027782,-5.314213,-2.218246
1008.789062,-7.456976,-14.126509,-8.153462,2.041589
1008.792969,-2.222295,-1.451424,4.816869,-1.436343
1008.796875,-2.453623,-1.478334,0.403141,6.305985
1008.800781,-1.892952,5.150632,4.137306,2.459060
1008.804688,5.180633,-4.042131,6.070543,-3.639867
1008.808594,5.564091,10.760008,-4.693189,10.124331
1008.812500,15.465346,6.792046,5.530285,4.620811
1008.816406,1.946845,6.875646,8.411340,15.934407
1008.820312,12.416495,3.595823,16.910680,5.328089
1008.824219,9.659836,12.846067,13.944990,17.327892
1008.828125,9.991842,13.108280,8.530588,9.169085
1008.832031,4.937903,11.925845,11.371071,16.490023
1008.835938,8.701240,10.200645,7.504155,0.900692
1008.839844,5.936276,9.539049,5.061738,6.386004
1008.843750,2.981094,1.063090,5.036848,1.920988
1008.847656,8.315741,0.855797,0.836841,7.851911
1008.851562,2.096573,-0.319431,-4.318554,4.408298
1008.855469,-4.707148,-5.449232,-6.362265,-3.092414
1008.859375,-2.139238,-3.580732,0.568188,-9.817774
1008.863281,-1.679627,-11.214873,-12.122620,-5.824929
1008.867188,-6.870062,-14.343681,-11.266958,-7.611448
1008.871094,-4.175385,-4.986842,-16.471880,-7.071349
1008.875000,-14.469985,-13.981571,-9.582876,-13.382732
1008.878906,-13.832493,-5.889683,-6.172688,-10.590691
1008.882812,-11.288964,-4.110596,-11.392242,-10.902407
1008.886719,0.520251,-13.571078,-9.727528,-13.385667
1008.890625,-14.478780,-7.447888,-3.339490,-7.347647
1008.894531,-1.970435,-7.773857,-0.256025,-6.789857
1008.898438,5.741349,-2.718584,-9.291974,-0.737144
1008.902344,5.328754,6.717137,-1.981215,-4.984781
1008.906250,-0.987038,0.440093,11.022660,5.151600
1008.910156,8.782972,7.703102,12.146417,1.943263
1008.914062,1.180249,7.812027,16.551443,-0.388304
1008.917969,16.220582,5.231249,6.219551,13.311135
1008.921875,16.240998,8.968146,10.364636,7.159027
1008.925781,9.742688,8.217221,6.975974,6.341637
1008.929688,8.395421,9.488430,10.416185,14.792259
1008.933594,9.813964,2.989529,11.294882,7.887085
1008.937500,12.270943,10.360763,9.532935,5.108947
1008.941406,1.301683,-0.365585,7.566539,-0.330370
1008.945312,3.691924,4.782312,-1.438612,11.162583
1008.949219,2.775556,-2.040144,2.237221,-13.271145
1008.953125,-6.692689,-3.159515,-7.263744,-3.660035
1008.957031,-5.119105,-1.218875,-1.499098,-4.872158
1008.960938,-5.683855,-6.909993,-12.721319,-3.306131
1008.964844,-10.088619,-10.980093,-11.055125,-10.319976
1008.968750,-4.714547,-6.687973,-8.480341,-7.966986
1008.972656,-13.102556,-16.348697,-15.138971,-12.648429
1008.976562,-8.098957,-5.067958,-15.300634,-17.589489
1008.980469,-8.615785,-7.505105,-10.975969,-14.405776
1008.984375,-7.412481,-6.172534,-10.923751,-11.417322
1008.988281,-5.192435,-13.202633,-8.287111,-9.240074
1008.992188,0.264661,-6.203241,-2.069260,-10.148878
1008.996094,-3.383810,1.306767,-6.770492,-1.379087
1009.000000,1.475606,2.284228,1.955346,1.220255
1009.003906,7.384504,-8.119592,2.707941,8.385694
1009.007812,3.681256,6.584041,1.009336,5.893096
1009.011719,2.942662,11.344872,5.658656,6.689167
1009.015625,12.626716,11.053820,3.237889,8.773083
1009.019531,14.577795,6.040549,10.898909,13.561849
1009.023438,8.924305,9.482313,5.610316,6.057159
1009.027344,15.202732,11.257931,13.124585,0.235941
1009.031250,9.388311,13.938077,8.566790,10.428484
1009.035156,13.056778,4.354321,7.289713,7.593020
1009.039062,3.827660,9.178338,11.015449,10.400309
1009.042969,0.608565,0.391270,1.611418,5.912011
1009.046875,0.277671,-3.646515,7.058917,6.755630
1009.050781,5.137682,-1.763751,-0.583337,-4.426948
1009.054688,2.837880,2.152208,-5.415238,-8.190131
1009.058594,1.751507,-5.269683,1.632243,-4.987274
1009.062500,-14.403805,-4.155749,-9.016881,-4.180264
1009.066406,-11.670200,-4.425626,-10.986688,-3.784962
1009.070312,-8.060924,-8.262683,-13.655690,-7.592338
1009.074219,-10.178518,-15.061219,-9.898200,-15.304023
1009.078125,-7.470666,-6.843809,-10.853252,-9.636297
1009.082031,-12.385182,-16.676856,-3.554804,-12.606676
1009.085938,-4.242025,-5.787112,-3.094018,-5.769252
1009.089844,-9.867936,-7.608107,-2.913329,-5.804060
1009.093750,-8.747553,-9.959026,-5.460842,-8.478159
1009.097656,2.895709,-2.297196,-13.528183,-1.546542
1009.101562,-4.228813,0.785440,-3.248408,5.907518
1009.105469,6.923516,6.357674,5.826137,3.457646
1009.109375,3.975173,8.199466,0.888084,11.248466
1009.113281,9.715241,10.919900,0.784944,5.962891
1009.117188,6.608392,12.930392,6.586153,13.900508
1009.121094,15.262939,12.021179,10.841046,8.051147
1009.125000,5.906795,8.773853,11.217243,5.582066
1009.128906,5.780300,13.970163,4.775932,9.300728
1009.132812,12.072383,11.595130,2.541424,9.184419
1009.136719,10.568974,11.720930,5.614029,1.044187
1009.140625,11.582013,3.665638,4.241380,6.611150
1009.144531,7.134843,4.985742,5.224707,-4.022600
1009.148438,-2.166641,4.215906,-2.816212,-4.170934
1009.152344,-5.551721,-7.019037,-3.343421,-6.432407
1009.156250,2.369931,-2.983872,-5.257918,-0.149540
1009.160156,-1.905668,-9.435332,-2.597337,-2.849637
1009.164062,-6.870061,-6.403897,-8.466881,-13.786383
1009.167969,-12.757049,-4.547500,-6.325572,-7.397272
1009.171875,-10.486242,-10.711698,-7.555338,-1.375372
1009.175781,-3.704182,-5.527083,-16.797704,-8.385865
1009.179688,-16.156896,-14.939275,-11.290530,-12.688581
1009.183594,-9.401905,-8.937898,-8.646344,-17.848562
1009.187500,2.156858,-5.621056,-3.598126,-6.812010
1009.191406,-1.917942,-4.951532,-5.013868,-7.217844
