timestamp,TP9,AF7,AF8,TP10
1000.000000,-1.301783,2.440556,0.195865,2.666026
1000.003906,4.660482,6.332065,-1.992347,0.034204
1000.007812,6.059498,2.836769,13.237520,3.837909
1000.011719,3.672642,3.705096,5.944964,8.274119
1000.015625,12.264214,10.113130,12.881753,12.308715
1000.019531,3.716236,5.975952,5.313288,3.333761
1000.023438,7.738211,7.025260,10.217134,13.271347
1000.027344,9.781634,14.104342,8.790524,4.917344
1000.031250,5.453661,11.657023,11.030845,4.314064
1000.035156,9.593427,4.022670,-3.629825,9.002498
1000.039062,5.014901,10.790516,5.328193,3.633093
1000.042969,7.679680,7.824098,1.322129,0.251304
1000.046875,-7.224129,-0.741587,-2.679865,-3.895981
1000.050781,1.180346,-1.456330,1.751039,-4.733235
1000.054688,0.771495,-2.112977,-1.263687,-1.082053
1000.058594,-13.042000,-2.637635,-3.713570,-3.238651
1000.062500,-9.098338,-10.946005,-4.062567,-7.084793
1000.066406,-3.287648,-16.067040,-13.730093,-9.032908
1000.070312,-7.526819,3.320537,-13.028785,-11.114006
1000.074219,-7.584905,-5.709333,-8.038564,-8.744130
1000.078125,-12.177706,-10.985119,-13.150089,-7.778788
1000.082031,-6.958524,-11.520940,-12.073326,-7.840053
1000.085938,-11.171729,-13.830311,-6.554034,2.300339
1000.089844,-7.822289,-9.855719,-8.125687,-5.147425
1000.093750,-3.523944,-2.592777,-2.143804,3.017856
1000.097656,-2.681188,-1.077409,1.502613,3.013224
1000.101562,-4.868955,0.730057,8.142964,5.698129
1000.105469,4.732900,8.611089,6.637163,-0.292138
1000.109375,6.528684,5.617592,7.450445,5.416044
1000.113281,2.507749,5.728302,6.858301,5.642762
1000.117188,13.805612,8.467380,12.964418,6.473897
1000.121094,8.279912,13.137261,11.392712,6.922296
1000.125000,8.942458,15.362928,15.146287,8.120159
1000.128906,8.215776,9.880336,4.671131,12.385673
1000.132812,15.569772,9.839125,8.723152,8.324128
1000.136719,-1.530801,8.620963,4.022205,11.649680
1000.140625,3.317799,10.167766,9.727977,8.422937
1000.144531,-2.334067,4.290885,12.756226,5.756974
1000.148438,-0.917218,6.291493,-2.491506,2.221899
1000.152344,-4.074920,5.705307,-1.903491,1.374912
1000.156250,-2.239749,0.840418,-9.435174,-4.761418
1000.160156,-9.643285,-0.662071,-13.160954,-8.589907
1000.164062,-14.599597,-12.819669,-3.923410,-7.847827
1000.167969,-17.264404,-16.124102,-5.957314,-10.712215
1000.171875,-10.904676,-11.431634,-5.924193,-15.154067
1000.175781,-12.187776,-15.468623,-11.740311,-10.448341
1000.179688,-14.371760,-10.433981,-6.016672,-14.585094
1000.183594,-7.569985,-5.406446,-3.714106,-9.003921
1000.187500,-6.472822,-5.514526,-12.691274,-5.092446
1000.191406,-0.736624,-2.020320,-3.197374,-13.623643
1000.195312,1.459451,-1.967874,7.266833,-2.069502
1000.199219,-0.973919,-1.776792,-7.911043,0.271035
1000.203125,2.561915,-4.754703,6.883836,2.570523
1000.207031,7.256915,4.664724,-0.516922,6.151335
1000.210938,4.916955,6.971212,9.990102,7.778384
1000.214844,3.632625,-4.270362,10.168174,9.629550
1000.218750,9.450920,5.786880,13.469102,11.846688
1000.222656,6.149866,3.350453,8.745231,8.716414
1000.226562,15.307438,11.153856,10.444979,12.371080
1000.230469,7.750025,10.987758,6.690384,8.624251
1000.234375,4.373210,7.234430,9.647355,4.870370
1000.238281,7.567505,10.389127,7.535857,6.640535
1000.242188,4.682270,10.038836,2.663533,7.545268
1000.246094,2.664927,6.393999,-2.486658,4.551002
1000.250000,-4.513549,-1.599112,-4.347399,9.264133
1000.253906,-1.024681,-1.179922,-4.847173,-0.622653
1000.257812,-10.965217,1.744964,4.195505,-3.150015
1000.261719,1.239246,-9.050510,-6.418445,-8.943164
1000.265625,-2.738318,-2.151786,-5.277899,-2.645328
1000.269531,-13.228768,-11.889060,-5.440180,-6.494959
1000.273438,-10.062205,-12.261193,-4.940592,-6.537211
1000.277344,-15.436943,-12.153256,-8.997716,-11.298347
1000.281250,-15.042221,-8.126935,-8.934058,-9.109400
1000.285156,-4.255395,-7.194670,-7.339689,0.465211
1000.289062,-4.385476,-1.579774,-12.473750,-2.797510
1000.292969,-3.126567,-14.130827,-3.976668,-0.536576
1000.296875,-0.311566,-3.897353,-3.512283,-2.235221
1000.300781,6.657586,3.613457,0.575981,3.742794
1000.304688,6.860754,4.387543,4.365236,-2.241729
1000.308594,3.654716,5.877250,4.119666,11.399170
1000.312500,9.409887,4.111088,8.476416,7.435949
1000.316406,5.928382,8.391185,8.796918,6.504170
1000.320312,13.745619,2.490931,13.353680,4.123551
1000.324219,14.566731,13.969948,7.506838,8.085602
1000.328125,6.208277,10.420166,10.610864,10.618196
1000.332031,12.465270,6.757395,2.748717,1.545601
1000.335938,15.128573,5.139734,10.184978,1.252490
1000.339844,9.540654,4.671763,7.299808,4.075625
1000.343750,8.523481,1.852384,-1.456097,4.494161
1000.347656,4.973858,0.578188,3.692134,2.010409
1000.351562,1.741119,6.829933,-2.088868,1.058361
1000.355469,-10.238522,0.638491,-8.840552,-8.258076
1000.359375,-10.014475,-9.744215,-9.676478,-1.717555
1000.363281,-3.038832,-3.840142,-2.928375,-12.307723
1000.367188,-17.073306,-6.571150,-11.176709,-10.641786
1000.371094,-9.269511,-15.979160,-8.950186,-16.928328
1000.375000,-13.315283,-5.816635,-6.535914,-11.591774
1000.378906,-11.412380,-0.211338,-7.644465,-7.111106
1000.382812,-6.702793,-3.285691,-20.185242,-12.179390
1000.386719,-7.954655,-6.744719,-5.444788,-7.512116
1000.390625,-3.925653,-4.569636,-3.658715,-10.706200
1000.394531,-2.273627,-5.313425,7.561705,-4.596044
1000.398438,2.438445,0.919835,-0.748955,-1.511375
1000.402344,2.692911,1.292989,1.167714,-2.043450
1000.406250,-0.112409,6.442575,12.756326,5.089851
1000.410156,2.365791,8.547988,-4.190543,8.839829
1000.414062,8.697478,10.961708,2.453139,12.274479
1000.417969,4.740397,4.967595,15.221386,9.756081
1000.421875,8.501574,9.724363,9.326026,4.237578
1000.425781,6.752009,18.497479,16.922235,15.559380
1000.429688,9.256605,4.359685,17.749151,10.064509
1000.433594,9.984152,4.372829,14.410759,5.850035
1000.437500,2.000407,9.467833,2.838155,4.108303
1000.441406,3.005688,5.493385,2.202018,5.570513
1000.445312,-6.817075,4.355858,0.837048,7.905742
1000.449219,3.536087,-2.125145,-2.075816,5.255941
1000.453125,-5.630749,3.615199,-7.634004,-8.187829
1000.457031,2.274012,-2.232722,-9.516967,-12.279330
1000.460938,-9.996345,-5.457181,-3.659551,-6.894828
1000.464844,-4.166530,-0.208403,-4.483692,-8.706349
1000.468750,-10.250310,-6.294312,-3.105407,-16.291826
1000.472656,-19.025177,-13.539383,-9.859544,-9.147803
1000.476562,-17.932852,-5.054967,-6.155221,-10.221111
1000.480469,-11.467767,-12.364331,-6.663087,-7.321387
1000.484375,-20.006878,-8.860257,-5.267800,-8.756215
1000.488281,-10.309384,-5.117229,-11.400973,-4.275103
1000.492188,-3.120497,-13.211242,-6.714368,-7.179124
1000.496094,1.932033,-0.859141,-4.193729,-4.282487
1000.500000,2.863590,-0.368824,2.325299,-2.377376
1000.503906,-4.959711,2.087834,8.066844,0.174349
1000.507812,9.470340,0.920852,-1.526989,2.660209
1000.511719,5.668434,13.449080,6.965296,8.217599
1000.515625,9.511614,0.201475,-0.336747,7.616506
1000.519531,9.065553,6.642193,5.230555,16.229953
1000.523438,10.709888,7.625918,11.090248,2.893160
1000.527344,6.907053,7.885303,6.909544,17.543480
1000.531250,6.762508,6.388913,8.874720,8.948213
1000.535156,13.447250,10.856131,0.495130,10.849067
1000.539062,7.934928,3.874251,5.677795,-0.562613
1000.542969,2.666732,4.265505,8.698343,8.965173
1000.546875,2.301271,5.322949,3.904215,5.878039
1000.550781,-3.471207,1.170354,-4.845365,-5.425608
1000.554688,-3.726610,3.080612,-1.444098,-5.975773
1000.558594,-4.255180,-11.733544,-10.610676,-6.919945
1000.562500,-11.870006,-12.780750,-1.158951,-2.190004
1000.566406,1.455011,-5.966861,-10.205042,-15.310797
1000.570312,-14.311450,-5.254676,-6.483203,-5.239037
1000.574219,-16.646351,-8.401293,-10.347325,-9.643207
1000.578125,-6.000580,-7.488848,-5.537587,-6.402249
1000.582031,-9.845474,-4.588111,-6.128630,-5.473784
1000.585938,-12.367109,-7.328259,-8.002957,-13.924189
1000.589844,-5.999116,-5.695117,-11.422931,-11.628719
1000.593750,-7.334242,-6.757707,-1.875477,-11.314589
1000.597656,-0.125923,2.989442,0.990313,5.277120
1000.601562,1.697474,-0.148165,-0.862323,1.007213
1000.605469,7.768832,3.212934,5.848451,6.355356
1000.609375,11.354272,9.206673,10.483273,8.119888
1000.613281,19.276126,13.184008,12.510772,4.731627
1000.617188,7.855892,10.999329,9.007320,15.476469
1000.621094,3.997537,0.564193,8.285291,9.488234
1000.625000,10.896018,10.288124,14.321496,5.342143
1000.628906,11.240803,12.215831,11.995126,2.291890
1000.632812,4.235581,5.037095,4.312293,3.280722
1000.636719,3.979323,10.243348,8.160328,3.170601
1000.640625,3.519262,8.858442,9.142880,8.969871
1000.644531,10.348706,9.976770,1.608178,7.560024
1000.648438,-9.130854,-1.311351,4.404583,-3.701152
1000.652344,0.797189,1.705562,-0.139541,0.272756
1000.656250,-1.285270,-5.226417,-5.335792,1.929011
1000.660156,-4.630440,-6.377415,-12.208922,-4.951838
1000.664062,-2.347900,-4.051767,-14.341586,-11.982035
1000.667969,-11.617983,-12.826985,-18.640413,-8.122693
1000.671875,-16.401436,-6.284040,-5.499987,-11.041349
1000.675781,-2.481044,-9.653795,-15.187738,-8.471495
1000.679688,-21.518156,-15.959397,-11.669039,-10.432572
1000.683594,-6.274425,-3.800781,-13.174335,-1.983034
1000.687500,-1.868941,-10.365783,-8.218931,-6.037937
1000.691406,-11.882674,-2.357649,-1.558225,-6.883481
1000.695312,-2.342706,0.866635,-5.063767,3.833456
1000.699219,-7.125286,1.634538,-0.302762,3.405880
1000.703125,-0.004495,3.609280,-0.416434,0.862407
1000.707031,6.092063,2.244173,-0.346564,0.558059
1000.710938,8.612443,2.876865,1.031794,12.621383
1000.714844,12.643604,8.010526,5.610392,10.549784
1000.718750,7.911708,15.072743,16.456922,1.640048
1000.722656,9.931528,13.032123,9.381862,10.965395
1000.726562,2.431229,9.429977,15.327636,12.853320
1000.730469,9.012383,8.049905,12.537450,10.857058
1000.734375,9.127922,8.253737,2.169732,16.727688
1000.738281,4.836398,7.023546,11.514235,4.531363
1000.742188,6.618660,-3.054202,0.602544,11.222038
1000.746094,7.662114,-1.569714,-1.308484,4.666192
1000.750000,-0.608903,-0.074196,1.509457,-1.147470
1000.753906,-5.884467,3.970272,3.787437,-8.160611
1000.757812,-6.993048,-11.857277,0.398454,-12.371313
1000.761719,1.229222,-5.368794,-13.673077,-4.031168
1000.765625,-16.057236,-11.186832,-2.736531,-2.726914
1000.769531,-10.391302,-13.057380,-12.219009,-14.210733
1000.773438,-5.828688,-6.017748,-0.685785,-6.393934
1000.777344,-12.531299,-13.529214,-10.329081,-14.371400
1000.781250,-11.757895,-13.046544,-12.835791,-7.731468
1000.785156,-12.776086,-9.860659,-14.283414,-8.447494
1000.789062,-6.952668,-6.475246,-5.865704,-4.398782
1000.792969,-1.370775,-0.697702,-10.745748,-4.627852
1000.796875,-1.523297,3.833321,-0.760556,-3.414830
1000.800781,-0.837807,5.199138,-0.977484,3.725605
1000.804688,6.924290,5.483976,6.873910,2.744734
1000.808594,1.082556,4.716264,3.839745,4.924340
1000.812500,10.266516,4.486205,6.442301,16.429724
1000.816406,8.006346,6.590844,12.715100,11.744539
1000.820312,13.480955,3.497456,10.866220,14.942918
1000.824219,5.330643,10.490337,21.466407,11.206824
1000.828125,12.678459,6.695118,3.637068,12.387477
1000.832031,10.091645,11.537400,1.531617,13.849599
1000.835938,11.183118,8.209793,9.104613,2.194078
1000.839844,1.254305,7.362443,7.076653,9.147683
1000.843750,1.878889,5.538631,2.763878,3.319400
1000.847656,-0.700158,1.403376,-0.890056,4.609152
1000.851562,2.294786,0.734011,-1.783407,4.490112
1000.855469,4.665239,-2.779130,-9.341952,-3.330991
1000.859375,-4.281200,-10.261144,-4.126564,-7.789395
1000.863281,-7.128287,-8.276876,-7.760240,-4.653874
1000.867188,-11.580051,-0.933936,-11.066288,-1.548408
1000.871094,-5.928165,-6.226162,-7.902039,-12.667825
1000.875000,-7.165203,-8.036974,-11.987153,-3.637719
1000.878906,-5.639432,-3.716132,-11.299485,-3.359329
1000.882812,-11.399985,-10.061090,-4.318364,-15.704611
1000.886719,-4.242313,-19.013494,-8.278371,-9.537728
1000.890625,-7.310556,-3.320594,-4.310169,-5.822455
1000.894531,3.105515,-1.221312,-5.813445,-6.810190
1000.898438,-0.416432,4.927229,3.530533,-0.495692
1000.902344,-0.656386,-1.173308,-0.443615,-2.081616
1000.906250,-5.689789,1.244357,3.341159,-1.693784
1000.910156,15.520332,8.267957,4.404998,12.408152
1000.914062,8.742676,7.124907,8.987950,7.537595
1000.917969,5.030176,1.167740,15.279009,14.785668
1000.921875,13.902069,11.862875,7.894914,9.227611
1000.925781,9.718243,4.247889,4.496056,4.029599
1000.929688,8.375440,1.645632,8.303074,3.776528
1000.933594,8.333731,15.139965,3.375490,2.777175
1000.937500,7.115067,7.790663,6.212381,-2.440556
1000.941406,0.589645,1.560054,2.922573,4.082818
1000.945312,-3.135103,3.692817,8.330670,-0.215428
1000.949219,6.546974,1.143818,-0.264930,4.457186
1000.953125,-0.019811,-0.102222,3.909978,-4.844327
1000.957031,-7.208416,0.960733,3.861162,-11.431575
1000.960938,-6.480972,-6.120649,-7.589967,-0.914194
1000.964844,-4.124333,-6.848356,-10.200889,-6.833842
1000.968750,-11.208404,-6.689343,-15.198722,-8.620344
1000.972656,-14.361092,-12.305766,-10.595615,-10.080405
1000.976562,-10.841376,-3.639985,-11.557458,-8.542929
1000.980469,-14.555424,-7.386803,-17.394437,-5.133082
1000.984375,-7.530675,-14.783036,-11.296609,-7.968500
1000.988281,-0.530982,-9.347459,-8.278463,-10.101810
1000.992188,-5.962413,-2.189397,-4.471933,0.528398
1000.996094,1.607044,-1.506522,1.342726,-0.413702
1001.000000,1.267650,-1.601703,3.865241,5.573784
1001.003906,0.248421,0.878150,-0.210459,8.743599
1001.007812,6.215959,-2.564706,5.697229,12.815270
1001.011719,12.604337,11.408596,1.917810,7.303070
1001.015625,4.157257,3.976992,12.583045,4.273753
1001.019531,7.957582,10.984594,-2.246981,18.875396
1001.023438,10.518666,9.748255,12.904760,2.353665
1001.027344,9.085131,9.797078,5.975009,15.429136
1001.031250,5.864864,8.688065,9.351698,1.756919
1001.035156,6.226598,8.619309,7.044718,8.945414
1001.039062,8.277043,10.061365,-2.635137,11.392083
1001.042969,9.239804,5.749572,3.709868,3.018866
1001.046875,3.560930,7.867036,2.700855,7.036717
1001.050781,-4.962187,-0.400041,5.169314,2.500600
1001.054688,-8.919505,0.385770,-5.433442,-1.142076
1001.058594,-8.924368,-1.550229,-6.523774,-6.158636
1001.062500,-9.646909,-8.903963,-11.230430,-1.409651
1001.066406,-9.924633,-11.735388,4.675704,-14.994236
1001.070312,-7.937090,-14.982011,-1.269281,-7.047627
1001.074219,-7.974147,-7.054760,-10.520203,-10.604063
1001.078125,-11.368232,-12.376374,-10.166089,-14.278531
1001.082031,-4.504145,-12.181083,-13.197278,-3.934563
1001.085938,-0.660535,-12.511082,-5.160273,-5.453555
1001.089844,-12.835279,-7.460287,-4.747405,-5.099054
1001.093750,2.919876,4.796656,3.443175,-8.964866
1001.097656,-5.290972,-10.329130,3.495593,-4.746176
1001.101562,2.102831,4.635406,-2.097840,-1.560714
1001.105469,5.994977,2.376728,12.979042,-0.998820
1001.109375,-1.965715,8.600572,5.049373,2.131393
1001.113281,5.145309,8.604078,4.945198,3.156560
1001.117188,2.757405,0.583952,11.542505,17.250347
1001.121094,3.816256,10.230013,10.547587,8.183215
1001.125000,11.572916,13.011420,11.581762,13.304116
1001.128906,17.386911,10.298922,8.471913,18.900333
1001.132812,7.804714,15.449703,11.101232,13.109274
1001.136719,12.821121,0.654870,6.793288,9.402518
1001.140625,7.705744,5.744871,2.865090,8.909600
1001.144531,-0.388784,3.625365,-1.175484,5.017734
1001.148438,6.683374,2.583352,1.084230,-1.803446
1001.152344,4.247668,-2.197938,-1.281158,4.535204
1001.156250,-0.674577,-3.710026,2.036378,-5.548873
1001.160156,-8.361098,1.027575,-5.019433,-2.628897
1001.164062,-4.175721,-11.070944,-7.156115,-6.243642
1001.167969,-6.345835,-15.899731,-12.411548,-10.496316
1001.171875,-3.594022,-9.076952,-5.628889,-9.542192
1001.175781,-1.392260,-9.421571,-13.930075,-10.251004
1001.179688,-12.607100,-6.364460,-7.893218,-7.291221
1001.183594,-3.860053,-13.600266,-12.277135,-9.845708
1001.187500,-4.960443,-7.818097,-4.620153,-8.645387
1001.191406,1.029294,-3.774923,-3.059791,-6.979450
1001.195312,-0.558425,-8.165684,-5.421249,-2.114344
1001.199219,-5.709853,7.561723,-4.132220,6.616502
1001.203125,-1.724285,1.435017,3.022655,2.372612
1001.207031,6.355671,-0.002222,9.902192,2.759277
1001.210938,9.919979,8.111008,2.302332,6.606926
1001.214844,12.366077,8.754838,10.246507,8.884580
1001.218750,5.189148,7.256487,13.246265,14.323873
1001.222656,4.984496,9.752204,15.754690,12.990271
1001.226562,9.810192,3.493516,6.683941,7.981585
1001.230469,5.117994,10.322303,5.223431,4.605731
1001.234375,11.688274,6.078216,9.061203,9.065776
1001.238281,5.386846,6.443373,9.275855,2.963005
1001.242188,6.164597,5.555759,-1.102425,-1.274900
1001.246094,5.643299,-3.868408,5.737363,-0.847650
1001.250000,-7.454622,0.096658,0.779737,1.892315
1001.253906,-12.429095,-4.025826,-3.463365,-1.036575
1001.257812,-6.454389,-5.592427,-6.086525,-8.050752
1001.261719,-13.533675,-6.050706,-6.569903,-6.212237
1001.265625,-2.916093,-8.759657,2.067814,-6.132152
1001.269531,-11.542934,-14.046755,-9.811439,-11.538006
1001.273438,-14.333795,-8.133991,-4.910481,-9.497589
1001.277344,-9.599433,-6.510960,-16.904791,-12.726926
1001.281250,-6.002826,-10.147858,-3.692815,-14.617352
1001.285156,-4.272344,-18.177835,-2.556736,-13.168129
1001.289062,2.070035,-4.718064,-7.187737,4.217192
1001.292969,-7.575725,-2.862158,-11.683384,-6.060878
1001.296875,-4.334283,-0.819107,-1.923062,2.967269
1001.300781,4.668216,-0.416362,12.595295,1.722331
1001.304688,-3.922449,2.454120,1.058573,0.376005
1001.308594,8.345840,5.924682,6.053245,4.967020
1001.312500,12.749513,7.309843,10.882796,2.010215
1001.316406,8.756427,11.828526,9.000016,15.560235
1001.320312,11.165890,2.913176,7.274461,13.267872
1001.324219,12.473896,16.454726,8.657847,6.659317
1001.328125,3.644047,10.374859,11.431550,4.316093
1001.332031,14.156988,14.472482,6.616706,6.381013
1001.335938,11.254336,5.590624,4.318846,2.253660
1001.339844,5.913516,9.019466,14.522586,4.206471
1001.343750,2.439828,-0.144323,-0.591347,5.070987
1001.347656,0.574948,3.329898,1.789502,1.839085
1001.351562,-1.159408,-1.402157,0.136229,-9.903561
1001.355469,7.024720,-3.456824,-7.715002,-6.402048
1001.359375,-3.942078,-12.710407,-6.995503,-6.635237
1001.363281,-8.473494,-16.165041,-11.512018,-2.464909
1001.367188,-8.289311,-7.398741,-15.507751,-4.161232
1001.371094,1.066249,-8.383696,-2.148837,-10.934202
1001.375000,-9.222265,-4.489056,-17.261300,-13.932870
1001.378906,-18.511151,-7.841171,-13.361791,-17.129865
1001.382812,-13.364880,-14.437832,-6.845264,-5.620102
1001.386719,-9.369138,-1.898160,-10.354456,-1.363171
1001.390625,-8.132055,-6.215693,-9.086077,-1.272730
1001.394531,-3.658987,-5.640442,-6.255777,-3.220641
1001.398438,-1.264714,8.695248,-8.250000,-1.528366
1001.402344,1.078185,5.236909,5.336870,1.634119
1001.406250,5.115884,1.888540,3.588097,-1.945906
1001.410156,9.369632,6.915951,3.674315,7.784201
1001.414062,5.251612,5.847409,-0.053746,8.112625
1001.417969,10.705029,9.764793,9.095167,13.029559
1001.421875,0.672944,10.401966,17.118736,13.935971
1001.425781,10.759713,13.279658,4.780649,13.976270
1001.429688,5.729563,14.440412,13.753535,10.156926
1001.433594,12.350447,5.280043,9.615931,10.452693
1001.437500,14.292388,5.413816,9.809284,4.775124
1001.441406,-2.896215,6.137625,2.946314,4.945130
1001.445312,-5.883369,3.191895,2.321909,6.083127
1001.449219,0.112434,-1.774224,10.914919,-2.316265
1001.453125,1.206317,-9.074405,-1.302555,2.262260
1001.457031,-4.846039,-9.698303,-15.426337,-3.568131
1001.460938,-2.732958,-5.035113,-8.280027,-4.596866
1001.464844,-9.734278,-9.141699,-3.276332,-4.906543
1001.468750,-3.957424,-10.714625,-8.427514,-10.489919
1001.472656,-5.725227,-11.450307,-8.068325,-10.163701
1001.476562,-12.919049,-16.526415,-8.389381,-2.895637
1001.480469,-5.063499,-16.843241,-4.635719,-10.329706
1001.484375,-2.721030,-8.237593,-5.844676,-6.656045
1001.488281,-5.323998,-3.672022,-8.629906,1.271120
1001.492188,-2.357990,-5.059837,-1.630568,-6.013711
1001.496094,-9.855836,-2.002945,1.222952,-6.776309
1001.500000,-1.249107,-1.950122,-8.153474,-0.000849
1001.503906,1.222583,3.349103,-0.489623,3.818253
1001.507812,-1.930616,11.182896,0.853538,0.668377
1001.511719,4.086884,0.200566,11.181333,8.613040
1001.515625,15.144045,7.865975,7.929949,13.668173
1001.519531,9.471398,8.990833,15.650448,13.219135
1001.523438,10.636308,14.921206,16.962737,3.714394
1001.527344,13.211113,14.624563,13.052235,1.459989
1001.531250,11.000029,10.770845,7.095428,13.294104
1001.535156,4.991781,8.303976,11.523188,11.467541
1001.539062,0.233372,6.569875,0.624309,4.648181
1001.542969,-0.493358,-1.750920,2.635784,6.431158
1001.546875,7.036782,1.695364,-1.563992,8.839856
1001.550781,6.381008,-3.289388,4.706184,0.275402
1001.554688,2.892102,-0.770385,-1.394453,-5.667160
1001.558594,-3.915453,-5.485140,-6.632395,-2.508953
1001.562500,-9.471036,-2.372947,-3.519938,-7.992507
1001.566406,-9.178394,-6.868964,-9.278004,-4.740828
1001.570312,-7.505174,-10.492771,-10.800911,-9.967673
1001.574219,-11.867795,-9.484308,-15.813315,-9.770430
1001.578125,-6.908230,-5.400158,-15.206552,-6.661205
1001.582031,-13.677835,-9.161220,-11.571479,-10.816235
1001.585938,-9.702423,-9.361947,-10.163503,-9.285204
1001.589844,-3.253049,-10.261196,-4.162082,-7.141257
1001.593750,0.274394,-7.610155,-4.366914,-4.325639
1001.597656,0.490875,5.862207,-1.203072,-4.107570
1001.601562,0.773749,-0.242099,7.561609,6.091814
1001.605469,1.897047,4.355037,3.665778,3.060554
1001.609375,4.816013,1.329840,8.064927,1.831750
1001.613281,13.033319,4.919315,5.595886,4.530963
1001.617188,11.380315,5.013608,13.178717,13.652275
1001.621094,11.831837,2.255723,10.184557,14.045514
1001.625000,13.638416,8.379591,12.067751,7.397701
1001.628906,7.250049,13.394104,10.441696,14.854943
1001.632812,8.525660,4.340611,6.431025,9.285365
1001.636719,5.642219,5.016102,3.470919,8.245077
1001.640625,3.007825,7.034166,0.809996,-0.595129
1001.644531,7.487699,2.883283,-1.070193,-2.916480
1001.648438,4.713503,0.422592,7.877875,-5.005197
1001.652344,-1.315603,3.175006,0.094173,4.043897
1001.656250,-7.451549,-0.553643,-7.445490,-1.998283
1001.660156,0.558904,-13.958323,-8.210403,1.083530
1001.664062,-10.959961,-14.024563,-13.785578,-2.544552
1001.667969,-11.570938,-2.094569,-3.612064,-12.913410
1001.671875,-16.098529,-10.644732,-12.026227,-12.872376
1001.675781,-5.133512,-10.004188,-7.370266,-13.326363
1001.679688,-11.230750,-9.106738,-6.745542,-12.773675
1001.683594,-13.268445,-10.134392,-0.022244,-10.329946
1001.687500,-6.721709,-5.322833,-10.750903,-6.403710
1001.691406,-10.579031,-1.596456,-4.543443,-2.487362
1001.695312,-1.533461,1.996692,-8.274655,1.949622
1001.699219,-3.715313,-0.895428,-5.022444,-4.419762
1001.703125,-4.890774,5.912831,2.061838,0.523816
1001.707031,-1.762605,8.700938,4.947542,-4.246358
1001.710938,4.471826,1.835373,6.120070,4.858731
1001.714844,15.441033,15.695476,14.045829,8.858610
1001.718750,5.595473,8.915237,3.122154,7.648012
1001.722656,13.250556,13.369473,4.449284,10.309616
1001.726562,5.374574,10.925105,10.441167,8.023298
1001.730469,15.805469,12.260272,12.451743,8.220852
1001.734375,11.165598,9.075080,8.096287,-2.197724
1001.738281,6.536951,0.254366,15.103347,1.243905
1001.742188,7.790192,2.986253,10.128628,-2.305308
1001.746094,6.109701,-1.092974,9.613319,4.335995
1001.750000,-4.957576,-3.427862,-3.149166,2.660233
1001.753906,-5.030943,-9.054542,-2.207146,-0.423364
1001.757812,-6.115409,-7.779499,-3.164235,-7.287325
1001.761719,-2.034609,-2.942343,1.005888,-0.869983
1001.765625,-9.523186,-13.512774,-4.125138,-5.112690
1001.769531,-1.631136,-14.722058,-7.486225,-11.375932
1001.773438,-9.009427,-8.672836,-15.622899,-7.850886
1001.777344,-2.915492,-7.223626,-7.957221,-6.833231
1001.781250,-5.658697,-4.206391,-4.888541,-5.206042
1001.785156,-6.685068,-5.376519,-10.355054,-4.459036
1001.789062,-1.370290,-13.539186,-10.981776,-3.338181
1001.792969,-9.237078,1.131706,-5.256303,-5.124901
1001.796875,-7.043675,-2.135402,-1.926059,-7.374838
1001.800781,1.278109,1.617277,7.615666,-2.321392
1001.804688,1.793742,2.993695,6.093065,11.462773
1001.808594,9.552654,5.386508,5.057705,-1.331807
1001.812500,5.635415,6.924024,0.567704,10.859901
1001.816406,15.695951,11.921660,12.553225,5.524719
1001.820312,3.753057,5.916489,2.548927,7.146731
1001.824219,7.852679,-1.881774,2.794236,10.222034
1001.828125,7.788245,9.766138,6.442012,12.379176
1001.832031,11.168158,5.948203,9.804209,8.970225
1001.835938,8.279571,9.704623,13.429175,5.512738
1001.839844,3.129529,2.057580,6.353917,5.050032
1001.843750,5.354780,9.616998,0.930346,5.200584
1001.847656,1.093895,1.987108,0.944705,0.350058
1001.851562,-2.840879,-2.181819,2.997083,3.094047
1001.855469,-4.037295,-3.611373,-0.766750,-7.154458
1001.859375,-1.819806,-5.413580,-10.627556,-8.894026
1001.863281,-7.120920,-4.196246,-5.844204,-8.490523
1001.867188,-11.300434,-18.010668,-11.535810,-8.005691
1001.871094,-10.436652,-7.872259,-15.159808,-13.827236
1001.875000,-10.225107,-10.042341,-8.843702,-8.864079
1001.878906,-6.754523,-12.684856,-12.317397,-12.858085
1001.882812,-13.862312,-1.572451,-11.681508,-8.433864
1001.886719,-6.874922,-8.208619,-0.708431,-10.949367
1001.890625,-4.499274,-10.247967,-3.140625,1.972690
1001.894531,-2.720982,-8.259550,-2.952401,-9.441258
1001.898438,2.173585,0.259785,-2.027177,9.148732
1001.902344,1.034382,1.570471,-4.362709,6.180561
1001.906250,4.238871,4.535127,3.465563,4.276984
1001.910156,4.985523,11.792017,6.898651,5.700950
1001.914062,9.670424,10.720055,10.331066,7.387422
1001.917969,4.767173,7.381825,5.255424,8.815953
1001.921875,7.290944,10.166289,10.479696,6.177431
1001.925781,17.283263,13.925431,11.820691,10.007784
1001.929688,11.437605,10.859644,6.140529,5.670741
1001.933594,8.243993,7.447683,5.566466,2.174556
1001.937500,3.277266,1.126323,13.925875,3.732537
1001.941406,11.159862,4.029846,8.193564,9.433108
1001.945312,7.389550,14.355568,3.137392,-6.952186
1001.949219,-1.048470,3.981361,3.041969,-4.064052
1001.953125,-2.043353,-1.544966,0.495164,-2.351082
1001.957031,-10.103519,3.689576,1.126211,0.464865
1001.960938,-6.157618,-3.052247,-6.463048,-12.426977
1001.964844,-10.523030,-6.957382,-7.746090,-10.265772
1001.968750,-3.492404,-5.794494,-9.385235,-12.735482
1001.972656,-13.709638,-12.563367,-8.648253,-11.019894
1001.976562,-5.125890,-13.104229,-12.564938,-14.725033
1001.980469,-11.670171,-17.472602,-9.768909,-5.445633
1001.984375,-0.752746,-6.042892,-7.085550,-5.024703
1001.988281,-3.255975,-3.307485,-5.579127,-4.379996
1001.992188,-9.817468,-3.440971,2.375988,-2.374353
1001.996094,-1.648606,-5.751565,-2.183932,3.259680
1002.000000,8.680590,-1.454482,-0.859571,3.667001
1002.003906,-0.154196,4.120662,2.174126,6.750124
1002.007812,1.590954,3.096650,7.214696,8.306378
1002.011719,8.921366,2.849981,0.789588,11.635506
1002.015625,4.949240,10.470425,18.529356,0.473476
1002.019531,4.548940,12.033908,5.111934,11.889505
1002.023438,11.677136,8.867253,11.936592,3.139998
1002.027344,8.348086,2.587611,8.312520,9.118518
1002.031250,8.199829,5.628052,17.411365,7.008223
1002.035156,16.013977,15.084392,8.082491,11.652426
1002.039062,1.572255,5.519532,-2.287800,5.667568
1002.042969,5.177882,5.851900,3.470301,2.325697
1002.046875,1.887361,1.974819,-2.877290,7.232479
1002.050781,0.941392,-3.705909,2.193953,3.238765
1002.054688,-2.267126,5.710348,-1.402026,-10.917496
1002.058594,-7.042681,-6.929459,-3.653472,-3.377878
1002.062500,-10.702821,-4.782251,-13.750968,-4.869585
1002.066406,-12.095206,-10.499285,-9.562360,-11.023129
1002.070312,-7.699242,-14.095386,-11.688460,-12.885348
1002.074219,-10.602012,-1.049287,-13.542439,-9.093499
1002.078125,-6.964767,-11.613785,-16.591281,-12.672550
1002.082031,-8.558706,-14.527611,-3.256270,-14.478652
1002.085938,-8.496952,-15.125465,-6.787049,-6.473576
1002.089844,-4.673101,-5.804156,-3.897510,-5.844857
1002.093750,-0.203862,-9.474645,-8.472077,1.689621
1002.097656,-1.259566,5.877206,-6.422748,-0.918425
1002.101562,1.574223,3.738716,-1.248258,1.467191
1002.105469,7.292766,1.265133,9.621987,0.796598
1002.109375,5.991365,12.699483,4.814202,3.736502
1002.113281,9.255492,8.980295,8.174632,10.921136
1002.117188,-1.604511,5.511026,2.865504,4.024964
1002.121094,4.717255,6.458272,13.210605,11.531586
1002.125000,5.095046,6.192202,11.141100,10.899439
1002.128906,2.800604,6.668353,9.096414,9.959513
1002.132812,4.411394,4.605461,13.071547,-1.029046
1002.136719,6.954469,10.716483,7.813065,-3.862817
1002.140625,3.482368,4.483265,2.982625,4.020344
1002.144531,1.716726,-1.977225,-1.974309,2.576893
1002.148438,5.635105,4.633373,3.134039,4.469268
1002.152344,3.196886,-2.976616,-0.555596,-5.221646
1002.156250,-1.815998,-0.014184,-7.162151,-2.356015
1002.160156,-6.783912,-6.482835,-6.485599,-4.086002
1002.164062,-9.860350,-8.339357,-8.884724,-9.736501
1002.167969,-16.297917,-8.720297,-8.736616,-12.016091
1002.171875,-16.082944,-9.720872,-7.046290,-6.846058
1002.175781,-10.540144,-10.968449,-4.885600,-2.407863
1002.179688,-9.931907,-16.989833,-17.778328,-9.042457
1002.183594,-11.830553,-8.050365,-7.703786,-14.507345
1002.187500,-6.121507,-0.313551,-2.937879,-3.835302
1002.191406,-2.022136,-5.642097,-0.264366,-6.898742
1002.195312,-9.167724,-1.744375,-15.520737,-1.685021
1002.199219,-5.026791,-1.285859,-3.377582,7.304933
1002.203125,2.205485,2.612910,-4.957027,-1.853899
1002.207031,7.040105,8.225096,8.628740,4.957779
1002.210938,6.095527,4.789411,0.660770,6.475665
1002.214844,9.891095,3.532756,7.940328,7.517020
1002.218750,5.312484,16.486787,5.384241,6.529530
1002.222656,4.561374,11.771702,10.731034,6.759290
1002.226562,7.215270,2.210097,9.587338,10.837263
1002.230469,11.948792,5.376840,10.352485,3.820432
1002.234375,10.473997,10.000690,6.597206,15.036757
1002.238281,5.192729,5.162739,2.336170,6.271399
1002.242188,0.001728,1.721917,10.117320,-1.058286
1002.246094,-0.981614,9.138596,3.877969,6.408061
1002.250000,-3.668524,-2.722909,2.474524,-3.148432
1002.253906,-4.867627,0.647796,2.562687,1.468907
1002.257812,-5.331149,5.310409,-2.113384,-8.109614
1002.261719,-4.222910,-8.999490,-8.808047,-8.488163
1002.265625,-6.920000,-2.651819,-8.330130,-6.719216
1002.269531,-7.435704,-9.338534,-8.607711,-5.167381
1002.273438,-4.259774,-14.252309,-11.039160,-17.002523
1002.277344,-9.246720,-6.661187,-7.841393,-6.570995
1002.281250,-7.136991,0.157778,-15.857267,-0.375541
1002.285156,-1.066865,-4.722929,-6.643018,-11.280178
1002.289062,-2.487818,-6.755835,-7.782501,-1.137992
1002.292969,-5.899613,-6.770297,2.811802,-7.993225
1002.296875,-1.305657,0.398635,-6.843985,-4.104755
1002.300781,-1.162689,1.357872,1.288532,4.826008
1002.304688,5.188669,9.505002,5.002763,0.057059
1002.308594,-2.698103,2.529797,3.418421,1.427826
1002.312500,11.909255,3.146910,9.971249,7.504584
1002.316406,7.093191,4.981325,9.940925,7.766552
1002.320312,6.322138,14.851440,15.868858,15.616152
1002.324219,7.333750,11.505717,12.806559,5.966029
1002.328125,12.664973,6.963083,7.243702,10.544217
1002.332031,3.416605,9.300550,11.031074,9.937806
1002.335938,19.132298,10.812003,14.062712,5.833891
1002.339844,8.460337,5.760678,4.216249,3.462475
1002.343750,7.539147,-1.823035,2.686810,3.909977
1002.347656,2.293002,6.231830,2.504944,-0.385959
1002.351562,1.710517,4.639968,-1.432034,0.577512
1002.355469,-8.848381,-2.933552,2.107986,-8.148149
1002.359375,-6.393687,-10.725887,-4.154301,4.173599
1002.363281,-10.401153,-6.730415,-7.018053,-3.402421
1002.367188,-15.506197,-7.869424,0.873255,-3.195804
1002.371094,-5.867689,-6.965872,-2.280726,-9.458533
1002.375000,-6.087782,-9.747956,-16.121437,-19.960902
1002.378906,-10.538455,-8.570709,-11.772336,-7.913047
1002.382812,-11.313751,-3.402214,-9.251036,-16.040090
1002.386719,-4.284626,-0.024853,-5.947138,-11.195396
1002.390625,-10.321879,-10.509719,-8.184054,-3.170932
1002.394531,-0.833766,-6.002184,0.945274,-1.036072
1002.398438,-6.760523,-3.544461,-7.379518,1.073889
1002.402344,-3.203042,-0.749678,-2.477005,0.874448
1002.406250,4.579956,5.755636,-0.557829,0.698951
1002.410156,3.384810,10.213723,10.167081,3.548801
1002.414062,3.071523,8.866752,6.867362,10.351863
1002.417969,4.196853,8.053280,4.750126,15.847093
1002.421875,14.700092,7.679000,9.266602,9.054603
1002.425781,12.797295,5.016295,11.029930,8.685398
1002.429688,8.257005,15.432451,8.823484,11.865397
1002.433594,14.070173,5.844027,8.369303,1.005263
1002.437500,4.937024,2.527848,1.164072,4.125145
1002.441406,2.665719,0.277628,2.707183,8.380752
1002.445312,9.947957,-3.014063,1.184989,9.597645
1002.449219,-3.388788,0.158051,-9.175727,6.471001
1002.453125,-3.894464,-4.620360,1.778931,2.556121
1002.457031,0.499436,-3.517702,-6.547239,-15.154072
1002.460938,-5.200515,-13.198823,-9.099964,-4.638332
1002.464844,-8.574693,-6.491952,-2.503647,1.531166
1002.468750,-5.647482,-3.697872,-9.814246,-3.906864
1002.472656,-11.868488,-13.410598,-1.829490,-9.339321
1002.476562,-14.195993,-17.776183,-10.181639,-11.802419
1002.480469,-12.465137,-9.246849,-9.285833,-14.065965
1002.484375,-4.548310,-10.162953,-7.708842,-14.135412
1002.488281,-10.284861,-10.308975,-1.700479,-3.399464
1002.492188,-0.572491,-3.265310,-1.078529,-7.776817
1002.496094,-4.366280,4.134678,-3.015777,-6.198381
1002.500000,-3.160936,-5.323125,4.226281,-5.205150
1002.503906,-0.214077,4.942202,4.494753,2.667946
1002.507812,10.110144,-3.402441,4.912144,5.679232
1002.511719,4.259576,9.770153,1.536815,9.430206
1002.515625,3.413034,8.271327,7.790771,4.543173
1002.519531,7.787962,5.037158,10.977884,14.789066
1002.523438,7.523089,13.821300,13.638747,12.409985
1002.527344,18.700562,10.682887,12.175410,12.982912
1002.531250,9.315320,10.658660,8.372290,9.297409
1002.535156,5.568977,13.397627,6.275736,4.896387
1002.539062,2.158536,7.924081,7.045604,2.509037
1002.542969,-1.821290,5.942134,-2.866137,5.341254
1002.546875,5.831115,4.259903,-1.991049,2.908287
1002.550781,-1.564358,-0.143350,-6.331411,2.413406
1002.554688,0.745057,-0.749955,-9.828115,-5.824461
1002.558594,-9.141740,-8.222427,-6.194829,-9.137613
1002.562500,-8.314247,-6.906113,-4.721404,-12.162818
1002.566406,-10.678779,-7.578307,-6.878783,-9.547627
1002.570312,-15.981731,-12.164945,-11.797493,-7.547383
1002.574219,-13.199307,-7.904187,-10.047131,-15.751433
1002.578125,-4.450386,-8.814102,-3.163335,-15.592467
1002.582031,-2.622435,-7.989721,-7.275080,-10.356318
1002.585938,-19.769595,-6.681327,-13.501836,-2.832778
1002.589844,-1.886115,-8.838029,-11.939893,-5.424709
1002.593750,0.242361,-7.583645,-5.512726,-8.649557
1002.597656,6.345204,0.867878,-6.723202,2.207619
1002.601562,3.434205,7.412097,5.660282,-6.440672
1002.605469,0.772672,2.955149,1.597472,2.027157
1002.609375,2.021545,4.038790,8.135432,6.356508
1002.613281,14.572745,7.223578,6.469378,9.336813
1002.617188,12.234885,10.348876,11.925351,8.593707
1002.621094,9.139698,11.484208,9.563549,8.768931
1002.625000,3.779546,10.364490,13.840748,6.763460
1002.628906,14.836489,7.000008,5.920432,2.268856
1002.632812,13.308701,15.793526,13.145998,-8.018538
1002.636719,5.552369,6.738345,4.291900,-0.711978
1002.640625,5.420654,0.541133,0.773797,10.264875
1002.644531,3.392257,-2.490673,1.009595,-3.501701
1002.648438,6.698606,-6.242737,-2.401316,-1.457709
1002.652344,-6.165325,-2.724512,-3.683111,1.773940
1002.656250,-4.544089,4.079399,-0.049579,-0.638350
1002.660156,-4.281399,1.057509,-13.197357,-6.832074
1002.664062,-8.487516,-1.777509,-12.978968,-3.437415
1002.667969,-4.712433,-2.342534,-6.764303,-10.320990
1002.671875,-2.423600,-4.380231,-8.384872,-9.117549
1002.675781,-7.071894,-8.189257,-4.233265,-8.573443
1002.679688,-10.872471,-16.451589,-8.621995,-10.736628
1002.683594,-7.136481,-13.488775,-9.162325,-5.222643
1002.687500,-13.129497,-14.088343,-7.913804,-6.156957
1002.691406,-9.993218,-5.800573,-9.927380,-2.502363
1002.695312,-6.374787,-2.159932,0.860449,-1.440550
1002.699219,-2.967672,-1.498188,-0.475590,-1.406596
1002.703125,-1.559550,0.894743,-3.089259,6.002657
1002.707031,4.265090,4.042747,3.384959,12.295003
1002.710938,11.809906,2.600447,11.313606,-0.627754
1002.714844,3.676840,8.233400,10.279576,3.953038
1002.718750,6.457062,15.965742,8.794837,8.161216
1002.722656,1.282935,4.508967,10.738268,15.018010
1002.726562,9.980647,8.120188,8.578386,9.528922
1002.730469,11.038166,11.535112,8.233947,3.485195
1002.734375,10.134688,5.525408,8.687011,4.094114
1002.738281,9.631418,3.413535,5.845725,7.901739
1002.742188,2.480292,-0.107665,2.440911,4.275728
1002.746094,0.130086,4.020573,1.989421,7.058231
1002.750000,-0.320728,-0.012154,0.572843,-4.079676
1002.753906,-0.191090,-0.095151,1.196521,-0.390197
1002.757812,-2.087599,-6.083703,-1.646314,-7.142468
1002.761719,-5.293777,-5.564198,-2.732969,-16.897438
1002.765625,-7.477136,-9.316150,-11.092630,-13.759978
1002.769531,-12.635036,-4.134224,-17.368635,-6.553518
1002.773438,-10.935082,-12.449492,-10.725092,-7.079385
1002.777344,-3.374572,-7.739697,-6.854688,-8.002429
1002.781250,-11.158496,-11.681070,-8.677798,-9.204051
1002.785156,-10.472227,-12.115957,-5.222232,-11.364808
1002.789062,-9.333893,-2.633369,-10.166272,-8.985681
1002.792969,2.172185,-9.481590,1.241286,-9.184497
1002.796875,-3.311717,-4.746818,1.475873,-2.646856
1002.800781,9.046677,-3.257009,4.682572,3.440405
1002.804688,10.646399,2.072307,1.385992,-5.340341
1002.808594,6.370847,3.890489,7.257710,7.122892
1002.812500,6.793047,12.575474,8.191725,11.939849
1002.816406,6.230950,9.978104,3.580845,11.410365
1002.820312,7.377530,6.567147,11.584819,8.436816
1002.824219,16.469516,9.439899,8.479852,7.180460
1002.828125,15.108599,2.880343,9.243487,10.402526
1002.832031,11.120637,3.631108,13.624214,7.813946
1002.835938,3.075421,3.387096,9.830178,12.120775
1002.839844,7.543368,4.650013,15.081969,2.586433
1002.843750,7.892808,10.913784,8.642173,-0.709854
1002.847656,1.810702,-3.912413,-2.622640,7.936090
1002.851562,-0.308465,4.118440,1.933127,0.712763
1002.855469,-6.605193,-2.549746,1.732340,0.877703
1002.859375,0.107629,-4.279565,-1.975383,3.092232
1002.863281,-9.121418,2.239871,-10.797380,-6.104991
1002.867188,-7.173703,-7.763102,-5.116711,-17.514794
1002.871094,-7.746361,-17.711953,-12.417149,-11.261783
1002.875000,-11.365915,-8.761587,-6.421105,-13.658062
1002.878906,-12.956861,-14.993860,-0.861771,-13.185935
1002.882812,-16.325271,-9.333147,-9.138252,-10.394735
1002.886719,-10.286556,-7.426600,-8.967283,-8.788911
1002.890625,-5.469022,-5.305961,-4.764338,-3.504456
1002.894531,-2.874225,-1.980119,-13.966689,-4.894175
1002.898438,1.810343,-2.643535,1.722634,-3.952457
1002.902344,2.310018,9.607403,-3.640708,-0.794910
1002.906250,3.540578,4.036544,-0.691308,-0.233866
1002.910156,2.594135,8.753504,8.229551,5.400028
1002.914062,1.999888,7.097263,9.819203,10.012014
1002.917969,10.555156,-0.513671,12.174743,7.304658
1002.921875,8.398221,7.482786,10.087442,12.587875
1002.925781,15.305799,14.496403,11.393165,11.493579
1002.929688,14.859398,10.446076,7.036042,0.577040
1002.933594,18.023750,10.236934,8.829104,13.151336
1002.937500,11.584685,9.657205,8.699627,1.510966
1002.941406,9.941160,-0.725341,5.468841,3.860398
1002.945312,3.079497,1.158611,3.356605,3.634270
1002.949219,-1.725849,4.797902,0.231572,3.009324
1002.953125,3.387964,-2.738401,-3.293503,-1.048638
1002.957031,-7.797730,1.016874,-5.756482,-7.635099
1002.960938,-5.472004,-2.307361,-6.223360,2.234670
1002.964844,-10.292857,-1.469159,-5.850174,-11.325001
1002.968750,-10.626460,-6.450698,-12.429303,-5.408151
1002.972656,-12.841129,-8.875991,-15.714074,-13.470480
1002.976562,-14.252344,-5.738518,-10.450892,-7.528913
1002.980469,-9.859635,-0.019173,-6.281021,-9.996213
1002.984375,-8.233241,-8.383548,-1.608661,-8.243533
1002.988281,-9.170882,-10.103714,-8.493593,-9.723063
1002.992188,-4.943076,-7.118366,1.845111,-3.351236
1002.996094,1.211597,0.141247,-8.252339,-4.342818
1003.000000,-0.932983,-1.403660,-3.136409,4.993396
1003.003906,5.535672,-0.798993,2.787006,-2.751899
1003.007812,2.868010,4.853630,-5.254018,-5.322784
1003.011719,6.659511,8.614429,-0.167137,6.881888
1003.015625,9.219844,13.340616,13.546031,5.196305
1003.019531,11.360604,10.980850,7.729810,6.422647
1003.023438,10.759268,2.242530,2.348861,9.812531
1003.027344,8.378021,12.300932,11.192014,14.550491
1003.031250,9.854182,13.097303,10.649065,3.710375
1003.035156,10.477033,12.077844,9.085199,8.471995
1003.039062,7.238496,6.868943,4.583818,0.989950
1003.042969,4.555328,-0.006056,1.896331,10.448045
1003.046875,2.115946,-1.721486,-1.462167,2.110761
1003.050781,2.097514,3.203042,-7.983628,-1.627615
1003.054688,-2.906869,-3.851174,-6.591340,-0.247764
1003.058594,-1.518866,-9.123731,-4.273777,-3.479066
1003.062500,-3.711299,-8.760205,-8.086744,-9.613664
1003.066406,-12.690124,-6.774400,-9.212773,-9.193064
1003.070312,-5.605634,-10.316552,-9.505031,-9.184353
1003.074219,-10.966610,-11.627545,-7.621118,-7.799447
1003.078125,-8.048300,-11.312055,-11.009330,-11.317285
1003.082031,-2.444196,-11.195379,-3.847271,-0.371615
1003.085938,-8.557501,-5.014072,-2.822148,-7.061274
1003.089844,-8.528077,-7.324704,-8.279275,-2.452913
1003.093750,-0.151172,-10.094964,-3.308036,2.953331
1003.097656,2.877389,-1.840446,0.497401,-2.038121
1003.101562,0.820850,-0.235427,8.397871,-1.021534
1003.105469,0.730315,5.146905,0.196710,6.660001
1003.109375,11.772861,3.130888,4.827688,8.199570
1003.113281,4.971868,-2.617763,12.168376,2.201601
1003.117188,17.800017,4.412102,7.673338,3.331240
1003.121094,7.575888,12.848638,5.031960,5.357813
1003.125000,12.635434,9.468209,9.176307,9.128709
1003.128906,15.571144,8.926147,8.019394,12.478192
1003.132812,4.169919,6.217053,12.025941,13.323485
1003.136719,16.337790,7.059867,7.968972,6.393734
1003.140625,4.065366,16.631511,3.066862,2.862874
1003.144531,4.290347,-1.178635,5.122289,0.620502
1003.148438,2.344994,-7.485598,2.639990,-0.378940
1003.152344,4.985244,1.558070,-4.593470,4.262522
1003.156250,0.217921,-8.740442,-8.036140,-0.592559
1003.160156,-11.682199,-4.176022,-6.503012,-4.961050
1003.164062,-2.831548,-14.304128,-5.604193,-4.140827
1003.167969,-10.851631,-7.018878,-11.871989,-15.866629
1003.171875,0.022817,-14.165610,-6.689747,-13.467563
1003.175781,-8.387900,-13.272950,-8.147908,-13.734183
1003.179688,-11.917695,-10.510087,-5.608679,-7.588798
1003.183594,-9.886292,-2.945777,-6.126206,-5.041381
1003.187500,-9.624290,-5.011833,-8.945807,-7.004839
1003.191406,-12.923243,-2.371549,-1.150206,-3.441818
1003.195312,1.533703,11.174856,-9.899492,-2.139087
1003.199219,3.297358,2.177602,-2.481575,-1.465596
1003.203125,8.998225,8.623334,3.789824,6.686745
1003.207031,7.760929,10.314585,7.911192,17.925421
1003.210938,7.839755,8.216642,7.580868,9.635998
1003.214844,12.465714,12.993352,4.415320,8.511729
1003.218750,8.061143,17.119720,9.487010,5.198690
1003.222656,3.158843,9.112057,3.565015,6.965405
1003.226562,13.255511,7.520733,14.182204,8.092501
1003.230469,7.009816,11.052119,5.899891,6.059858
1003.234375,3.988702,17.235493,10.696515,6.158190
1003.238281,5.577250,6.401468,0.644492,6.248421
1003.242188,8.418458,-2.779384,3.625309,7.429668
1003.246094,5.878303,6.504977,-0.008484,4.519329
1003.250000,5.240686,-0.570322,0.268055,3.788544
1003.253906,-4.554443,3.024166,-11.918339,1.127801
1003.257812,-8.176691,-7.592017,-4.853174,-9.913088
1003.261719,-9.288064,-6.987001,-13.985005,-5.358724
1003.265625,-9.575802,-10.331917,-13.600759,-8.977638
1003.269531,-7.520694,-10.540613,-9.690463,-5.280761
1003.273438,-9.462216,-13.604988,-10.088352,-13.738254
1003.277344,-2.363227,-15.139127,-14.146445,-7.296268
1003.281250,-6.832191,-10.978282,-11.053931,-8.218435
1003.285156,-17.218072,-7.860049,-8.976253,-7.328957
1003.289062,-3.906663,-9.904443,-8.562402,-1.077609
1003.292969,-3.830564,-9.775081,-7.272052,0.301168
1003.296875,-1.612979,0.491957,0.298126,-5.933345
1003.300781,-1.689991,-1.255613,-1.981562,-1.342743
1003.304688,-1.587035,8.494748,6.454753,2.319783
1003.308594,3.789083,3.785713,8.552899,5.903213
1003.312500,12.373003,9.112874,0.484826,6.841197
1003.316406,8.393447,8.372680,15.292103,2.864505
1003.320312,3.821539,6.493028,6.541427,14.436598
1003.324219,8.099440,7.432265,8.647074,7.680250
1003.328125,6.819889,9.024416,2.933883,14.116046
1003.332031,10.113011,4.805858,7.935339,0.702637
1003.335938,5.424935,6.041139,10.952635,-0.635969
1003.339844,3.856084,8.386858,1.263379,2.219611
1003.343750,-1.910425,1.179793,3.866523,5.582504
1003.347656,-4.398989,0.016980,-0.877791,0.008347
1003.351562,0.288760,0.851829,-7.042547,-2.714422
1003.355469,-0.506354,0.546742,0.217469,0.596700
1003.359375,2.648392,-5.771049,-2.893137,-2.479509
1003.363281,-4.756615,-10.454206,-9.386448,-7.047537
1003.367188,-8.740603,-10.108687,-1.582044,-6.223595
1003.371094,-7.884053,-17.582202,-9.155581,-5.566916
1003.375000,-13.090625,-5.173106,-11.569730,-11.915551
1003.378906,-10.665935,-6.784670,-8.092445,-10.616632
1003.382812,-0.597923,-16.485397,-5.251358,-6.759552
1003.386719,-6.540248,-7.681019,-7.966696,-6.267127
1003.390625,-2.911073,-6.373519,-5.924288,-4.914449
1003.394531,0.941934,-6.577517,-3.347069,-5.163247
1003.398438,4.801907,-9.552455,-2.809813,-2.376381
1003.402344,0.526662,-0.726729,8.147251,-0.218227
1003.406250,5.016947,1.061309,7.270858,7.127316
1003.410156,13.939104,3.606689,8.191649,3.510848
1003.414062,10.000905,11.754237,5.373652,14.841075
1003.417969,12.133217,8.599428,8.332811,9.783844
1003.421875,7.265975,7.395177,11.045131,8.745878
1003.425781,0.912718,10.849617,11.977410,12.123912
1003.429688,9.978682,5.400833,9.304003,15.102974
1003.433594,11.876388,9.393649,11.581748,6.609686
1003.437500,1.987709,13.297930,9.313238,-2.451533
1003.441406,2.987911,8.148048,9.505926,0.126027
1003.445312,6.975139,10.344944,-1.048066,-2.407093
1003.449219,-3.923817,-0.825717,-5.302021,0.364886
1003.453125,-0.492785,-5.211091,-7.434061,-3.383469
1003.457031,-0.601241,-6.862913,-6.117363,-5.006432
1003.460938,-6.159420,-8.760923,-5.850484,-12.869850
1003.464844,-10.728544,-6.265924,-9.855436,-4.847740
1003.468750,-8.483244,-6.752543,-9.203057,-11.279284
1003.472656,-16.620868,-5.596904,-8.657725,-8.436436
1003.476562,-17.388237,-11.269595,-12.519545,-9.108852
1003.480469,-7.141282,-2.982473,-16.084831,-10.209524
1003.484375,-13.748372,-6.261599,-3.342065,-9.260850
1003.488281,-5.978269,-6.960159,-1.115516,-5.289122
1003.492188,-3.419905,-7.950995,-8.128947,0.194262
1003.496094,-2.685744,-2.139705,0.540903,-2.179935
1003.500000,1.999903,2.919754,1.473037,-3.508258
1003.503906,7.086338,2.373142,3.727067,1.926406
1003.507812,-2.375781,5.878135,-0.632833,2.707372
1003.511719,7.367713,0.462446,4.828661,10.657908
1003.515625,5.413581,3.908702,11.025902,10.149222
1003.519531,6.477260,8.241112,3.648881,14.190962
1003.523438,15.409185,13.309361,5.570248,14.233301
1003.527344,5.854681,7.163360,4.674266,7.964795
1003.531250,12.039329,14.024516,16.093233,20.444446
1003.535156,11.611745,5.445222,13.261095,13.878994
1003.539062,8.059377,2.734677,5.355788,8.284182
1003.542969,3.617578,15.312696,5.980011,10.319383
1003.546875,0.780367,5.653873,5.710339,6.397345
1003.550781,-4.354124,0.269042,-0.126589,1.217116
1003.554688,-8.253356,5.269049,-1.969656,-9.035373
1003.558594,-8.704192,-7.303274,-6.448771,-6.113150
1003.562500,3.634370,-0.595357,-14.723956,-6.720478
1003.566406,-14.986722,-12.246574,-15.510895,-5.476057
1003.570312,-7.607448,-9.069062,-9.705071,-9.225135
1003.574219,-11.954125,-12.919420,-12.711136,-14.612030
1003.578125,-11.627901,-11.976500,-3.962293,-6.163202
1003.582031,-7.789841,-8.078250,-7.630651,-13.800463
1003.585938,-12.036472,-15.664081,-5.929247,-5.630298
1003.589844,-21.044360,-14.637795,-4.360671,-3.453548
1003.593750,1.335410,-1.970101,-10.941684,-8.646141
1003.597656,-2.816350,-4.574342,-2.593097,-1.945023
1003.601562,11.647594,3.076713,-6.909127,6.115459
1003.605469,3.868959,-4.430226,5.270642,-0.720331
1003.609375,5.230083,0.785497,5.749739,8.317407
1003.613281,1.222934,13.455948,6.108064,7.245401
1003.617188,9.087919,10.410149,8.253622,13.507215
1003.621094,12.446597,15.864356,10.315595,7.064775
1003.625000,9.410783,9.625123,14.090466,16.105045
1003.628906,2.634908,12.689336,6.238579,7.564215
1003.632812,5.442710,8.500351,9.483054,7.013380
1003.636719,10.489103,11.307684,9.355300,3.770878
1003.640625,7.246083,8.032240,9.041504,-0.538702
1003.644531,1.954401,5.483928,8.535270,7.958688
1003.648438,-1.940533,1.248688,-2.420722,5.224307
1003.652344,8.766928,-2.966061,-2.387037,-2.088964
1003.656250,-2.103564,-3.152810,-9.923785,3.611707
1003.660156,-7.720130,-6.543833,-4.541447,0.439638
1003.664062,-8.451959,-10.129227,-7.808160,-8.232144
1003.667969,-9.644198,-9.581869,-5.772912,-9.905108
1003.671875,-13.830520,-15.795504,-4.597020,-7.861236
1003.675781,-12.289855,-13.576273,-11.040767,-5.672548
1003.679688,-13.110160,-2.822663,-19.504946,-3.827522
1003.683594,-5.063490,-4.643152,-8.840146,-5.943197
1003.687500,-11.162320,-3.348914,-12.492256,-8.692686
1003.691406,-2.563195,-3.359360,-7.226915,-5.027498
1003.695312,-1.676010,2.082439,-9.028327,-7.027179
1003.699219,-2.082958,1.470030,5.545958,11.751143
1003.703125,2.222165,-3.376837,5.008686,-2.984100
1003.707031,3.863617,2.360537,6.835807,10.204351
1003.710938,8.901156,-0.833419,5.058623,2.118751
1003.714844,0.654558,15.312257,3.837343,7.597834
1003.718750,6.725987,6.785222,5.233532,6.412156
1003.722656,10.986657,-3.031493,6.385643,18.709902
1003.726562,5.965092,7.876083,11.077182,6.277968
1003.730469,4.827680,3.366485,10.302774,10.413006
1003.734375,9.404901,9.490450,8.719248,16.223891
1003.738281,5.918381,4.143779,9.413096,9.736490
1003.742188,4.811261,9.693208,10.136428,0.715028
1003.746094,1.902318,1.740271,-0.906604,2.483505
1003.750000,2.838587,-5.945814,2.880926,2.783974
1003.753906,4.670212,-0.519844,0.857966,-6.652200
1003.757812,-9.992206,-7.039294,-11.082238,-11.361541
1003.761719,-3.920320,-8.090248,-13.451059,-5.216584
1003.765625,-12.257031,-1.694486,-6.899036,-7.958392
1003.769531,-13.079247,-1.922456,-6.153619,-14.146162
1003.773438,-8.255354,-6.817090,-5.165088,-12.896706
1003.777344,-12.583076,-9.250438,-11.599509,-6.955597
1003.781250,-6.027656,-6.139576,-13.928954,-9.824217
1003.785156,-9.280848,-10.567814,-14.722610,-10.009924
1003.789062,2.703787,-4.527453,3.883577,-10.903013
1003.792969,-1.395315,-0.551319,1.441208,-2.214179
1003.796875,-3.036945,-0.794198,0.939908,-1.589927
1003.800781,-2.424310,-1.143023,-6.954616,2.453964
1003.804688,4.306891,6.775997,-3.294506,10.126128
1003.808594,10.575595,5.771892,1.385072,3.335360
1003.812500,11.010019,9.031912,-0.297009,8.713119
1003.816406,8.827829,12.679539,0.859334,9.640631
1003.820312,6.548157,10.322350,8.354843,11.005962
1003.824219,13.764311,4.849342,18.339555,12.684483
1003.828125,8.622462,13.842444,7.997985,13.294056
1003.832031,5.171189,6.627656,8.422662,9.318365
1003.835938,19.483081,16.617512,7.236124,-1.583856
1003.839844,6.581105,2.470639,7.912026,3.648572
1003.843750,0.502960,-0.120608,5.844437,2.828703
1003.847656,2.730108,-1.365711,0.348150,0.432604
1003.851562,-4.436522,-2.582968,-2.765768,-4.395586
1003.855469,0.638516,-6.088007,-1.483125,-1.981254
1003.859375,-4.960036,-9.035141,-6.939507,-8.706060
1003.863281,-14.525600,-14.109331,-10.307165,-6.532660
1003.867188,-17.942879,-11.639812,-6.521859,-12.579707
1003.871094,-12.788464,-20.056842,-14.044535,-25.009480
1003.875000,-8.829239,-9.413382,-8.311115,-9.389605
1003.878906,-6.056172,-14.900929,-8.471060,-8.954199
1003.882812,-7.844869,-8.190027,-10.949880,-8.670582
1003.886719,-7.822074,-9.315344,-2.288983,-9.510719
1003.890625,-9.971421,-3.778071,-9.727651,-6.687642
1003.894531,-0.987203,-2.735370,-10.015248,3.131193
1003.898438,-6.566571,6.723560,2.283633,-8.440693
1003.902344,7.970458,-3.049491,3.889647,0.677835
1003.906250,7.796784,1.038481,-0.046392,2.786051
1003.910156,12.531955,8.132155,6.805980,7.987893
1003.914062,7.746238,11.373406,14.157360,10.495457
1003.917969,15.230800,10.479881,15.466148,9.345172
1003.921875,14.612451,13.161683,14.515183,6.733547
1003.925781,8.980950,18.085006,22.219469,13.936764
1003.929688,7.305831,10.861717,5.575267,0.761588
1003.933594,13.659075,11.422402,11.369777,11.266764
1003.937500,11.189421,7.862132,8.365143,7.630362
1003.941406,7.287570,10.999499,5.733546,-0.165850
1003.945312,-0.544517,3.278308,3.431570,7.114216
1003.949219,-1.740193,-2.476547,2.044955,-0.974828
1003.953125,2.936025,-5.927589,0.626048,-1.247693
1003.957031,-4.320466,-8.050833,-3.354987,-1.207835
1003.960938,-8.150940,-3.959327,-5.309958,-3.650125
1003.964844,-11.248302,-0.800873,-7.687987,-7.579831
1003.968750,-2.664542,-8.501855,-12.308937,-10.878507
1003.972656,-1.941041,-7.287739,-7.386408,-10.197901
1003.976562,-11.093293,-2.946154,-3.811079,-7.356634
1003.980469,-8.834912,-7.509286,-9.288262,-3.527438
1003.984375,-15.574941,-10.029277,-8.062721,-7.301833
1003.988281,-6.632864,-5.783876,-8.576097,-1.477074
1003.992188,-3.682710,-9.032881,-4.728478,-9.503854
1003.996094,2.121529,-1.186986,0.205927,-8.499388
1004.000000,-0.848986,-1.139450,3.634126,-2.782247
1004.003906,3.109869,8.573101,0.999806,3.738903
1004.007812,0.559541,10.280241,12.635716,-2.740954
1004.011719,8.544267,9.906092,10.786688,-4.530399
1004.015625,11.327960,9.853274,12.362114,8.544697
1004.019531,12.695549,7.421514,8.808072,12.146162
1004.023438,13.648228,17.075773,18.688336,12.010263
1004.027344,5.002028,13.474281,10.177349,13.058776
1004.031250,4.446908,8.831552,3.983754,12.071195
1004.035156,0.910360,7.452334,7.007411,11.278969
1004.039062,5.505725,9.393089,0.202164,4.872078
1004.042969,7.343112,6.916586,10.847188,2.726146
1004.046875,-1.745075,-0.248147,-3.526080,3.102495
1004.050781,-2.288304,-4.942146,9.200446,-6.496571
1004.054688,-4.770110,-4.830220,0.235041,-12.162889
1004.058594,-3.790529,-5.988005,-8.724542,-2.321833
1004.062500,-6.116179,-7.800011,-5.974527,-0.996437
1004.066406,-6.517000,-12.795603,-6.360015,-9.442778
1004.070312,-7.504400,-10.983362,-1.950816,-12.216944
1004.074219,-10.172427,-8.123743,-11.031606,-8.996498
1004.078125,-10.636534,-11.826634,-6.462878,-12.471927
1004.082031,-9.055277,-7.084206,-6.764453,-7.976211
1004.085938,-5.758130,-11.376692,1.254089,-9.466901
1004.089844,-2.415232,-7.416872,-8.923806,-3.310777
1004.093750,-9.621809,-0.806105,-0.212669,-10.461534
1004.097656,10.931984,-2.057071,-4.395327,9.840117
1004.101562,0.365162,1.429984,-1.284075,-3.236254
1004.105469,10.248646,-0.380841,3.472597,10.724008
1004.109375,1.923831,4.904751,3.829817,4.795559
1004.113281,2.624842,9.997221,10.170075,11.610234
1004.117188,20.220228,12.712823,4.980898,5.976057
1004.121094,8.516247,11.972591,-0.345052,8.799327
1004.125000,12.969637,11.376873,12.163123,13.069343
1004.128906,9.227600,12.096228,12.306788,13.559183
1004.132812,4.421968,13.147150,7.707987,12.305808
1004.136719,8.334478,16.130268,4.137808,2.778051
1004.140625,1.431377,6.934325,3.348043,4.858927
1004.144531,-1.442900,13.488176,-1.536870,10.960369
1004.148438,-5.135762,-1.775458,1.156158,-1.399380
1004.152344,-1.850646,-3.452902,2.761650,-2.270423
1004.156250,-2.718934,-11.158268,-6.823091,-10.084934
1004.160156,-0.538972,-6.185062,-4.223017,-5.475081
1004.164062,-8.379521,-2.899016,-13.209511,-0.692103
1004.167969,-8.322403,-12.490879,-12.028026,-11.337513
1004.171875,-5.630459,-7.914417,-16.024130,-11.081399
1004.175781,-10.001360,-10.265229,-11.693698,-7.463143
1004.179688,-14.491139,-11.186536,-16.427807,-8.831592
1004.183594,-4.453330,-6.494838,-5.549653,-14.050232
1004.187500,-7.533118,-9.739518,-9.236489,-2.009845
1004.191406,-3.137265,0.681432,-6.540416,-3.819331
1004.195312,-4.714847,-1.794252,-11.863839,-2.136585
1004.199219,-3.499626,-3.607593,2.680826,-4.272587
1004.203125,2.734298,1.045964,2.091049,-1.518035
1004.207031,2.249731,3.949483,0.505557,-3.026772
1004.210938,15.386961,4.776288,5.812342,9.988016
1004.214844,12.761661,6.726043,12.296065,6.446231
1004.218750,8.640929,2.911410,14.423463,8.907102
1004.222656,12.840922,-3.094942,7.963468,12.446488
1004.226562,9.370069,16.388509,11.011889,5.463703
1004.230469,12.666936,10.354303,4.773183,7.264559
1004.234375,4.143998,4.471529,8.907332,12.643263
1004.238281,5.670176,7.865432,4.172249,15.033614
1004.242188,7.389454,8.926280,6.258837,7.896650
1004.246094,2.611674,2.536943,-0.931057,2.840848
1004.250000,-4.574935,-3.369300,1.613908,2.680272
1004.253906,-0.116212,-2.775621,2.637881,-5.831499
1004.257812,-3.595496,0.185947,-9.947513,-9.675834
1004.261719,-6.307897,-5.037388,-9.941154,1.500483
1004.265625,-12.766830,-13.935394,-5.586550,-9.009815
1004.269531,-13.861891,-7.749915,-15.430488,-16.395477
1004.273438,-13.314842,-4.836628,-12.094225,-5.424340
1004.277344,-5.696883,-10.469272,-8.382961,-16.055996
1004.281250,-4.648337,-9.176067,-9.985757,-13.555949
1004.285156,-16.613132,-8.648597,-1.492939,-5.663830
1004.289062,-2.567330,-2.083146,-10.378950,-5.881571
1004.292969,0.448115,-2.381098,-4.704268,-8.550557
1004.296875,-11.221849,3.389745,-4.565798,-2.747284
1004.300781,-2.493160,-0.512020,-2.920445,5.191607
1004.304688,-4.886270,5.232275,7.095104,-2.465612
1004.308594,14.444302,4.559917,3.884486,6.307174
1004.312500,13.042486,2.545403,13.848958,9.157968
1004.316406,13.581732,2.310814,6.384791,10.202176
1004.320312,10.437500,7.855322,4.717406,11.926275
1004.324219,12.944423,12.785033,7.305400,10.029528
1004.328125,8.977725,12.982135,8.653132,9.075367
1004.332031,5.099256,12.214376,5.374913,14.672036
1004.335938,14.850790,10.428465,10.235752,8.803135
1004.339844,8.013857,7.072452,0.826260,2.107652
1004.343750,0.761651,3.314036,0.278607,2.735976
1004.347656,-4.323378,-0.856993,-4.168493,3.895286
1004.351562,1.803865,2.579516,-5.000289,-9.497472
1004.355469,0.476605,-5.717809,-7.178697,3.159024
1004.359375,-3.286722,-5.919404,-9.138361,-8.203493
1004.363281,-1.827044,-8.287270,-1.661942,-12.312244
1004.367188,-8.067074,-9.623486,-4.822173,-7.467871
1004.371094,-22.339855,-12.559947,0.136269,-9.703746
1004.375000,-4.506155,-12.016654,-11.444851,-1.366842
1004.378906,-11.531659,-14.937201,-8.967216,-14.474580
1004.382812,-2.382565,-15.981125,-7.643928,-13.362470
1004.386719,-9.079977,-7.106349,-4.805517,-2.783669
1004.390625,-12.863339,-5.174157,-8.510357,-8.062517
1004.394531,-7.751672,-6.441818,-4.861280,1.301715
1004.398438,-10.491660,3.202958,5.637273,4.713421
1004.402344,3.295016,0.546701,-5.283704,5.399731
1004.406250,0.511811,8.757156,0.458339,15.227953
1004.410156,9.751607,11.980864,5.495622,11.118593
1004.414062,12.528637,6.406716,9.092468,1.332610
1004.417969,4.739085,6.750013,12.593303,10.539186
1004.421875,7.658626,5.235048,11.016510,4.949493
1004.425781,9.962673,7.665699,8.536175,9.698458
1004.429688,8.774111,14.828687,11.055337,7.445936
1004.433594,12.041626,5.621450,15.694314,10.450892
1004.437500,8.515163,3.392830,5.452968,10.025069
1004.441406,4.018315,10.901400,10.359111,-0.436714
1004.445312,-3.032334,4.832499,-2.177079,2.702335
1004.449219,-1.207591,1.807308,6.642512,-2.403003
1004.453125,-4.331939,-2.124676,-0.572584,0.961052
1004.457031,-2.021433,0.715496,-2.382196,0.124573
1004.460938,-0.794500,-3.250061,-4.040102,-8.903668
1004.464844,-3.253155,-3.364289,-4.526036,-7.941462
1004.468750,-9.750266,-6.610053,-5.726064,-7.754272
1004.472656,-4.454392,-9.615034,-13.940581,-9.249406
1004.476562,-4.515504,-16.492700,-9.107420,-9.046020
1004.480469,-11.903721,-17.612675,-15.919860,-10.033573
1004.484375,-1.613728,-4.211481,-7.276398,-4.889700
1004.488281,-2.452965,-9.597003,-8.214390,-10.242405
1004.492188,-2.776244,2.537169,-12.045369,-4.772632
1004.496094,-1.391564,-2.525967,0.632322,-0.206798
1004.500000,-3.670612,8.136885,-1.507574,3.245278
1004.503906,-1.002890,-0.578532,0.816347,-0.723257
1004.507812,4.217344,0.328335,2.571965,0.294737
1004.511719,6.120287,4.893233,0.831125,5.908331
1004.515625,9.077817,3.889131,12.981199,4.398883
1004.519531,5.642061,13.184809,6.932104,5.700755
1004.523438,8.579575,12.516290,8.753891,22.781047
1004.527344,11.484037,13.783036,9.287751,5.686327
1004.531250,10.775464,7.946143,8.006964,13.013625
1004.535156,12.249820,8.029546,10.360665,15.854399
1004.539062,8.571567,0.198415,0.317062,8.339084
1004.542969,10.347192,8.943103,2.031876,8.481972
1004.546875,4.911212,3.572776,8.706278,5.085476
1004.550781,0.131152,3.078978,0.016500,4.014322
1004.554688,-8.281219,-4.266389,0.535416,3.073719
1004.558594,-4.924507,1.409259,0.531707,-4.248366
1004.562500,-11.811079,-5.018275,-3.599104,-1.878778
1004.566406,-6.236237,-17.134087,-5.509455,-10.445755
1004.570312,-10.962661,-10.616433,-5.570591,-4.988332
1004.574219,-8.528296,-9.392211,-10.997534,-4.487043
1004.578125,-6.283426,-12.824068,-11.783114,-11.447841
1004.582031,-10.431332,-8.463668,-8.005642,-12.966540
1004.585938,-10.275840,-7.741696,-7.350426,-3.570263
1004.589844,-10.054822,-5.844661,-7.516444,-6.003716
1004.593750,-6.085792,-9.778563,1.270602,3.412241
1004.597656,-5.364672,0.531007,1.440024,1.157898
1004.601562,4.736141,1.165794,-3.378264,-1.187011
1004.605469,-3.746685,5.709944,6.981880,1.569621
1004.609375,6.519994,13.353090,3.734495,7.440681
1004.613281,1.464706,12.382644,7.610805,9.270226
1004.617188,10.422340,12.462289,10.054261,16.426526
1004.621094,12.036164,13.769787,4.205673,10.037459
1004.625000,6.254458,13.464770,9.796071,11.271022
1004.628906,8.585638,9.812810,11.093829,10.674007
1004.632812,7.545899,14.044733,3.967878,8.945989
1004.636719,8.021656,12.940300,5.649386,13.839720
1004.640625,8.036659,10.006016,12.970080,13.306524
1004.644531,1.891975,3.112538,9.569184,10.410334
1004.648438,-5.219975,0.101478,1.824451,3.618872
1004.652344,2.460975,-5.029503,0.482293,-5.704032
1004.656250,-8.560025,-9.264602,-0.758601,-5.593429
1004.660156,-6.958988,0.297721,-14.040646,-3.318720
1004.664062,-12.487375,-7.395244,-11.469541,-1.610261
1004.667969,-7.120326,-7.274818,-6.832416,-8.838550
1004.671875,-4.349912,-15.250021,-8.614965,-6.324618
1004.675781,-9.534949,-11.272573,-10.219921,-10.075853
1004.679688,-10.415498,-13.030046,-6.842326,-9.729199
1004.683594,-10.146874,-7.311376,-9.680943,-4.060532
1004.687500,-11.838572,-4.155205,-9.957505,-3.221055
1004.691406,-2.826917,-5.998408,-4.644514,-6.669229
1004.695312,-7.401249,-1.900446,-5.696780,-4.977155
1004.699219,-1.713801,-6.034447,-0.781001,0.083655
1004.703125,6.394077,-0.859782,0.010505,-4.930110
1004.707031,2.561162,-1.964358,3.566183,0.606912
1004.710938,9.505266,4.440372,7.265050,5.643916
1004.714844,8.415335,6.425195,12.461395,10.676764
1004.718750,8.725535,8.415410,9.036627,10.831979
1004.722656,11.001972,17.133992,16.452267,11.251137
1004.726562,11.272724,14.594444,15.945591,13.531434
1004.730469,8.663371,12.083481,6.119886,6.134921
1004.734375,5.285261,5.812440,12.766204,15.471620
1004.738281,8.213387,1.646998,3.524838,3.427551
1004.742188,10.079921,3.308801,1.449310,1.032382
1004.746094,0.656830,8.208539,2.041540,0.488720
1004.750000,-2.490456,1.274969,9.040391,-1.450490
1004.753906,-7.772875,-2.326598,-1.363766,-4.450144
1004.757812,-5.211678,-7.171346,2.122391,-6.942695
1004.761719,-21.903233,-3.345017,-7.023575,-5.207702
1004.765625,-2.146752,-3.198238,-7.091592,-13.095474
1004.769531,-9.598973,-5.435790,-7.283120,-6.420569
1004.773438,-13.897975,-12.539746,-14.272972,-12.258243
1004.777344,-3.049275,-14.778638,-4.301338,-13.323111
1004.781250,-9.451425,-6.899934,-9.125862,-12.154714
1004.785156,-5.219488,-8.557652,1.962795,-10.867936
1004.789062,-7.366424,-7.819574,-5.038136,-2.590222
1004.792969,-7.414139,-8.910953,-4.750117,-5.828612
1004.796875,-4.844852,-1.098396,-4.564395,-2.030280
1004.800781,-0.874057,3.736595,2.708631,-2.172152
1004.804688,2.919422,-3.571794,7.162056,5.802871
1004.808594,5.800323,3.908156,-1.669294,12.088305
1004.812500,8.000602,6.388264,-0.571303,6.670411
1004.816406,8.010382,9.424524,12.484467,5.534548
1004.820312,10.186849,11.746468,10.261625,13.103950
1004.824219,10.370126,2.789273,12.027960,14.302266
1004.828125,11.526083,5.484163,9.333727,7.626457
1004.832031,4.303233,9.923315,4.088184,10.268687
1004.835938,2.720372,10.364202,14.543713,4.402945
1004.839844,3.294328,8.331214,4.019732,1.815350
1004.843750,-3.557179,1.599334,8.443859,-3.372598
1004.847656,5.641318,0.913798,1.190215,1.394603
1004.851562,4.843385,3.306943,-1.588035,-1.306892
1004.855469,-4.924189,1.708019,-1.149813,-5.875580
1004.859375,-10.312856,-11.270076,-3.351565,-8.348492
1004.863281,-1.154501,-2.634126,-7.995351,-7.134763
1004.867188,-7.918269,-6.972262,-7.546032,-8.155017
1004.871094,-12.633206,-4.665376,-7.615743,-11.102419
1004.875000,-16.322162,-6.612835,-16.006497,-4.080990
1004.878906,-10.926105,-12.681017,-11.896896,-15.113261
1004.882812,-13.319280,-4.349431,-8.109874,-4.594232
1004.886719,-7.666666,-3.511143,-7.205972,-5.263983
1004.890625,-10.240616,-10.376150,-5.188481,-8.496525
1004.894531,-4.462053,-6.833685,-6.607382,-11.314940
1004.898438,-3.887695,-10.290308,2.397441,-1.632801
1004.902344,4.934510,5.382230,-6.436333,-4.728269
1004.906250,4.276133,10.783773,3.662722,1.108199
1004.910156,1.314628,11.745077,10.673638,17.125428
1004.914062,12.722134,4.707197,10.700327,11.629021
1004.917969,5.938171,12.450229,10.179803,7.492294
1004.921875,18.534803,6.802467,9.789557,15.297276
1004.925781,11.498735,10.660604,13.089370,7.571968
1004.929688,12.433124,14.679381,10.610725,14.907488
1004.933594,14.127700,16.608240,-0.077719,13.372489
1004.937500,7.424936,9.769632,7.019857,15.225514
1004.941406,2.721006,9.907527,3.681336,13.443248
1004.945312,-1.128490,5.324272,8.771983,-4.898306
1004.949219,2.641434,6.213470,5.232701,-4.348773
1004.953125,-3.581904,-1.616107,-6.486289,-1.763662
1004.957031,-6.080691,-2.060824,-0.637693,-1.917025
1004.960938,-2.452058,-8.365516,-3.874494,-7.124389
1004.964844,-10.124375,-2.973239,-11.541268,-11.239938
1004.968750,-11.676511,-7.629295,-5.741332,-3.876239
1004.972656,-9.682119,-20.026086,-3.754248,-7.191978
1004.976562,-5.765046,-7.105918,-13.843832,-5.814464
1004.980469,-0.916750,-15.390393,-14.209210,-2.964563
1004.984375,-3.520670,-9.314519,-3.449523,-3.208751
1004.988281,-11.945668,-9.039545,-3.949883,-11.441460
1004.992188,-0.201991,-10.924193,-8.287132,-11.867858
1004.996094,-7.773231,-0.162935,-4.742372,-1.594449
1005.000000,-1.452367,0.681803,3.070111,1.635433
1005.003906,2.652210,-2.526548,4.880592,0.952974
1005.007812,0.000027,7.089787,8.339151,-4.031309
1005.011719,6.394955,8.676116,9.007851,10.953697
1005.015625,14.858164,11.335451,4.737712,7.224987
1005.019531,7.201703,9.181981,11.365345,12.817349
1005.023438,14.095303,13.805035,6.134096,12.211925
1005.027344,7.092576,1.530368,12.536742,9.714344
1005.031250,6.556594,11.966618,8.008406,12.448784
1005.035156,7.689575,8.827957,13.247752,0.432411
1005.039062,9.820774,1.567905,9.350076,10.134704
1005.042969,7.818963,-2.753574,4.278253,5.471515
1005.046875,6.321775,0.027893,-1.166089,-0.264189
1005.050781,-8.542251,3.766558,6.013387,-1.195721
1005.054688,-7.318529,6.630185,-0.487302,-8.883207
1005.058594,-0.800737,-17.964846,0.547773,-4.612026
1005.062500,-3.695917,-13.455660,-4.513718,-13.001390
1005.066406,-7.915193,-4.559220,-2.433060,-0.907985
1005.070312,-10.778573,-5.870624,-20.089595,-6.319480
1005.074219,-11.625146,-11.982258,-6.964023,-11.026074
1005.078125,-7.679016,-14.385148,-5.687930,-9.405392
1005.082031,-10.441205,-9.240510,-5.774415,-9.742424
1005.085938,-6.856692,-7.348317,-8.300501,-5.369675
1005.089844,-5.125217,-10.557153,-11.778156,-9.854829
1005.093750,1.134255,2.575439,3.686816,-7.384662
1005.097656,-0.990512,-4.164312,-7.903525,-4.394534
1005.101562,-0.256986,8.826814,3.703410,-0.705988
1005.105469,-1.908003,-1.259718,1.839401,2.705642
1005.109375,13.105809,8.939213,0.386936,12.037333
1005.113281,6.191678,9.296444,3.144651,3.919319
1005.117188,8.636734,-0.099613,6.525472,13.999071
1005.121094,2.907945,15.840308,8.518416,7.808533
1005.125000,10.967151,11.681986,4.722732,18.472624
1005.128906,7.588340,15.883549,13.641132,13.245615
1005.132812,14.439212,12.155038,12.219969,17.062879
1005.136719,5.553907,10.035337,-1.404072,8.160626
1005.140625,3.218531,1.431274,6.507421,6.071992
1005.144531,2.633937,2.408635,-4.854662,6.619654
1005.148438,1.790601,-1.141698,-1.258917,-3.602878
1005.152344,-3.181054,3.410258,-4.351384,-3.005379
1005.156250,1.451515,-13.308074,-7.985528,-3.666379
1005.160156,-1.277463,-5.001356,-11.715680,-5.446437
1005.164062,-8.265803,-8.800186,-11.208787,-13.744790
1005.167969,-7.506358,-9.247122,-9.632808,-8.684031
1005.171875,-2.113932,-6.684512,-13.329196,-12.060527
1005.175781,-12.171835,-13.362400,-4.849495,-12.644520
1005.179688,-6.242181,-12.085597,-7.171863,-17.004150
1005.183594,-10.531797,-5.258098,-6.467559,0.437210
1005.187500,-5.757426,-11.831765,-9.219586,-13.828719
1005.191406,-2.445378,-3.366326,-4.540748,-1.344097
1005.195312,-12.498231,-1.841192,-4.674520,-2.100745
1005.199219,-3.416619,-5.275562,3.807703,0.522566
1005.203125,-2.564966,3.986159,-3.037630,12.442010
1005.207031,0.064065,8.584057,7.930613,-0.657852
1005.210938,6.464013,7.511373,4.466378,10.440806
1005.214844,6.755779,-0.211537,6.765861,5.688447
1005.218750,11.568404,10.815726,8.883452,5.235341
1005.222656,5.319530,12.679117,8.314982,8.217627
1005.226562,9.633688,12.399123,11.123347,5.977326
1005.230469,9.964236,9.319565,5.955846,2.923847
1005.234375,5.477127,12.431132,9.409926,8.680918
1005.238281,15.224835,6.720904,8.535211,5.885656
1005.242188,13.213480,-0.269881,3.305495,8.864785
1005.246094,0.539855,-0.680132,8.665676,-1.707132
1005.250000,-0.299990,2.236882,-3.491800,-1.273479
1005.253906,0.207457,-5.133852,1.857513,-10.325235
1005.257812,-1.896610,-6.496703,-3.354471,-3.521483
1005.261719,-7.917209,-2.745860,-10.670157,-9.164623
1005.265625,-6.513927,-10.056113,-5.078266,-2.700770
1005.269531,-8.861348,-6.044520,-13.630363,-11.527755
1005.273438,-12.666348,-13.685213,-13.759179,-15.044061
1005.277344,-11.876771,-13.106583,-4.567036,-14.490219
1005.281250,-8.081491,-14.450659,-11.360565,-18.149219
1005.285156,-10.339526,-7.551434,-6.860653,-7.792699
1005.289062,-11.407444,-13.274746,-11.724583,-7.993390
1005.292969,-10.587651,-8.354701,-4.707430,-2.898538
1005.296875,-1.134572,-5.789316,-2.578624,2.274067
1005.300781,9.961769,8.145545,5.380947,-4.371739
1005.304688,2.039672,0.384440,7.068353,7.287621
1005.308594,5.418531,7.974727,9.576474,9.224215
1005.312500,-1.182714,9.395296,5.367501,4.500350
1005.316406,6.802881,8.819990,13.052174,9.647211
1005.320312,9.987448,10.383171,10.139033,6.475345
1005.324219,8.264192,14.626039,9.641147,9.978841
1005.328125,9.030928,14.338603,10.169432,7.167050
1005.332031,16.777462,11.031972,7.349366,8.811604
1005.335938,12.871476,12.964340,10.236962,9.964991
1005.339844,2.808048,11.816003,4.317499,3.597847
1005.343750,0.407544,4.169711,-0.391765,3.655747
1005.347656,-1.802593,-1.091300,0.945517,5.039148
1005.351562,-2.051992,2.816130,3.493132,-2.706768
1005.355469,-4.653165,-1.808487,0.059502,-0.181749
1005.359375,-2.047368,-7.938859,-8.397493,-2.567974
1005.363281,-5.693887,-4.591034,1.612741,-1.867512
1005.367188,-7.758947,-5.542127,-8.931284,-7.700468
1005.371094,-15.924676,-8.265561,-4.675071,-9.860615
1005.375000,-5.086064,-13.772619,-11.888628,-5.804259
1005.378906,-8.820436,-8.791613,-14.970031,-10.135198
1005.382812,-11.482124,-12.550687,-10.807911,-9.321329
1005.386719,-11.469960,-5.716420,-4.556190,-8.368456
1005.390625,-12.015586,-10.819764,0.891226,0.257925
1005.394531,-5.043300,-10.439440,-5.785407,2.764289
1005.398438,-0.068048,-5.026045,2.651478,-5.804918
1005.402344,1.879522,1.901620,4.863011,3.750193
1005.406250,1.233829,13.626109,2.030953,5.578838
1005.410156,7.469178,12.223165,11.442538,10.330083
1005.414062,8.543779,8.408371,8.879768,10.004885
1005.417969,15.237980,7.504328,7.862216,3.472894
1005.421875,13.511317,9.905868,7.100833,9.939214
1005.425781,11.413112,10.226872,17.002578,5.083227
1005.429688,8.560265,1.430152,12.257193,8.403246
1005.433594,16.020049,7.964832,3.288392,15.661386
1005.437500,4.171154,4.818749,8.643361,9.996157
1005.441406,10.504936,4.793819,5.091960,4.569777
1005.445312,-0.232527,-1.519528,8.135367,-2.336555
1005.449219,-0.712184,0.270264,5.453820,2.079324
1005.453125,-5.370492,0.604407,0.271094,-4.226119
1005.457031,3.244607,-3.242500,-12.194124,-1.026940
1005.460938,-7.068493,-7.652000,-11.980015,-12.645860
1005.464844,-12.087879,-9.272607,-5.853347,-11.053961
1005.468750,-12.785541,-11.485722,-12.058122,-4.165887
1005.472656,-8.834796,-9.847989,-7.702431,-12.362224
1005.476562,-10.619321,-14.094541,-13.794984,-8.483034
1005.480469,-13.747792,-14.213406,-0.972907,-10.218502
1005.484375,-12.413439,-8.271517,-10.006883,-5.719516
1005.488281,-10.022786,-5.010525,-5.135268,-13.648286
1005.492188,-5.392462,-2.708501,-0.672294,-0.144755
1005.496094,1.469275,-7.442945,1.245059,-1.471760
1005.500000,0.166742,-3.627539,0.431104,-0.480224
1005.503906,9.818250,0.348982,-0.415748,1.949790
1005.507812,2.276310,-0.968728,2.318844,6.819139
1005.511719,3.779212,6.075136,0.501008,4.230978
1005.515625,7.926506,9.212292,8.047998,11.243795
1005.519531,9.480061,19.739244,10.203262,4.935796
1005.523438,13.160442,12.631592,4.597764,9.431631
1005.527344,12.809640,4.750649,13.507272,11.124699
1005.531250,18.177052,11.941741,10.012228,8.269076
1005.535156,4.308136,7.014237,12.010367,0.016507
1005.539062,-0.699267,8.337650,-1.346431,-0.376046
1005.542969,7.636880,7.708793,6.360688,10.048340
1005.546875,3.856565,5.478951,-0.469093,6.920822
1005.550781,-4.399735,-4.676144,-5.124146,-3.572298
1005.554688,-8.195226,1.486333,-1.310209,-6.026649
1005.558594,-2.087644,-3.604744,-2.740309,-8.986802
1005.562500,-6.775300,-9.223177,-7.454291,-2.991694
1005.566406,-10.918940,-5.845478,-4.141933,-4.904197
1005.570312,-9.099539,-8.972994,-6.017066,-11.946519
1005.574219,-6.017783,-12.268763,-6.727506,-9.747824
1005.578125,-8.091570,-6.783561,-10.752758,-11.013079
1005.582031,-6.499942,-13.195996,-7.085795,-8.251412
1005.585938,-8.598757,-13.336048,-9.083771,1.781109
1005.589844,-5.976890,-4.717304,-5.946013,-1.377899
1005.593750,-2.104804,-3.241013,-0.068348,-9.017375
1005.597656,-5.434778,-1.690149,-3.310055,-4.775653
1005.601562,-1.033144,-7.193303,6.044170,0.683162
1005.605469,8.334898,-4.140854,2.276325,2.122527
1005.609375,2.817580,10.530003,4.292690,3.117179
1005.613281,7.229712,4.373244,13.735045,5.907436
1005.617188,5.390100,11.473238,13.765111,14.289017
1005.621094,12.307384,15.031224,8.156400,15.512292
1005.625000,13.572753,9.104863,6.943185,12.830147
1005.628906,7.941776,11.212027,12.286442,13.932191
1005.632812,-0.026085,9.972056,12.908127,9.113239
1005.636719,1.910017,12.217636,6.467869,11.734581
1005.640625,-4.986299,5.911067,12.264057,6.039790
1005.644531,7.106583,7.284228,-4.385204,4.073997
1005.648438,-0.445144,3.572994,3.765429,-1.718105
1005.652344,1.510534,-3.778445,-3.087159,-2.039854
1005.656250,-10.074941,-2.035085,-0.436644,6.047085
1005.660156,-3.509537,-8.562926,-11.429942,-0.382032
1005.664062,-10.100799,1.129458,-10.179597,-3.312067
1005.667969,-12.469142,-5.489485,-9.795273,-7.866377
1005.671875,-16.395767,-15.509407,-9.057241,-9.659379
1005.675781,-12.705173,-6.240812,-9.680008,-16.254371
1005.679688,-17.621157,-14.508249,-14.226545,-8.118337
1005.683594,-12.525607,-12.370326,-4.859478,-9.771439
1005.687500,-12.526694,-2.313000,-0.436599,-11.414545
1005.691406,-2.617562,-3.012044,-4.546732,-10.925315
1005.695312,0.209365,0.505228,1.469579,-8.769282
1005.699219,-3.301993,5.670439,-1.586160,-4.014007
1005.703125,8.419954,2.802286,1.301001,0.806588
1005.707031,3.501134,1.374471,9.983741,1.581515
1005.710938,5.707503,9.427164,8.227768,7.824972
1005.714844,6.236682,6.949517,-3.639879,8.549703
1005.718750,7.777846,9.752024,9.610447,7.754017
1005.722656,2.410738,6.287452,10.207760,11.269056
1005.726562,3.462818,4.455353,12.553676,8.860119
1005.730469,11.012733,8.394718,14.091463,9.098415
1005.734375,8.997108,9.536225,14.595245,-3.065265
1005.738281,5.713257,11.726646,16.064620,6.155404
1005.742188,3.571296,4.827045,7.349230,-7.086870
1005.746094,-0.342569,6.096941,2.599055,5.092815
1005.750000,7.636660,3.787503,-1.571291,-0.315657
1005.753906,-0.599779,-2.698145,-1.542678,-0.285530
1005.757812,-3.906437,-10.092356,-6.979435,-4.100227
1005.761719,-4.527238,0.605847,-0.058284,-11.674434
1005.765625,-9.258367,-12.945760,-6.577284,-10.245897
1005.769531,-2.696632,-7.597209,-6.278836,-8.334267
1005.773438,-5.624398,-9.292864,-12.848914,-3.876812
1005.777344,-11.763000,-9.206973,-1.226468,-7.444605
1005.781250,-13.808746,-4.278580,-6.884513,-14.513490
1005.785156,-3.561976,-8.129045,-2.521640,-5.708151
1005.789062,-9.565104,-7.205996,-7.436635,-4.952584
1005.792969,-1.423814,0.767309,-12.272085,-6.026309
1005.796875,-5.251390,3.268487,0.307468,-7.388308
1005.800781,1.392490,-2.621369,-5.379718,2.555496
1005.804688,6.065261,-1.269834,1.736803,-2.785527
1005.808594,7.835617,5.576355,5.490933,6.544594
1005.812500,11.022893,4.919419,7.313895,15.459249
1005.816406,6.253460,12.953878,8.363781,8.785521
1005.820312,18.094165,-1.699080,0.751462,5.859153
1005.824219,13.355248,11.069604,12.453495,8.417430
1005.828125,6.521927,6.778243,1.868119,5.021383
1005.832031,4.787880,7.577902,7.704138,7.266971
1005.835938,2.670757,2.453012,12.667760,-0.671774
1005.839844,9.262576,9.758117,5.375575,8.828885
1005.843750,3.120159,11.929688,4.291704,8.589616
1005.847656,3.311365,1.745363,-10.344182,5.065430
1005.851562,-0.231542,4.472955,-3.546817,0.897168
1005.855469,-2.312544,-4.675542,-2.468216,-1.070458
1005.859375,-1.186624,-3.050430,-8.777046,-10.486350
1005.863281,4.991444,0.658217,-12.442768,-8.699844
1005.867188,-11.617990,-6.276309,-11.636180,-11.909758
1005.871094,-1.966131,-12.010068,-1.277831,-7.196826
1005.875000,-4.546877,-7.418115,-11.049544,-6.860347
1005.878906,-6.199482,-12.720294,-6.976546,-16.351636
1005.882812,-11.725437,-10.323556,2.389410,-8.380396
1005.886719,-7.561668,-10.358175,-13.580580,-0.620927
1005.890625,-3.193219,-7.162602,-8.433425,-11.850443
1005.894531,-7.284093,-7.216792,0.614763,4.365946
1005.898438,-5.094843,4.415833,1.046737,2.606454
1005.902344,1.508111,-1.414656,-0.375249,-0.945758
1005.906250,0.856340,0.010788,2.288404,4.222917
1005.910156,8.125643,10.366814,9.159823,1.378694
1005.914062,13.651351,4.303217,13.588637,16.687663
1005.917969,8.448813,6.317368,16.344579,14.195558
1005.921875,12.041309,16.694907,11.337524,3.896901
1005.925781,9.403798,11.172281,13.298720,18.640950
1005.929688,8.937690,7.167666,10.165299,9.584425
1005.933594,14.170340,11.890144,10.805193,7.371654
1005.937500,8.349242,7.994220,6.784651,12.497717
1005.941406,-4.488381,-1.614499,10.965153,5.779050
1005.945312,2.788815,-0.849347,6.684895,-1.255418
1005.949219,4.723244,5.518816,-3.796975,-0.709516
1005.953125,-1.432300,6.882168,-3.336131,-6.686140
1005.957031,-4.489645,-4.013171,-5.602064,0.655670
1005.960938,-5.846829,-10.950265,-6.635004,-1.358523
1005.964844,-9.861500,-11.325907,0.877661,-5.652714
1005.968750,-12.246932,-5.718477,-7.541234,-13.120017
1005.972656,-13.707145,-8.270963,-8.681137,-2.786843
1005.976562,-8.370981,-15.535996,-8.502923,-13.934631
1005.980469,-12.762163,-5.205499,-11.015721,-9.384692
1005.984375,-4.333951,-13.233688,-4.136674,-10.242854
1005.988281,-8.186209,-2.095922,-12.361966,-6.836944
1005.992188,-2.139734,-4.707856,-4.855605,-6.518089
1005.996094,-4.405799,-4.810965,-2.287468,-2.070496
1006.000000,1.053781,-2.339225,2.190936,3.221465
1006.003906,3.202854,4.543236,10.303327,1.508757
1006.007812,1.803291,3.637918,6.872296,4.215946
1006.011719,5.112003,4.318857,3.174409,-0.191651
1006.015625,4.233459,2.886714,2.951637,18.116372
1006.019531,10.710450,8.794361,9.666870,9.474149
1006.023438,12.662983,12.651520,11.097179,8.957657
1006.027344,5.916678,10.391731,9.835467,11.646772
1006.031250,8.387368,3.431174,12.540142,8.479916
1006.035156,8.416950,9.671341,4.190620,13.664324
1006.039062,1.215562,2.882422,10.183080,3.444942
1006.042969,-3.930821,4.721792,10.767106,0.012343
1006.046875,1.630525,3.982151,-3.522390,-1.330650
1006.050781,-1.493335,-0.148769,-1.441240,-3.881034
1006.054688,-5.107701,-3.202845,-6.181130,0.568432
1006.058594,-7.738963,-8.929860,0.667210,-6.522268
1006.062500,-5.030301,-7.606599,-6.532440,-7.887402
1006.066406,0.403957,-6.425607,-9.033525,-1.609971
1006.070312,-9.033886,-12.470528,-10.391983,-9.486011
1006.074219,-9.185369,-11.122790,-12.784313,-11.873852
1006.078125,-9.309511,-9.368543,-10.535323,-6.506559
1006.082031,-20.152069,-13.242066,-11.776588,-4.583906
1006.085938,-7.531084,-5.226553,-10.182813,-3.870000
1006.089844,-10.793029,0.618364,-5.963695,-4.180752
1006.093750,1.100776,0.906436,-4.436014,-1.060596
1006.097656,-2.737181,-0.369369,1.745386,-4.233179
1006.101562,-0.631802,7.168606,8.086513,2.223697
1006.105469,2.785595,3.016357,4.482005,12.828598
1006.109375,1.403881,8.367076,7.407802,4.529103
1006.113281,6.628882,8.974880,7.895815,5.577271
1006.117188,8.760538,12.516899,10.174163,4.460447
1006.121094,7.004836,7.823889,11.382534,8.079336
1006.125000,12.035399,14.994055,9.842932,11.794275
1006.128906,10.854972,10.507644,2.856029,6.695965
1006.132812,10.886351,4.299128,15.118625,10.831916
1006.136719,6.626414,10.711803,6.519382,7.559277
1006.140625,8.669782,10.620280,8.279997,0.980983
1006.144531,8.681682,-2.190293,2.875040,3.110826
1006.148438,4.462699,0.211633,-1.233774,0.148324
1006.152344,-4.350106,-4.164619,-3.367027,-0.601241
1006.156250,-2.614168,-5.031700,-3.738561,-9.988271
1006.160156,-8.591488,-11.972336,-6.357870,-15.611742
1006.164062,-12.331236,-14.984531,-4.079055,-0.468669
1006.167969,-8.643867,-9.358306,-12.900194,-14.635895
1006.171875,-9.797014,-7.196007,-4.732546,-11.886134
1006.175781,-10.571387,-12.837887,-11.889529,-12.722260
1006.179688,-0.917827,-9.405238,-5.995089,-11.568681
1006.183594,-4.677445,-10.568160,-6.446575,-8.690301
1006.187500,-8.491612,-5.595347,-6.840432,-11.563959
1006.191406,-6.982324,-7.168954,-6.513692,-8.991006
1006.195312,2.490224,-2.984091,3.225666,2.610068
1006.199219,3.333992,2.468996,0.284574,-0.209639
1006.203125,-4.333594,-0.930308,2.893166,1.449420
1006.207031,2.079950,6.395175,-1.691975,2.091108
1006.210938,10.065185,-0.018182,8.824063,5.449124
1006.214844,11.583225,13.866916,5.740830,1.252520
1006.218750,5.949518,9.866432,5.473291,4.046448
1006.222656,11.194133,2.548099,13.094923,9.541812
1006.226562,5.785307,11.697585,9.882588,4.820455
1006.230469,-1.043820,5.773485,4.693789,9.965038
1006.234375,14.159577,1.982802,6.817738,7.033590
1006.238281,-1.249865,6.910169,1.379212,10.007234
1006.242188,5.667624,3.546972,2.064198,8.796088
1006.246094,9.610798,6.075710,0.877288,-2.719683
1006.250000,8.808943,0.364175,0.043037,1.048644
1006.253906,-6.602981,-7.479954,-0.248142,-0.085300
1006.257812,-13.444665,-9.022997,-3.505223,-5.093940
1006.261719,-6.215494,-3.316470,-8.085962,-3.441801
1006.265625,-12.481827,-9.600933,-4.617442,-8.288299
1006.269531,-8.045819,-6.383863,-6.804987,-11.033264
1006.273438,-17.274937,-9.973313,-6.661759,-3.871440
1006.277344,-13.494146,-10.963689,-9.721713,-14.254992
1006.281250,-15.387395,-9.688568,-13.206674,-10.522310
1006.285156,-1.621500,-6.073954,-16.709841,-7.991122
1006.289062,-9.330947,-2.077553,-9.255127,-6.796327
1006.292969,-6.102184,1.571639,-4.323111,-6.225019
1006.296875,5.901764,-9.107410,-1.675863,-2.179137
1006.300781,-0.986692,-1.579934,-6.167116,3.033951
1006.304688,2.473710,-0.041575,5.222695,12.244058
1006.308594,-1.722757,5.039855,6.568988,-0.898551
1006.312500,-0.263369,2.637433,6.487930,12.336725
1006.316406,8.111144,8.973938,11.310491,4.209010
1006.320312,14.880758,15.379253,8.057269,9.733054
1006.324219,4.015420,11.714325,13.928686,9.924996
1006.328125,10.978385,10.087520,11.058091,-0.131179
1006.332031,5.752675,5.874639,14.869461,9.250687
1006.335938,7.408944,6.338341,8.090636,3.488693
1006.339844,9.505795,5.146966,14.532940,8.844744
1006.343750,6.339613,5.643180,5.277054,-0.228595
1006.347656,-3.263883,-3.736309,-0.428655,-1.284761
1006.351562,2.978719,-2.988046,1.391835,1.372222
1006.355469,-6.095789,-0.189212,-7.867156,-14.670477
1006.359375,-0.552594,-0.646125,-8.907344,-8.282130
1006.363281,-5.510591,-6.434110,-13.872886,-11.842795
1006.367188,-3.207152,-10.980496,-13.557201,-7.178502
1006.371094,-10.322761,-12.712143,-13.185802,-2.579262
1006.375000,-10.643194,-14.176226,-15.214698,-10.453094
1006.378906,-15.253458,0.867000,-7.230249,-10.361379
1006.382812,-8.801892,-5.626541,-7.625940,-3.502062
1006.386719,-7.405212,-7.706233,-4.566525,-10.076876
1006.390625,-10.071561,-3.601227,-4.745918,-8.630421
1006.394531,-3.000628,-1.188193,-5.276233,-9.195872
1006.398438,-1.809077,3.856071,0.139449,1.125209
1006.402344,2.521245,0.629126,3.199418,4.524607
1006.406250,0.494780,1.186165,5.470388,3.268065
1006.410156,7.774730,8.841030,7.417472,4.781206
1006.414062,16.215515,9.875012,8.877113,2.483790
1006.417969,20.214213,18.352953,15.359276,15.006557
1006.421875,16.059247,2.460838,7.762612,6.720846
1006.425781,11.583614,12.302984,10.116240,11.702296
1006.429688,15.993497,7.527084,14.853197,12.555373
1006.433594,6.644675,9.329974,10.872849,11.098415
1006.437500,14.782631,8.114970,4.224126,6.165077
1006.441406,-3.012202,6.455912,5.107774,7.493839
1006.445312,6.716335,5.057130,0.486269,1.152261
1006.449219,-4.866239,3.779015,9.220569,-0.738902
1006.453125,-0.543611,2.151047,0.739034,-0.011893
1006.457031,-7.417564,4.403180,-5.591300,-9.717263
1006.460938,-8.257990,-1.096615,-2.950154,-4.191281
1006.464844,-8.693744,-12.360663,-6.961012,-7.677158
1006.468750,-13.257378,-8.382784,-10.897814,-3.025559
1006.472656,-6.392724,-7.707942,-14.658406,-9.704426
1006.476562,-13.622417,-6.894823,-13.435221,-12.756290
1006.480469,-7.177805,-7.592480,-8.833269,-3.538469
1006.484375,-12.007672,-6.526860,-13.102347,-3.556491
1006.488281,-13.519404,-8.683051,-5.551260,-4.985695
1006.492188,-2.733036,-7.132478,0.599445,0.771806
1006.496094,2.516052,-1.341308,-5.270762,2.133290
1006.500000,3.941219,1.496556,-5.552861,0.127433
1006.503906,-10.072705,10.559937,3.414004,5.318853
1006.507812,3.983675,6.780325,8.059867,6.718509
1006.511719,10.123604,10.980787,6.660385,6.442251
1006.515625,8.666458,8.061009,5.465943,7.896103
1006.519531,6.604645,8.696635,7.513032,8.637123
1006.523438,8.277324,10.299028,15.207712,9.349740
1006.527344,9.809636,8.031341,12.301275,10.550434
1006.531250,8.716197,8.844738,13.855127,13.587668
1006.535156,9.383644,12.428045,0.857651,8.074800
1006.539062,6.034166,10.900205,9.923088,0.273973
1006.542969,4.680002,-0.998768,3.959157,10.170752
1006.546875,3.901764,1.680601,5.403137,5.922038
1006.550781,-3.173115,-0.944018,-5.816848,1.560339
1006.554688,-4.018573,-2.419007,-8.568299,-3.854750
1006.558594,-0.746807,-3.254539,-9.650107,1.405806
1006.562500,-7.381290,-7.368462,-6.191993,-11.052627
1006.566406,-5.490496,-9.174744,-7.605942,-8.095937
1006.570312,-10.649088,-6.681953,-9.363951,-11.023495
1006.574219,-8.895753,-13.540376,-12.919307,-14.273056
1006.578125,-11.331420,-10.439775,-9.095768,-8.521654
1006.582031,-4.816454,-17.641145,-11.716708,-4.180573
1006.585938,-4.784707,-3.807467,-6.345604,-4.306349
1006.589844,-2.991642,0.204386,-4.103485,-9.640346
1006.593750,-3.368020,0.457555,-8.403546,-3.425124
1006.597656,-4.803548,1.932017,-7.303064,-9.904709
1006.601562,1.768479,3.911137,0.962519,-10.057625
1006.605469,11.585473,2.059716,-0.631417,1.822279
1006.609375,5.556904,8.641012,2.902643,2.282415
1006.613281,4.717049,9.866821,3.514861,5.860590
1006.617188,-0.016221,7.662680,13.575420,15.959948
1006.621094,10.143020,16.190981,19.934745,10.106985
1006.625000,3.384268,14.801112,11.124558,16.827236
1006.628906,4.352331,16.975246,11.226532,5.910018
1006.632812,7.281886,10.637234,8.855123,9.568646
1006.636719,9.933328,3.507450,8.777033,2.963191
1006.640625,-2.599275,2.834846,4.292328,6.181043
1006.644531,3.122018,-0.386066,4.394989,-2.103604
1006.648438,7.067803,-0.740560,5.890913,0.799794
1006.652344,2.998309,-7.456547,6.277453,0.627884
1006.656250,-9.871024,-3.177246,1.674629,-2.855305
1006.660156,-0.119272,-9.328493,-4.613617,-3.882694
1006.664062,-5.532984,-2.261075,1.078376,-10.147333
1006.667969,-12.863517,-9.975035,-8.251668,-7.707979
1006.671875,-11.883864,-11.348193,-8.714250,-18.295506
1006.675781,-12.953485,-11.175893,-7.255989,-7.260953
1006.679688,-5.696665,-3.297157,-15.446165,-8.696880
1006.683594,-7.534045,-4.066768,-14.287072,-11.039551
1006.687500,-3.157622,-10.910019,-19.781166,-8.088355
1006.691406,-0.515063,-8.618467,-5.275248,-1.880219
1006.695312,-0.213591,-3.265281,5.728756,-1.903958
1006.699219,3.460436,0.338285,-1.288952,2.912979
1006.703125,-1.732197,-0.205836,-5.381861,3.900523
1006.707031,10.701714,6.591896,6.120170,6.267355
1006.710938,5.489835,5.636853,5.836873,11.005077
1006.714844,10.041199,9.562673,10.371500,12.685758
1006.718750,11.007660,10.728907,14.027118,9.180749
1006.722656,8.728511,6.535560,9.590397,13.723303
1006.726562,8.156325,15.002430,3.770785,19.071627
1006.730469,9.069977,12.009064,10.215140,8.320575
1006.734375,12.295049,8.222717,5.969350,5.408262
1006.738281,1.767080,4.980722,16.667976,9.089088
1006.742188,-2.254379,8.894889,4.055342,5.590797
1006.746094,3.012367,14.604253,-4.985864,3.110219
1006.750000,-2.170026,1.265649,3.562563,3.361029
1006.753906,-3.309889,5.425324,-2.366824,-2.126197
1006.757812,-13.472048,0.394972,-2.753946,-11.431448
1006.761719,-14.462601,-2.788470,-8.540698,-7.841958
1006.765625,-10.172714,-3.867238,-14.432682,-11.318221
1006.769531,0.040373,-12.838219,-6.879434,-6.524564
1006.773438,-3.504443,-16.380606,-8.003833,-8.059446
1006.777344,-9.755844,-9.486455,-15.033586,-11.616536
1006.781250,-12.999423,-6.609979,-8.417352,-9.604328
1006.785156,-5.141446,-3.868316,-6.273800,-6.529508
1006.789062,-4.409090,-5.031063,-6.305394,-5.554276
1006.792969,-2.673451,-7.110154,-8.690002,1.669820
1006.796875,-5.632308,0.667509,6.179924,0.557019
1006.800781,2.097560,12.003117,2.994119,5.986672
1006.804688,3.951659,5.794684,3.050720,1.673698
1006.808594,10.612743,5.298344,4.878417,7.853669
1006.812500,4.477446,8.160219,-0.876540,9.788412
1006.816406,-1.821943,9.822984,9.984365,6.096624
1006.820312,14.810374,4.704084,4.775112,9.687127
1006.824219,11.054409,14.485353,6.973921,8.227477
1006.828125,7.901191,7.287018,7.332747,15.788433
1006.832031,12.715707,3.659505,13.362950,2.420329
1006.835938,15.030614,1.166158,4.968044,12.193855
1006.839844,11.417274,14.377985,4.565575,4.542982
1006.843750,4.810072,6.252598,0.418641,0.677275
1006.847656,3.272180,5.303128,4.192391,-0.702898
1006.851562,-0.655475,0.193700,-2.497627,0.469257
1006.855469,-6.676707,-2.248009,-3.616548,-10.778566
1006.859375,-2.328648,-15.164549,-4.228260,-6.552553
1006.863281,-9.802828,-9.897446,-15.777466,-8.169596
1006.867188,-11.764760,-16.213934,-12.617339,-15.228713
1006.871094,-14.316713,-12.756759,-2.351276,-8.257096
1006.875000,-2.836823,-14.135548,-18.177887,-7.540141
1006.878906,-7.749866,-2.283550,-8.659549,-5.650025
1006.882812,-14.627118,-8.582724,-12.330439,-8.917700
1006.886719,2.973956,-3.324161,-19.764114,-2.814509
1006.890625,-4.865907,-7.481109,-5.662242,-9.807748
1006.894531,-2.680426,0.537631,-1.346605,-3.687462
1006.898438,-9.813729,-0.187409,-5.688916,-2.895177
1006.902344,1.016176,-0.284251,2.732849,3.585931
1006.906250,4.407151,7.845272,1.596114,0.309700
1006.910156,8.475776,9.497153,4.015198,12.631103
1006.914062,-3.050402,8.697571,7.536274,10.098320
1006.917969,2.951236,8.894859,6.184414,12.547961
1006.921875,10.570727,7.355536,6.836378,10.521512
1006.925781,15.478208,8.833398,12.466961,13.011597
1006.929688,10.325970,6.359803,13.162910,11.409704
1006.933594,10.003375,9.374828,8.522258,7.798222
1006.937500,4.959477,4.748231,-0.874246,7.838398
1006.941406,5.692763,5.632089,5.212680,7.612273
1006.945312,1.738921,1.623646,6.743194,6.250729
1006.949219,-0.418770,1.140026,1.744795,3.882987
1006.953125,-4.909885,2.940479,-3.644764,2.444962
1006.957031,-2.834065,-1.606163,-7.976435,-6.716087
1006.960938,-4.824360,-11.369316,-6.040446,-12.733647
1006.964844,-8.739471,-11.080257,-18.591094,-5.937280
1006.968750,-6.394297,-12.068119,-13.517918,-4.010035
1006.972656,-14.685837,-16.860654,-12.411225,-12.607759
1006.976562,-12.599977,-15.909404,-2.282426,-9.714310
1006.980469,-8.896344,-16.456783,-8.851976,-9.162705
1006.984375,-16.680444,0.403213,-10.697749,-8.382849
1006.988281,-6.691053,-3.710751,-7.564984,-4.612841
1006.992188,-4.240379,3.348616,1.548284,-11.559171
1006.996094,-4.845957,-7.247291,3.533792,-5.891020
1007.000000,-4.532137,0.343524,-1.790579,-4.901924
1007.003906,6.229938,2.180404,7.177742,2.600650
1007.007812,7.475082,11.554824,9.831809,1.393285
1007.011719,2.701741,8.245499,3.582325,8.970398
1007.015625,9.184951,11.611731,10.318110,-1.796155
1007.019531,4.579550,5.700558,6.192554,8.058574
1007.023438,10.714643,15.249096,5.470154,11.880643
1007.027344,17.551231,11.587604,8.406646,10.208297
1007.031250,6.925955,3.639948,10.762299,9.237790
1007.035156,7.436555,10.677628,9.332414,4.350562
1007.039062,8.111256,0.964553,10.733684,-2.141335
1007.042969,12.207786,6.291901,2.882392,3.852014
1007.046875,0.561497,-2.314481,5.527499,-0.457339
1007.050781,-4.610837,-8.817266,2.497112,-3.357166
1007.054688,4.897654,-8.229889,5.045719,-6.423002
1007.058594,-5.562523,-4.217227,-2.698224,-4.924311
1007.062500,-8.868476,-7.752917,-11.816142,-12.002141
1007.066406,-12.972270,-6.872002,-7.437650,-8.844668
1007.070312,-14.123127,-8.711522,-9.452633,-7.547163
1007.074219,-10.097504,-6.337436,-14.503210,-9.079985
1007.078125,-7.234059,-6.410348,-14.000933,-15.131790
1007.082031,-13.131885,-3.935484,-8.939049,-10.710887
1007.085938,-13.126373,-2.337316,-10.025145,-10.627214
1007.089844,-2.936035,-4.921999,-12.771365,-4.027704
1007.093750,-10.044230,-5.566711,-9.220552,-8.053146
1007.097656,-8.500328,-0.602052,3.985956,-1.550009
1007.101562,1.723649,-0.302137,-0.523339,0.467351
1007.105469,-1.545840,1.640982,4.440098,-1.144079
1007.109375,-2.440178,6.817956,7.436772,11.673069
1007.113281,6.320302,4.226165,4.571518,10.537617
1007.117188,3.671146,5.356336,9.383072,5.911169
1007.121094,6.409973,10.007240,10.055488,9.641750
1007.125000,2.892068,7.041703,8.247086,-0.331119
1007.128906,13.197016,8.954752,9.043028,13.519506
1007.132812,11.509975,6.525732,7.017137,15.578921
1007.136719,2.277761,6.541197,6.661322,3.912854
1007.140625,8.267394,-0.147637,12.120187,8.268989
1007.144531,0.493233,-5.443010,2.601603,7.776486
1007.148438,-3.735072,-8.624655,-3.000776,-0.489161
1007.152344,-7.306732,-5.804115,4.309303,-2.593075
1007.156250,-3.671118,-2.011064,-0.553965,-7.754766
1007.160156,-8.297862,-8.980709,-12.071589,-6.189064
1007.164062,-0.727293,-3.546555,-8.049155,-12.162407
1007.167969,-13.173109,-11.546037,-8.963222,-12.129789
1007.171875,-17.500954,-11.615603,-6.529305,-8.808917
1007.175781,-11.064613,-9.462178,-15.876249,-12.454602
1007.179688,-6.868874,-12.862080,-8.905535,-9.031180
1007.183594,-5.229885,-6.229316,-5.168469,-9.304940
1007.187500,-3.356052,-7.297853,-5.588251,-11.159232
1007.191406,-13.088507,-9.853244,-6.154907,-5.093036
1007.195312,-4.279401,-9.995949,-7.018797,-3.725724
1007.199219,0.431353,-1.438947,-2.296850,0.526754
1007.203125,1.227327,7.325812,-3.327622,-0.147699
1007.207031,3.233067,5.305133,5.971543,5.682834
1007.210938,3.302661,7.043828,5.101220,7.755480
1007.214844,10.624769,4.743936,7.103379,10.473923
1007.218750,8.017127,7.054162,12.818526,12.585390
1007.222656,10.571369,10.568127,12.193114,7.118000
1007.226562,10.386473,7.319671,12.834458,6.675686
1007.230469,1.462347,6.971980,21.273639,14.878917
1007.234375,1.905408,2.607208,10.550213,10.434994
1007.238281,5.702469,10.046224,6.026560,13.052976
1007.242188,3.790018,1.688106,1.156804,12.777777
1007.246094,0.543918,-0.000112,5.032680,3.477060
1007.250000,-5.143554,0.713896,-0.322778,2.259291
1007.253906,-8.257695,-5.403344,-6.005879,0.286374
1007.257812,-5.943167,-11.850420,-2.350639,-2.423697
1007.261719,-9.410117,1.632216,-4.069263,-14.547583
1007.265625,-20.708177,-8.583543,-1.476937,-9.595825
1007.269531,-5.277875,-18.280483,-12.638182,-13.288943
1007.273438,-10.886954,-16.600153,-8.841301,-12.297317
1007.277344,-9.085486,-8.364139,-10.597857,-8.163276
1007.281250,-8.133251,-7.427450,-12.611021,-9.383338
1007.285156,-9.848822,-6.044756,-11.469495,1.151800
1007.289062,-5.894549,-1.648731,-4.871683,-7.248598
1007.292969,-4.937899,-5.260408,-6.618686,-1.207300
1007.296875,4.952748,-9.638511,6.749038,2.392206
1007.300781,-5.193274,-1.886989,-2.735179,1.563534
1007.304688,0.810443,10.657939,-6.095277,8.113568
1007.308594,7.696126,3.900487,3.712804,7.453082
1007.312500,7.178890,5.156949,11.422057,8.970817
1007.316406,9.681043,7.664030,7.102841,12.480448
1007.320312,7.808825,-0.345249,7.908681,10.284714
1007.324219,12.233512,15.050817,13.488558,7.430072
1007.328125,11.650972,11.161339,4.333428,3.552864
1007.332031,11.421638,12.877529,7.975954,4.001624
1007.335938,5.480193,9.725576,2.296642,7.421799
1007.339844,5.630631,4.387132,5.233677,11.453023
1007.343750,6.272111,6.869101,5.826207,2.229648
1007.347656,0.267106,1.272221,4.695777,-0.591731
1007.351562,-0.323087,1.644924,-2.681686,8.675775
1007.355469,-4.800290,-5.482876,-3.348992,3.152177
1007.359375,-0.278541,-0.501631,-6.759594,-1.316770
1007.363281,-8.408423,-4.141284,-2.712806,-4.109912
1007.367188,-15.266903,-3.669000,-7.848024,-13.423344
1007.371094,-11.036670,-16.431229,-8.880126,-7.291806
1007.375000,-9.320371,-11.902269,-9.456976,-13.464616
1007.378906,-10.904310,-5.612542,-8.881932,-16.953042
1007.382812,-7.122642,2.296167,-6.434872,-14.764669
1007.386719,-6.866268,-8.172160,-7.225965,-3.232957
1007.390625,-5.477978,-2.642171,-6.984467,-2.453750
1007.394531,-1.540712,-4.471868,3.965358,-2.528105
1007.398438,-2.449242,5.446891,-4.695184,-3.120525
1007.402344,3.270067,-0.394259,4.823932,-5.899071
1007.406250,5.167039,-0.744077,1.342701,3.135106
1007.410156,5.371698,2.736076,8.915143,6.953462
1007.414062,8.512915,7.576685,12.889680,5.244623
1007.417969,4.421485,4.310886,11.371002,5.875852
1007.421875,11.149838,7.329147,14.917140,16.310905
1007.425781,8.188411,11.235186,11.943126,6.288314
1007.429688,4.135305,13.327209,7.758001,12.849339
1007.433594,6.356872,13.030394,6.182539,5.825796
1007.437500,4.325022,5.063443,8.983747,13.305194
1007.441406,5.940851,4.529453,-0.629615,1.219132
1007.445312,5.591439,-0.528415,10.288505,5.261238
1007.449219,4.323481,-3.034489,-7.589350,5.271051
1007.453125,0.467206,0.403999,-4.774447,-7.294432
1007.457031,0.127521,-0.493224,-6.782501,-2.355804
1007.460938,-9.869078,-6.964932,-11.050828,-10.621810
1007.464844,-8.780260,-3.732114,-8.301812,-7.363646
1007.468750,-10.388634,-1.467609,-6.179439,-10.788921
1007.472656,-11.071967,-8.644390,-9.190753,-9.903543
1007.476562,-9.241901,-13.487082,-10.756292,-9.079841
1007.480469,-5.251903,-3.909205,-7.845688,-6.811155
1007.484375,-5.161040,-10.682873,-9.010301,-3.060425
1007.488281,-6.730420,-5.429664,-1.962349,-9.351295
1007.492188,-1.564910,-6.517292,-5.698918,-3.747717
1007.496094,1.264966,-4.375361,4.506561,-5.195645
1007.500000,4.775659,-5.213228,-3.887419,-4.593470
1007.503906,1.663848,5.048333,-5.067615,0.996593
1007.507812,8.514168,5.691535,7.431190,2.619211
1007.511719,4.137862,11.567277,4.277792,8.681500
1007.515625,2.796399,13.875271,13.026869,2.511383
1007.519531,13.598192,6.644965,8.533137,9.877449
1007.523438,21.024543,11.917440,10.076138,8.984066
1007.527344,5.681871,10.027078,8.390000,9.598666
1007.531250,12.864195,12.377692,5.116452,6.585816
1007.535156,5.514571,12.596472,7.696669,9.752906
1007.539062,8.912835,4.857898,9.964892,13.916192
1007.542969,6.226870,0.875364,-2.439253,-1.152097
1007.546875,10.536134,7.918076,-0.969499,4.262023
1007.550781,-0.151785,-3.014927,0.354866,6.308262
1007.554688,-5.393096,-2.767661,-3.296468,-4.341213
1007.558594,-0.861723,-5.107158,-15.253205,-9.586364
1007.562500,-0.989762,-8.419964,-7.806228,-7.994875
1007.566406,-11.047456,-9.342217,-6.127254,-8.241177
1007.570312,-1.305936,-8.068841,-6.450232,-10.832215
1007.574219,-11.678731,-6.378424,-9.262952,-10.641492
1007.578125,-12.228980,-4.770537,-15.166504,-5.158543
1007.582031,-5.532990,-7.566211,-12.689836,-9.230248
1007.585938,-4.507682,-4.314695,-7.950242,-11.055472
1007.589844,-6.138874,-4.369142,-13.542386,-3.479159
1007.593750,-0.066887,0.513826,-4.660233,-1.165487
1007.597656,-7.129697,-5.089084,-3.271198,-5.726406
1007.601562,3.827487,8.113287,-1.375175,3.662354
1007.605469,7.500954,-0.466046,8.865607,-0.886488
1007.609375,7.456787,4.503491,0.266457,6.460990
1007.613281,6.229771,6.752664,7.306833,12.699762
1007.617188,11.838088,6.937096,10.280584,12.749015
1007.621094,3.841201,15.142707,9.287601,8.146576
1007.625000,9.437739,11.552547,1.303336,11.534358
1007.628906,15.771637,6.146574,5.738779,6.437945
1007.632812,12.809307,10.411956,12.366339,11.605887
1007.636719,13.933619,10.799771,5.949848,-0.263856
1007.640625,10.296937,4.905835,6.001363,2.798957
1007.644531,-1.245351,2.138665,3.313918,5.689002
1007.648438,-0.279875,4.087249,1.521886,3.066713
1007.652344,-2.805532,0.303949,-6.248324,1.454240
1007.656250,-9.605058,-7.243734,1.341391,-7.234466
1007.660156,0.421982,-9.580294,-10.021796,-6.885452
1007.664062,-5.093688,-10.465481,-4.717280,-4.819449
1007.667969,-8.024353,-13.647070,-8.443460,-9.764090
1007.671875,-9.377305,-15.781437,-9.710859,-8.552389
1007.675781,-8.002698,-6.187337,-11.350841,-12.907386
1007.679688,-2.285257,-11.515280,-6.726526,-8.633186
1007.683594,-12.681661,-7.258682,-15.635677,-3.750121
1007.687500,-13.365901,-8.827644,-8.406387,-11.324862
1007.691406,-8.793718,-0.240067,-2.010775,3.467607
1007.695312,-1.598111,-2.513316,-5.880098,-7.027451
1007.699219,-4.810041,-3.022456,2.238907,-4.408488
1007.703125,5.338561,5.162195,0.971348,2.775674
1007.707031,5.805931,-0.633381,7.324728,0.501334
1007.710938,6.581481,-2.514261,11.159214,3.196235
1007.714844,12.119867,4.135251,5.389083,8.681596
1007.718750,7.614834,9.120627,17.018006,8.762419
1007.722656,8.235904,7.091992,6.487466,8.739106
1007.726562,9.507224,10.768301,8.899814,13.532265
1007.730469,3.086436,11.391126,11.225504,13.720054
1007.734375,5.038118,5.424358,9.913971,3.951009
1007.738281,4.322804,5.782386,-0.742741,-0.005295
1007.742188,5.167430,12.214324,9.448189,3.723721
1007.746094,2.048295,1.894614,0.054606,8.600708
1007.750000,5.272972,4.367670,-2.559999,-0.876881
1007.753906,-5.591881,-7.455862,-4.969151,-0.216107
1007.757812,-11.144875,-4.416935,-7.003141,-7.170395
1007.761719,-4.831353,-8.347827,-11.461875,-1.249588
1007.765625,-8.572626,-4.670765,-8.726943,-13.102104
1007.769531,-13.694539,-11.503071,-13.205750,-4.300460
1007.773438,-2.160644,-12.386538,-13.493253,-3.659881
1007.777344,-14.453011,-1.059409,-7.661406,-5.266861
1007.781250,-8.415043,-15.174771,-10.457932,-10.230415
1007.785156,-2.883266,-12.313668,-7.122637,-13.640341
1007.789062,-13.256946,-9.981176,-7.685648,-12.139242
1007.792969,-2.472979,-5.080680,-6.263158,-8.838743
1007.796875,-4.540790,-3.004908,-1.863870,0.422012
1007.800781,-2.864843,5.239095,5.600698,2.921786
1007.804688,7.088937,4.921051,-2.621188,1.099756
1007.808594,2.212641,8.109654,6.533844,3.576087
1007.812500,10.681312,9.862036,9.058873,8.289135
1007.816406,10.720962,8.958953,9.887546,13.952128
1007.820312,18.537020,5.161506,10.411635,7.358313
1007.824219,12.793498,11.330296,18.539317,11.259615
1007.828125,5.315248,11.372930,6.740451,12.395023
1007.832031,-2.392068,11.837622,11.921525,11.474443
1007.835938,8.192214,1.243363,4.847037,0.613279
1007.839844,4.057378,8.429416,8.426111,3.102332
1007.843750,-0.205681,-2.230656,4.698944,4.787968
1007.847656,1.389863,7.161311,-6.372612,3.333054
1007.851562,4.504338,-7.598269,-2.172304,2.347281
1007.855469,2.607215,7.350250,-0.554479,-2.700066
1007.859375,-13.431352,-4.116129,2.862675,-7.321997
1007.863281,-3.335468,-7.426815,-10.978426,-14.871289
1007.867188,-16.297740,-9.002486,-11.211003,-9.715104
1007.871094,-8.465691,-4.723278,-5.190709,-7.913811
1007.875000,-6.851448,-12.735245,-11.051189,-8.421032
1007.878906,-9.805734,-9.532454,-10.308404,-11.659845
1007.882812,-9.627018,-1.622403,-13.175955,-0.366864
1007.886719,0.911739,-8.170018,-6.463542,-12.834562
1007.890625,-0.154369,1.312805,-3.626596,-5.810927
1007.894531,-4.428027,-6.948291,-8.756322,-7.462652
1007.898438,-8.533841,3.796633,-2.264501,-1.609064
1007.902344,6.606452,1.385230,-1.060774,3.133756
1007.906250,1.712719,4.889132,2.217323,3.225576
1007.910156,7.382485,4.597750,5.278376,1.875486
1007.914062,12.936110,7.479236,8.345142,13.118139
1007.917969,-0.505095,10.820825,11.399382,19.201694
1007.921875,2.076088,14.180848,2.631819,18.172539
1007.925781,1.872097,20.829344,10.330426,1.426310
1007.929688,11.604141,14.641856,19.241593,7.602321
1007.933594,9.427812,14.771720,4.594976,6.896842
1007.937500,7.187147,15.220873,2.272112,6.239177
1007.941406,10.838887,12.047119,6.680955,-2.764727
1007.945312,-0.046063,-4.445429,-1.295990,3.606592
1007.949219,-2.291790,5.046754,0.348791,-3.682170
1007.953125,-3.363000,-3.324537,-4.413410,1.655479
1007.957031,-6.782158,-9.967811,-2.992507,-10.131944
1007.960938,-7.229629,-13.846735,-2.045227,-6.486965
1007.964844,-9.171345,-7.643035,-15.902671,-11.834579
1007.968750,-8.546617,-8.989817,-6.832460,-10.252206
1007.972656,-8.634595,-12.468142,-9.629966,-8.997055
1007.976562,-9.892430,-12.394670,-5.372007,-9.584199
1007.980469,-9.872959,-9.640423,-2.651214,-9.100283
1007.984375,-8.053324,-8.722078,-9.349830,-10.533915
1007.988281,-1.255577,-2.200060,-4.112645,-9.194667
1007.992188,-7.238076,-5.168443,1.149921,-6.463547
1007.996094,-2.316916,-4.033951,-4.370214,-7.671198
1008.000000,-4.247623,10.037339,-3.225070,6.425234
1008.003906,3.783928,5.770524,-1.742784,2.142119
1008.007812,9.412914,-0.346089,-0.982930,3.248378
1008.011719,11.397197,7.814259,2.544675,9.121456
1008.015625,7.235315,9.981584,12.644441,6.428938
1008.019531,7.768801,2.498741,6.894399,6.613931
1008.023438,3.209328,1.499418,8.398114,13.042942
1008.027344,8.173423,12.113068,12.839794,9.794410
1008.031250,14.985708,12.348975,9.459333,13.274348
1008.035156,6.395348,10.810838,13.875693,11.113479
1008.039062,12.462028,-1.154741,11.199850,13.003430
1008.042969,4.524793,-1.536761,4.856300,-2.215077
1008.046875,-1.175365,9.431341,0.679492,3.914195
1008.050781,-0.212382,-2.171225,5.094785,-3.151592
1008.054688,0.492527,-14.214778,-0.183993,-8.808395
1008.058594,-12.092042,-0.964008,0.214949,-5.705380
1008.062500,-11.781562,-7.884128,-6.014410,-3.979779
1008.066406,-12.187943,-12.358944,-11.247807,-10.734738
1008.070312,-12.113579,-14.640398,-9.920256,-9.712607
1008.074219,-19.521624,-7.746866,-8.308621,-5.913182
1008.078125,-8.349722,-8.022707,-10.704775,-4.106434
1008.082031,-9.847800,-13.846421,-10.352539,-2.922473
1008.085938,-8.451965,-11.775667,-9.263807,-15.264000
1008.089844,-8.103510,-7.120585,-9.562990,-7.048534
1008.093750,-4.775831,0.006727,-9.260844,-1.328811
1008.097656,-4.923471,-2.676431,-1.237133,3.094081
1008.101562,3.478345,-3.103648,0.751465,4.281255
1008.105469,-0.587021,-0.479470,5.927702,1.346424
1008.109375,6.929312,7.541562,2.291532,6.133356
1008.113281,9.015964,3.925641,13.148131,7.207762
1008.117188,8.246645,15.538349,8.823489,12.118093
1008.121094,6.626730,5.593037,13.729314,4.568024
1008.125000,13.852451,6.765760,6.217363,15.704765
1008.128906,9.076150,8.206951,8.861512,13.748436
1008.132812,6.828159,13.792489,0.935347,9.824876
1008.136719,1.669188,10.808248,5.597588,7.907810
1008.140625,10.076625,8.350741,4.734246,6.143194
1008.144531,2.362643,9.388441,2.833546,-1.721001
1008.148438,4.627539,1.971616,4.938603,-1.619526
1008.152344,-1.246926,1.114166,8.822491,-4.947468
1008.156250,4.152111,0.750620,-1.324194,-10.489161
1008.160156,-3.116853,-8.201036,-4.193352,-0.490696
1008.164062,-1.858304,-8.558978,-3.359310,-4.422445
1008.167969,-2.345119,-4.873433,-3.754856,-14.616476
1008.171875,-6.992753,-10.335113,-14.181065,-10.680711
1008.175781,-5.998581,-12.455711,-12.043103,-9.658335
1008.179688,-4.559253,-11.064741,-7.849294,-9.841857
1008.183594,-4.003102,-9.916600,-0.876960,-4.019643
1008.187500,-9.207637,-11.208306,-2.260349,-2.796974
1008.191406,-4.194986,-5.206385,-3.166770,-1.958459
1008.195312,-14.610197,-1.136367,-5.687927,0.897249
1008.199219,2.082050,1.969926,-5.654693,-4.758302
1008.203125,-6.419936,0.652824,2.995260,-1.080401
1008.207031,3.084166,6.546079,2.322595,8.584093
1008.210938,5.768052,8.522518,6.285145,14.325057
1008.214844,4.344826,9.102799,15.250328,4.604921
1008.218750,7.930027,13.859008,9.797204,14.153788
1008.222656,12.891536,4.403294,16.597501,8.802998
1008.226562,11.845963,13.944423,5.747411,19.041380
1008.230469,9.394476,10.711041,10.475573,11.006912
1008.234375,12.901426,9.225128,13.464432,0.517250
1008.238281,4.499193,6.674896,13.283493,1.840878
1008.242188,0.927826,6.926371,-1.528314,8.462695
1008.246094,1.670526,6.641832,4.302525,7.025076
1008.250000,-0.200562,-3.812440,-0.889153,8.306057
1008.253906,-4.623266,4.426491,-2.961732,-8.295166
1008.257812,-8.610307,2.098064,-4.590668,-7.493197
1008.261719,-2.511041,-4.038916,-4.790536,-9.993500
1008.265625,-15.728908,-8.650908,-9.765855,-4.667848
1008.269531,-12.753812,-13.583911,-11.227252,-9.676315
1008.273438,-7.502096,-12.664329,-17.210760,-16.900239
1008.277344,-4.135109,-9.870348,-14.160236,-14.204862
1008.281250,-14.594599,-1.153027,-6.023745,-4.165948
1008.285156,-9.802367,-7.874220,-15.471178,-12.563244
1008.289062,-1.188207,-1.509894,-12.285937,-6.133544
1008.292969,-3.799741,-1.603180,-1.082013,-12.327429
1008.296875,-7.923999,-2.507202,-10.496913,-1.397310
1008.300781,-5.451731,2.044804,-1.822561,-5.473550
1008.304688,0.487659,7.774817,-3.773522,2.593665
1008.308594,0.643624,10.078692,-1.362961,15.914803
1008.312500,7.612275,11.795171,5.947641,9.555425
1008.316406,10.459911,9.548974,14.449887,9.256311
1008.320312,9.779750,-1.254531,3.633418,14.234447
1008.324219,11.827902,14.076615,9.800504,10.158654
1008.328125,15.036307,8.132034,11.588116,1.698783
1008.332031,7.936081,7.536865,8.033788,9.730747
1008.335938,9.549906,6.176550,8.858358,6.811812
1008.339844,5.192360,1.854958,14.174852,7.877864
1008.343750,4.595223,-1.555048,-1.647725,1.544603
1008.347656,9.041747,4.166355,1.596945,-3.289444
1008.351562,-1.070916,-2.010327,4.659006,-2.728869
1008.355469,-7.999118,5.056824,-4.130606,-2.508475
1008.359375,-3.598771,-5.822162,-6.264264,0.094528
1008.363281,-9.075639,-10.471682,-2.858412,-8.614810
1008.367188,-15.800057,-4.005179,0.566547,-10.252280
1008.371094,-3.713509,-17.900824,-6.690595,-12.835070
1008.375000,-13.006931,-11.476463,-8.910339,-11.443995
1008.378906,-12.870143,-6.992400,-12.711006,-8.910880
1008.382812,-15.531915,-9.122058,-2.456282,-9.878652
1008.386719,-3.859110,-6.187913,-11.632274,-4.316793
1008.390625,-9.414896,-3.759731,0.198280,-8.725500
1008.394531,-5.359233,-8.617636,1.209152,0.529807
1008.398438,1.560147,-2.796783,-2.861905,-1.263925
1008.402344,11.843461,-0.313229,-6.717829,-2.632492
1008.406250,9.190758,-2.730852,2.208498,12.062242
1008.410156,3.875170,11.097677,1.720835,3.129415
1008.414062,5.665483,15.475601,7.365441,1.121029
1008.417969,13.133319,13.756581,12.139322,2.344456
1008.421875,0.933411,11.623204,10.123099,6.143816
1008.425781,7.797005,11.120516,4.530544,11.146773
1008.429688,8.641136,10.807792,5.599118,12.370861
1008.433594,8.785102,3.703456,2.137535,1.329771
1008.437500,9.031472,7.358999,8.037854,8.339751
1008.441406,10.793240,6.742422,7.915376,0.291411
1008.445312,1.843248,7.638065,0.842839,7.407066
1008.449219,1.235910,-1.733649,-1.667664,1.463205
1008.453125,-3.042658,-7.603928,-4.314767,-4.494426
1008.457031,-1.382676,-9.076696,-10.324619,-12.251794
1008.460938,-8.441150,-1.000411,-7.788069,-8.416977
1008.464844,-11.679934,-5.307201,-9.278714,-6.686897
1008.468750,-7.677361,-1.830903,-8.051363,-17.037183
1008.472656,-13.049315,-3.171977,-6.169158,-9.431535
1008.476562,-4.665124,-6.295027,-9.828847,-7.337910
1008.480469,-9.788933,-10.726841,-7.122280,-11.765044
1008.484375,-15.398186,-6.468743,-9.698974,-13.014163
1008.488281,-13.122622,-9.478536,-9.336088,-12.450768
1008.492188,-6.254338,-3.781532,2.481146,-9.598819
1008.496094,-4.265361,-4.894374,3.949926,-6.683468
1008.500000,4.211585,-2.290764,8.556573,3.419770
1008.503906,1.840522,8.658772,5.267078,1.425551
1008.507812,0.279744,-0.416450,0.329798,4.158115
1008.511719,7.728938,7.448295,5.392664,6.527659
1008.515625,8.491965,15.076518,5.146787,10.531590
1008.519531,9.229663,11.078375,9.255210,11.190692
1008.523438,14.373429,10.594901,13.486662,6.484867
1008.527344,12.381212,12.545186,8.696811,10.532148
1008.531250,8.456952,-0.880174,13.697084,11.252078
1008.535156,7.229764,3.939878,7.150848,6.841305
1008.539062,8.238464,12.141425,3.714256,5.114280
1008.542969,12.781830,11.342065,0.288472,8.350589
1008.546875,-2.319965,3.927722,-1.225939,3.434792
1008.550781,1.268333,-7.875091,0.308939,0.148393
1008.554688,-1.266936,-11.195152,-0.291476,-5.163987
1008.558594,-0.052094,-8.563944,-3.135207,-8.119986
1008.562500,-7.107928,-13.462287,-12.360119,-4.428471
1008.566406,-8.521701,-10.457243,-5.647427,-8.735665
1008.570312,-7.754721,-9.820305,-13.421684,-8.406829
1008.574219,-10.299770,-10.257519,-12.536838,-7.583658
1008.578125,-11.277506,-8.693132,-9.577321,-5.994720
1008.582031,-11.742289,-9.730880,-3.417585,-6.726783
1008.585938,-11.585379,-11.845712,-8.772676,-13.430947
1008.589844,-2.642649,-2.521595,-5.966590,-2.412374
1008.593750,-3.068349,-7.470754,-3.152099,-1.377417
1008.597656,3.476149,-2.062436,-2.379406,1.401725
1008.601562,-3.460752,-1.384357,3.116410,7.963284
1008.605469,6.269641,1.423830,0.871444,8.265740
1008.609375,9.542669,1.936092,2.468311,5.325937
1008.613281,7.796550,2.660778,4.415113,7.423188
1008.617188,8.061151,14.096101,3.257229,3.397185
1008.621094,3.402642,11.643198,5.618321,5.064435
1008.625000,5.001822,5.891157,9.955996,8.931585
1008.628906,12.680650,6.855683,9.768130,8.348311
1008.632812,8.813419,11.607448,13.588248,4.338645
1008.636719,10.518376,8.421827,4.540922,11.118273
1008.640625,2.097232,4.333623,2.487123,10.377949
1008.644531,7.187400,5.319868,5.097409,3.553383
1008.648438,12.932030,0.334980,-4.795310,3.450447
1008.652344,8.211763,-8.280181,-7.446741,-5.920945
1008.656250,-6.122642,6.880240,-6.780442,-2.037823
1008.660156,-7.560612,-8.391622,-3.177823,-5.228526
1008.664062,-7.526929,-12.367607,-3.018773,-9.178760
1008.667969,-8.753856,-8.926147,-2.712732,-6.557402
1008.671875,-5.084026,-11.803825,-10.735382,-8.644368
1008.675781,-9.570386,-11.964456,-9.240782,-6.026937
1008.679688,-16.200584,-11.845708,-10.759570,-7.216848
1008.683594,-7.762408,-11.105623,-2.205006,-6.864180
1008.687500,1.827297,-5.677694,-13.439324,-10.040042
1008.691406,-8.775251,-0.787616,-12.572989,-5.196080
1008.695312,-0.395608,-0.733788,-7.387905,-7.390197
1008.699219,-6.697846,8.728030,1.044477,-3.767579
1008.703125,3.349815,2.009851,9.961778,0.866415
1008.707031,0.456327,4.271004,4.778697,7.965653
1008.710938,3.583957,6.660074,-1.062864,9.457915
1008.714844,7.884229,2.554096,5.671065,8.414835
1008.718750,11.075829,2.192033,10.716161,11.592159
1008.722656,6.047588,8.319167,11.262260,17.277332
1008.726562,7.026556,9.269700,7.566400,4.208735
1008.730469,12.905298,5.794440,8.433376,6.055917
1008.734375,6.174817,3.648950,11.456280,-0.440739
1008.738281,8.731112,11.708586,11.580650,5.374814
1008.742188,6.596373,0.138110,6.838622,0.809326
1008.746094,6.408610,5.141701,-4.033455,-2.368963
1008.750000,-6.696699,2.560772,8.175579,-3.407813
1008.753906,-9.376576,-7.293441,-3.462641,-1.216353
1008.757812,-6.359127,-3.069821,-13.449598,1.027456
1008.761719,-2.498901,-14.112625,-0.479846,0.848426
1008.765625,-10.329717,-2.615384,-6.937329,-5.259887
1008.769531,-8.938076,-6.201134,-8.600852,-7.795627
1008.773438,-12.164621,-8.152695,-10.697650,-9.817437
1008.777344,-8.294854,-10.805613,-14.250991,-10.816002
1008.781250,-2.929079,-3.976190,-7.244660,-10.817453
1008.785156,-9.476102,-11.834532,-5.880460,-9.053507
1008.789062,-5.146740,-2.734015,-3.365094,-4.354889
1008.792969,0.100848,-6.604782,-5.366419,-10.596953
1008.796875,-2.755876,7.627938,-2.835654,3.308133
1008.800781,9.463624,4.349611,-0.037714,-4.542804
1008.804688,0.124232,4.930486,0.123640,0.947914
1008.808594,5.853351,11.954831,7.079384,6.467525
1008.812500,11.188546,8.446981,11.218361,8.621716
1008.816406,8.119754,13.773840,13.005629,15.146690
1008.820312,9.551286,7.788749,20.504861,8.370068
1008.824219,4.398528,9.141776,20.697049,9.003791
1008.828125,17.246949,7.206432,7.899015,6.483486
1008.832031,3.131043,3.975437,6.876542,9.202112
1008.835938,5.184306,4.905412,11.672177,5.474074
1008.839844,0.123337,6.568622,7.066475,9.602243
1008.843750,7.655615,11.752598,-7.409799,3.797189
1008.847656,8.548633,4.457255,0.986526,1.556474
1008.851562,0.563693,0.018008,-1.354284,-6.936644
1008.855469,-10.456019,-2.953438,-8.188080,0.062647
1008.859375,-4.417596,-6.927341,-9.236656,-3.562725
1008.863281,-7.318482,-8.988957,-11.090397,-9.303307
1008.867188,-6.200212,-9.538474,-7.923530,-9.913307
1008.871094,-10.835838,-15.338728,-13.356749,-10.672079
1008.875000,-13.269069,-10.664575,-16.395842,-14.700694
1008.878906,-10.263888,-8.341145,-17.331635,-9.472835
1008.882812,-11.059715,-8.520823,-4.646441,-9.162708
1008.886719,-7.712645,-1.430299,-8.922629,-6.112569
1008.890625,-2.356347,-5.344238,-5.345263,-1.788749
1008.894531,-9.381499,-3.410431,-6.578326,-3.058345
1008.898438,-3.816723,-1.919233,4.897168,-8.835736
1008.902344,-2.319101,1.584665,-1.464314,9.224402
1008.906250,3.245832,-0.208454,-0.932038,3.200747
1008.910156,5.897175,7.106176,6.829940,7.382974
1008.914062,14.467219,6.247445,6.339335,5.914977
1008.917969,7.589441,15.366086,9.554313,5.372665
1008.921875,8.641145,15.948623,6.004308,18.218545
1008.925781,9.605549,6.865414,14.825139,9.263739
1008.929688,6.161287,13.212997,3.557070,8.401336
1008.933594,13.929592,13.418787,-0.913875,10.609065
1008.937500,9.899663,6.896793,12.041910,15.358324
1008.941406,9.925061,5.674045,5.957580,6.357356
1008.945312,7.651859,-0.657782,3.508791,-0.674991
1008.949219,2.196563,-1.754994,5.491960,3.904886
1008.953125,-6.376548,-5.526672,2.472374,-9.100463
1008.957031,-6.850225,-4.966023,-7.285074,-7.862613
1008.960938,-10.777619,-9.208124,-6.915579,-8.356582
1008.964844,-9.517646,-3.752387,-12.839790,-9.066545
1008.968750,-3.548998,-8.722210,-7.604749,-6.791484
1008.972656,-12.969599,-11.671289,-2.028786,-13.012426
1008.976562,-10.797972,-5.754059,-13.575410,-9.942211
1008.980469,-4.979465,-5.447363,-13.922596,-15.162229
1008.984375,-2.883789,-8.194660,-9.463463,-3.089457
1008.988281,-5.194048,-3.075470,-4.488639,-4.619680
1008.992188,-1.332605,-2.561172,-4.911174,-7.981273
1008.996094,-2.361240,-0.725723,-0.432814,0.572192
1009.000000,-1.010853,-2.797990,1.757051,-2.849894
1009.003906,-3.533848,5.577835,1.275356,1.124592
1009.007812,-3.163506,3.249250,12.639173,6.775306
1009.011719,4.089628,1.443860,7.600088,2.433407
1009.015625,8.409894,12.434530,10.886992,5.531020
1009.019531,11.965737,15.729776,4.510383,3.627474
1009.023438,3.339334,13.409380,16.449283,5.258191
1009.027344,8.908842,15.040955,2.373856,9.131418
1009.031250,8.219672,11.443510,9.738258,10.122639
1009.035156,13.503133,2.249274,7.240717,-0.414298
1009.039062,3.205820,2.588158,1.217407,2.852970
1009.042969,5.263396,1.576511,9.397281,-4.033962
1009.046875,1.456479,-1.277987,1.872617,3.846826
1009.050781,-1.329348,-0.536128,1.645939,-2.589931
1009.054688,-0.471548,-4.532237,-2.659854,-5.913551
1009.058594,-0.832865,-3.269415,-4.385097,-6.785783
1009.062500,-10.191414,-8.678360,-10.820230,-5.781657
1009.066406,-7.540613,-3.200611,-9.545203,-9.114567
1009.070312,-9.379308,-9.590141,-23.015658,-10.639617
1009.074219,-6.248991,-8.161641,-9.724630,-6.038600
1009.078125,-21.093671,-10.696250,-11.708342,-14.670097
1009.082031,-5.953254,-6.444851,-5.185296,-16.633902
1009.085938,-2.359247,-15.505187,-6.113530,-3.113835
1009.089844,-8.908685,-5.687063,-5.522347,-4.733888
1009.093750,1.529760,-5.956880,-8.814727,-7.863721
1009.097656,-2.011434,-9.050434,1.083706,-1.564879
1009.101562,1.156249,-0.297309,-5.941780,6.615783
1009.105469,8.485871,10.115703,0.721771,6.620998
1009.109375,0.046938,6.362917,10.255602,5.308357
1009.113281,4.315783,12.214113,4.216048,2.984940
1009.117188,12.373848,14.432742,7.615367,8.611415
1009.121094,8.064515,2.964173,1.577237,8.634315
1009.125000,9.789291,15.474505,10.827821,8.487144
1009.128906,6.192123,15.108647,11.859410,2.703643
1009.132812,14.723559,9.256426,6.531064,11.769983
1009.136719,4.352295,2.716985,7.036639,10.374185
1009.140625,1.052459,8.691446,5.005971,0.309507
1009.144531,3.167807,4.465712,8.270904,1.540719
1009.148438,-0.676653,3.896065,4.259553,1.363665
1009.152344,-5.510940,0.015083,2.240756,-4.021784
1009.156250,-4.324419,-2.834703,-1.107395,-2.042187
1009.160156,-8.442667,-7.153084,-6.246768,-7.104467
1009.164062,-13.611647,-2.251113,-5.509687,-5.049241
1009.167969,-8.829148,-10.081729,-6.221228,-11.493951
1009.171875,-6.992996,-6.381179,-6.409057,-11.773974
1009.175781,-3.108055,-9.935315,-6.809737,-6.918854
1009.179688,-3.965687,-7.693425,-6.122613,-10.143323
1009.183594,-9.561794,-5.033673,-12.550133,-9.446967
