timestamp,TP9,AF7,AF8,TP10
1000.000000,-2.299054,6.185715,-0.935323,2.213240
1000.003906,2.923462,0.742821,-2.712722,4.002227
1000.007812,-0.027110,3.138907,11.163825,4.020781
1000.011719,13.775470,2.921968,2.999666,8.752029
1000.015625,15.914772,7.189221,3.519142,16.955869
1000.019531,7.473424,8.052069,12.996275,11.186767
1000.023438,2.118895,11.398165,11.341331,19.153947
1000.027344,6.163705,15.787832,10.996355,12.492143
1000.031250,14.149441,4.510873,6.230132,9.316243
1000.035156,7.305611,12.995648,13.742214,1.870275
1000.039062,3.478252,4.773204,7.722359,0.533460
1000.042969,3.973593,3.464242,6.575185,7.399781
1000.046875,-0.741797,-3.473492,-2.072746,6.255380
1000.050781,-1.520722,6.350907,-0.173870,4.094993
1000.054688,-3.232868,-4.043621,-6.116983,-8.236088
1000.058594,-1.982835,-7.322326,-2.794724,-10.059024
1000.062500,-3.231095,-7.806046,-0.101025,-5.531741
1000.066406,-15.918495,-7.322920,-13.449379,-15.472777
1000.070312,-2.400947,-13.625192,-8.402849,-11.240820
1000.074219,-13.237674,-12.241183,-8.785423,-14.765961
1000.078125,-12.213078,-12.120970,-5.633956,-13.747580
1000.082031,-6.277256,-6.846009,-10.115075,-8.655707
1000.085938,-11.476827,-14.965288,-13.333086,-14.299555
1000.089844,-9.000082,-4.961637,-7.819427,-8.953329
1000.093750,-4.959834,-8.836926,-7.730063,0.117849
1000.097656,-0.060168,-0.157388,-0.415256,-1.857562
1000.101562,5.926967,7.123045,4.178281,3.242610
1000.105469,5.674174,-1.571370,-3.203174,-8.615846
1000.109375,2.877448,1.995927,7.183913,3.997570
1000.113281,5.556948,6.433190,11.028368,7.893479
1000.117188,7.592376,4.432865,9.579166,10.685032
1000.121094,6.782047,5.500634,12.815601,0.619832
1000.125000,9.528570,6.312759,10.800079,9.113900
1000.128906,-0.317500,7.831005,12.424480,16.118642
1000.132812,10.674783,11.529454,2.774313,8.425724
1000.136719,10.467049,1.178654,5.710695,5.374384
1000.140625,4.900117,-2.635500,7.043088,8.106952
1000.144531,2.129277,6.555694,6.451150,4.990006
1000.148438,2.671182,1.768892,5.954193,9.581118
1000.152344,-5.936683,-6.620026,-4.053636,-7.680230
1000.156250,-3.306975,-5.102414,1.051461,-4.532786
1000.160156,-8.867511,-3.414413,-10.235756,1.726454
1000.164062,-12.349358,-7.224461,-6.873911,-5.585484
1000.167969,-11.881514,-10.069766,-4.506592,-8.565371
1000.171875,-9.833661,-10.480090,-4.938289,-10.299369
1000.175781,-15.018220,-7.532081,-10.429255,-13.855209
1000.179688,-2.901847,-9.447561,-15.147020,-11.890267
1000.183594,-11.127590,-9.866651,-7.420840,-11.745394
1000.187500,-13.101619,-8.288628,-8.581317,-5.067396
1000.191406,-5.861393,-1.786411,-3.794976,-1.685303
1000.195312,-4.169383,1.362513,-4.888803,0.171581
1000.199219,1.866940,0.883424,1.352709,-0.797309
1000.203125,0.021675,3.658373,6.214254,-1.606080
1000.207031,1.285165,4.162401,2.146928,5.274569
1000.210938,14.020869,8.116075,6.717895,4.539279
1000.214844,5.393666,9.962547,6.891147,8.972071
1000.218750,11.813547,11.995683,8.577523,9.820412
1000.222656,12.838407,11.959236,7.205794,9.703733
1000.226562,4.163485,10.378968,8.969663,15.273775
1000.230469,10.018645,10.829590,8.595095,11.740238
1000.234375,4.636560,11.546649,6.326552,13.264261
1000.238281,11.379417,12.589525,11.164373,-4.272683
1000.242188,3.490222,4.637981,4.373654,6.279759
1000.246094,5.511504,12.388862,1.816507,-0.357790
1000.250000,-1.768041,4.607694,3.254958,0.543770
1000.253906,0.287128,-6.342625,-4.528803,-11.148006
1000.257812,-3.317769,-4.540777,2.554192,2.714919
1000.261719,-9.870228,-9.787662,-4.085603,-9.183823
1000.265625,-3.047433,-3.971687,-14.948484,-1.231579
1000.269531,-13.318484,-6.500741,-11.042633,-14.304965
1000.273438,-3.245438,-7.726959,-8.054120,-6.239876
1000.277344,-11.338907,-15.123443,-5.853703,-15.255250
1000.281250,-10.824324,-14.783773,-11.358743,-17.682787
1000.285156,-7.897498,-6.044788,-8.393576,-14.709560
1000.289062,-5.346006,-7.875936,-6.449163,-15.628254
1000.292969,-7.673671,-5.408127,-6.471224,-3.523108
1000.296875,-5.151895,-5.268382,4.251778,-8.488376
1000.300781,2.593303,5.061605,0.365743,9.792760
1000.304688,-0.667029,3.204049,3.536050,-1.800553
1000.308594,9.723581,8.396214,10.113419,2.697644
1000.312500,12.374233,8.063714,12.808365,5.190612
1000.316406,4.428871,16.222753,14.857426,10.268458
1000.320312,0.708167,4.353053,12.063068,3.900537
1000.324219,17.154587,10.285746,10.508230,12.151221
1000.328125,16.414136,8.842432,10.093223,5.778130
1000.332031,13.595922,9.277842,10.207751,7.335714
1000.335938,8.371298,5.702651,5.309003,10.128584
1000.339844,7.373203,9.509550,1.465182,7.757704
1000.343750,3.772141,2.306601,4.841396,0.164366
1000.347656,8.363227,9.974286,2.304974,-5.344473
1000.351562,2.675596,-4.893860,2.796147,-3.139675
1000.355469,-4.522707,1.675485,-3.056596,-0.094260
1000.359375,0.226593,-9.630581,-9.564406,-4.707415
1000.363281,-7.565075,-16.667869,-11.669128,-14.235771
1000.367188,-4.685768,-10.449271,-5.751971,-16.162627
1000.371094,-9.328173,-8.610246,-7.747232,-12.616256
1000.375000,-7.382453,-7.686581,-18.125875,-8.775944
1000.378906,-10.096560,-6.641811,-13.256317,-16.921939
1000.382812,-12.762964,-10.829545,-7.545300,-9.700248
1000.386719,-8.817988,-3.480668,-6.344828,-7.842176
1000.390625,-4.155471,-1.385392,-3.911702,0.412909
1000.394531,2.093537,-9.664510,-3.597942,-4.993620
1000.398438,5.656149,-0.799932,-5.833460,3.039688
1000.402344,2.777677,0.266902,3.313713,4.343574
1000.406250,5.363957,-0.087114,7.633830,6.968785
1000.410156,11.263010,15.930252,6.841388,6.894920
1000.414062,12.179851,8.302594,15.555974,10.061750
1000.417969,5.537091,6.456930,1.779731,14.783218
1000.421875,13.907114,10.263839,6.909931,6.678338
1000.425781,10.696674,15.383186,18.298555,2.784117
1000.429688,7.621879,7.858517,10.847225,7.989623
1000.433594,2.831354,10.836168,16.384401,10.805462
1000.437500,6.046126,16.366305,8.150951,11.541729
1000.441406,1.809430,1.584309,-1.621959,8.472115
1000.445312,1.362075,2.905810,4.110704,4.327634
1000.449219,2.996309,3.057902,0.458200,0.871332
1000.453125,-6.030502,-7.620027,-4.067627,5.664899
1000.457031,4.425021,-2.485901,0.557006,-10.699060
1000.460938,-11.903076,-3.288221,-15.083140,-5.849387
1000.464844,-6.592326,-6.826391,-10.639348,-15.988974
1000.468750,-5.977991,-13.968051,-5.897528,-13.391056
1000.472656,-4.589412,-11.197320,-18.800123,-11.000081
1000.476562,-10.434975,-12.997558,-6.464507,1.477854
1000.480469,-11.636291,-12.854317,-4.975081,-13.815056
1000.484375,-5.362072,-12.566111,-9.622797,4.415844
1000.488281,-5.602912,-3.396886,-6.827284,0.520334
1000.492188,-10.803324,-6.136343,5.229562,-6.256377
1000.496094,-3.880561,0.221232,-0.233190,-8.234969
1000.500000,-3.687010,-1.399568,6.931931,2.885073
1000.503906,4.559614,5.131172,1.592549,3.495576
1000.507812,10.120683,-4.567741,6.571577,1.505665
1000.511719,4.421275,2.644921,3.990543,2.895707
1000.515625,12.067701,10.312698,14.487904,16.786288
1000.519531,8.957856,19.103908,11.770709,5.314583
1000.523438,8.589769,10.240367,14.293287,9.231029
1000.527344,14.394920,10.757199,1.684705,9.374827
1000.531250,7.489806,12.133470,5.766226,6.013560
1000.535156,5.924352,9.335711,8.951589,6.402601
1000.539062,5.929529,5.014393,3.418344,5.348382
1000.542969,3.965158,11.282042,9.163127,4.154803
1000.546875,5.772687,-0.737622,-1.501200,2.561936
1000.550781,-1.372840,4.689688,3.105027,-6.297464
1000.554688,-2.050286,-1.022246,-1.097859,0.319696
1000.558594,-6.040540,5.423527,-1.589549,-11.034849
1000.562500,-1.840625,-5.472589,-3.810151,-4.907135
1000.566406,-4.263375,-4.722391,-6.331145,-12.508633
1000.570312,-11.225107,-13.225513,-5.563353,-12.320152
1000.574219,-13.234037,-12.707852,-8.309373,-8.588149
1000.578125,-8.608192,2.500989,-10.612160,-12.910429
1000.582031,-7.743490,-7.258864,-11.268471,-17.355871
1000.585938,-11.788278,-5.215021,-11.595649,-6.505992
1000.589844,-7.029805,-5.215331,-1.985631,-4.948759
1000.593750,0.281305,-1.278629,-6.919041,-2.943058
1000.597656,1.546692,-2.687626,-1.975340,-1.113390
1000.601562,-3.122826,6.991360,-0.697981,6.348627
1000.605469,3.949465,1.527552,4.408719,3.709263
1000.609375,2.161080,16.249105,10.331229,2.138606
1000.613281,7.848925,13.601409,4.555401,8.977804
1000.617188,12.163858,9.139380,13.988349,15.695099
1000.621094,11.021114,14.966559,7.159642,8.930337
1000.625000,13.854609,16.871767,20.944570,4.526368
1000.628906,10.418841,14.156969,6.834289,1.234868
1000.632812,9.232850,9.436726,9.350400,16.114611
1000.636719,5.999188,9.929460,10.325025,9.614434
1000.640625,3.699740,6.348122,14.336148,7.258866
1000.644531,4.546779,9.502279,7.000870,1.805651
1000.648438,4.731782,4.086017,-4.317447,0.307126
1000.652344,-3.578536,-0.018505,-7.258017,-2.617144
1000.656250,-3.579904,0.095700,-5.325198,2.819846
1000.660156,-9.621289,-1.451943,-6.058429,-5.465459
1000.664062,-11.384734,-13.848248,-1.582421,-9.230293
1000.667969,-10.303744,-9.309807,-10.035042,-12.186322
1000.671875,-9.181869,-12.293485,-11.722885,-2.940910
1000.675781,-5.774814,-12.076333,-12.533137,-14.639978
1000.679688,-11.298073,-9.761466,-15.845529,-7.727794
1000.683594,-4.590457,-11.476654,-12.064761,-8.506125
1000.687500,-7.390136,-9.590304,-10.016267,0.533967
1000.691406,-4.052326,-7.432958,-0.648544,-1.290243
1000.695312,-6.444569,-3.323689,-2.146094,-3.828718
1000.699219,0.248753,-5.483169,0.712877,-2.219419
1000.703125,2.668651,1.554967,4.862753,1.701695
1000.707031,5.365609,2.431789,0.205628,4.059420
1000.710938,10.079606,11.962700,8.114320,8.195598
1000.714844,12.913223,9.663300,14.091748,7.626252
1000.718750,10.166585,6.137859,1.165460,7.438084
1000.722656,11.212051,8.334476,4.886051,10.263644
1000.726562,7.070266,12.115476,17.672637,13.685860
1000.730469,4.342705,3.127513,11.248172,9.609463
1000.734375,2.309260,10.776296,8.491254,12.287133
1000.738281,10.424847,0.511151,9.590444,5.726142
1000.742188,0.797428,10.151037,7.694337,2.696690
1000.746094,6.263127,2.057557,-2.691177,5.069485
1000.750000,-0.158411,1.063513,2.075377,-0.337117
1000.753906,-0.829106,-9.613927,-0.883972,-4.300629
1000.757812,-8.326201,-0.932575,-6.204289,1.318294
1000.761719,-12.478865,-4.083080,-7.907609,-2.696085
1000.765625,-7.351462,-10.792873,-7.535755,-7.757363
1000.769531,-8.296862,-16.302050,-9.231909,-12.793204
1000.773438,-6.512405,-8.344495,-7.339072,-7.682725
1000.777344,-9.601811,-2.316091,-10.319864,-11.528590
1000.781250,-6.757587,-8.486630,-2.941142,-13.742132
1000.785156,-10.793815,-7.306482,-11.131168,-2.843418
1000.789062,-5.493142,-10.148100,-6.625966,-7.714124
1000.792969,-3.558097,2.402230,-6.455558,-8.821037
1000.796875,-1.837943,-3.431564,-3.605739,-5.399049
1000.800781,-2.621476,-2.288735,-1.841915,4.631454
1000.804688,2.647973,-0.899940,3.366621,4.194626
1000.808594,7.040381,13.677164,13.238242,2.377044
1000.812500,8.843980,6.291155,11.583604,7.330138
1000.816406,8.377981,10.894961,4.582399,0.652634
1000.820312,6.961140,7.453603,12.342129,13.109741
1000.824219,8.592356,8.125153,11.724061,15.439618
1000.828125,5.519350,13.775309,7.560213,10.245116
1000.832031,11.991710,8.055056,8.043459,4.195958
1000.835938,6.693621,1.566363,12.781758,4.035094
1000.839844,0.828452,5.672174,10.280113,13.079813
1000.843750,5.100230,9.612190,-2.583528,9.986282
1000.847656,4.441114,-2.731114,3.250856,2.887933
1000.851562,-1.377923,1.933913,-2.894682,-1.733431
1000.855469,7.040763,-2.994180,-5.064057,-0.525208
1000.859375,-7.529491,-7.593195,-4.586193,-8.300432
1000.863281,-9.800399,-10.684911,-14.088059,-15.091929
1000.867188,-18.026494,-6.885498,-5.740966,-1.377563
1000.871094,-4.574467,-9.418744,-3.537197,-11.188105
1000.875000,-14.652474,-11.939518,-13.824527,-10.052988
1000.878906,-6.350804,-2.273695,-2.833898,-14.478981
1000.882812,-9.186482,-11.386007,-11.434164,-8.120482
1000.886719,-8.441747,-8.465312,-8.502671,-3.802712
1000.890625,-11.778059,-6.945127,-6.223449,2.053784
1000.894531,-1.909538,-3.376412,-7.254807,0.769573
1000.898438,-3.575709,0.039272,-6.357134,1.697774
1000.902344,0.319896,3.939589,-2.782866,-0.438992
1000.906250,2.985719,8.374589,4.679581,10.533077
1000.910156,4.422773,5.398206,10.257394,2.660984
1000.914062,3.485513,7.391966,15.989275,12.129085
1000.917969,14.112705,4.935674,0.248646,9.464587
1000.921875,13.099700,14.148598,11.826738,15.715131
1000.925781,-0.930878,11.242325,7.929051,10.710982
1000.929688,9.294101,9.429315,12.214561,11.688560
1000.933594,8.707944,9.655847,6.624719,9.399973
1000.937500,4.353893,12.639534,10.349419,1.211890
1000.941406,5.662541,5.830865,5.538753,2.384564
1000.945312,-2.722214,8.281061,4.330778,1.517224
1000.949219,3.418439,6.287633,0.006513,-8.255393
1000.953125,-4.933890,2.654146,-0.145632,1.068602
1000.957031,4.833140,-1.321873,-0.455165,-4.989054
1000.960938,-11.179926,-9.283690,-9.229940,-3.118397
1000.964844,-6.793695,-3.181449,-4.592367,-10.326744
1000.968750,-11.281556,-9.776049,-8.886458,-10.118893
1000.972656,-7.293914,-12.218707,-9.350668,-4.255480
1000.976562,-8.854857,-9.358541,-9.591806,-12.120121
1000.980469,-7.985011,0.246641,-11.151411,-7.872532
1000.984375,-11.893286,-3.181382,-3.381717,-10.327217
1000.988281,-10.751093,-6.311297,-2.221944,-4.678467
1000.992188,-7.727712,-2.388743,-5.867026,-10.794338
1000.996094,-0.015404,2.607697,6.005539,3.300571
1001.000000,4.203985,-2.255898,4.654461,2.960818
1001.003906,9.195311,6.983505,-2.078869,6.113971
1001.007812,9.778349,12.834368,4.322185,-1.394746
1001.011719,0.095193,11.283620,5.184509,9.696734
1001.015625,14.511529,11.515249,13.729689,6.646268
1001.019531,7.292310,12.044138,11.168991,7.483430
1001.023438,11.905511,15.360991,14.253045,5.933689
1001.027344,8.663146,6.049407,8.502718,6.279709
1001.031250,10.053389,9.793709,5.162233,14.137819
1001.035156,5.464549,4.882960,11.012189,5.895764
1001.039062,5.450495,8.660807,4.532410,6.527955
1001.042969,4.407405,3.997266,11.076615,8.967549
1001.046875,1.539726,2.027821,2.495493,-1.566320
1001.050781,4.562117,-5.641580,10.229405,-2.166268
1001.054688,-7.321607,2.474200,-0.072029,-2.723546
1001.058594,-2.321252,-2.953405,-5.036887,-9.027252
1001.062500,-7.787627,-3.128952,-5.244117,-5.000318
1001.066406,-10.957085,-11.349571,-13.218599,0.012739
1001.070312,-10.431790,-11.070481,-5.532164,-5.900741
1001.074219,-10.617876,-12.179484,-9.560295,-9.075548
1001.078125,-8.078327,-15.749833,-6.867301,-10.579078
1001.082031,-11.252855,-14.923565,-11.076374,-7.748859
1001.085938,-17.402307,-10.700475,-5.213042,-9.557071
1001.089844,-13.972435,-12.989964,-6.223777,-2.643245
1001.093750,-0.996965,-2.926042,-5.377996,-10.367826
1001.097656,0.103722,3.642551,-1.965135,2.293259
1001.101562,3.170704,5.510657,-0.307354,0.548935
1001.105469,5.981857,3.381723,3.791910,8.006864
1001.109375,2.985029,6.147041,7.935752,5.322855
1001.113281,4.179763,3.941073,10.350966,1.995548
1001.117188,4.757134,8.138822,11.097368,7.463988
1001.121094,11.986037,11.912230,7.596040,7.062278
1001.125000,16.373704,7.380295,9.509520,16.046260
1001.128906,17.124638,4.348406,10.634731,15.414545
1001.132812,16.215495,2.808923,7.041578,11.628130
1001.136719,12.247802,5.889036,6.718901,-0.797238
1001.140625,9.820697,0.696831,7.771255,0.926912
1001.144531,2.320961,3.756424,4.236400,5.145100
1001.148438,5.499822,-2.808046,-0.203104,-0.104949
1001.152344,5.389063,0.267183,-2.283084,-5.461208
1001.156250,-5.851329,-11.543580,-0.846795,-2.875529
1001.160156,-3.376845,-11.130819,0.195967,-4.880500
1001.164062,1.350454,-7.169091,-12.079159,-5.819335
1001.167969,-2.208018,-10.441845,-4.624287,-9.441727
1001.171875,-2.708663,-13.113722,-8.500113,-4.669624
1001.175781,-11.102339,-17.834934,-6.518415,-14.548486
1001.179688,-9.273849,-11.226584,-4.649283,-7.518337
1001.183594,-15.366309,-11.550600,-13.737684,-7.492510
1001.187500,-11.171424,-8.253982,-11.925365,-11.168762
1001.191406,3.331447,-0.431687,-0.443915,-2.198842
1001.195312,7.117240,-5.885148,3.572286,4.455200
1001.199219,2.136946,-2.612821,1.014637,2.849117
1001.203125,3.780950,-0.324495,6.617546,2.699658
1001.207031,7.896731,6.514866,-0.151079,0.597861
1001.210938,4.366129,11.166868,1.525511,8.711014
1001.214844,4.463855,1.613206,7.609576,5.645564
1001.218750,10.589100,7.901297,11.306975,8.584915
1001.222656,8.246670,14.606817,18.428012,9.970742
1001.226562,15.120796,7.805059,6.063247,6.316749
1001.230469,6.228958,7.265891,14.163237,0.340498
1001.234375,-0.219388,12.688684,6.315394,4.324556
1001.238281,7.110729,3.153801,2.235476,7.825063
1001.242188,3.274914,4.095055,-0.746355,10.817325
1001.246094,-1.962193,2.510204,3.016365,-1.021599
1001.250000,7.842597,-1.910614,7.546651,-3.041416
1001.253906,-1.394231,-7.726742,0.034493,-3.469098
1001.257812,-1.781443,-4.717599,-0.546021,-11.036394
1001.261719,-6.120043,-3.201820,-9.261187,-8.808219
1001.265625,-7.347840,-8.732100,-5.620092,-12.798698
1001.269531,-10.464404,-6.646334,-11.551785,-6.709529
1001.273438,-11.237129,-12.234406,-5.269582,-14.292085
1001.277344,-10.289652,-8.480612,-6.978029,-10.549538
1001.281250,-11.685678,-6.784081,-10.681323,-15.040992
1001.285156,-9.980093,-6.788768,-7.677602,-11.211786
1001.289062,-7.876291,-8.722830,-5.774446,-3.806206
1001.292969,-4.541169,-3.264330,-10.750994,-5.663106
1001.296875,0.974657,-9.066496,1.435886,-1.132777
1001.300781,-0.815602,-0.730695,3.012232,4.441463
1001.304688,4.830534,-1.371234,5.047001,6.831644
1001.308594,12.087930,7.577746,7.863358,3.271775
1001.312500,8.761675,8.400959,13.782361,8.705985
1001.316406,6.517919,11.289936,6.897270,12.806905
1001.320312,9.653105,10.111497,6.941753,4.418376
1001.324219,12.227019,9.421493,9.520361,16.416987
1001.328125,17.206324,10.102660,7.381182,9.559692
1001.332031,14.671121,8.654725,10.243800,7.973291
1001.335938,-0.914485,7.077935,4.012808,10.558297
1001.339844,6.155361,5.029436,11.400576,5.338751
1001.343750,5.587461,3.419792,2.321211,3.466470
1001.347656,7.479186,-1.302512,-1.254279,4.249432
1001.351562,8.149883,-5.865994,1.479456,-0.225315
1001.355469,-2.821097,-4.643465,-1.954046,2.311322
1001.359375,-2.661085,-3.208529,-7.527132,-2.436955
1001.363281,-3.625505,-9.768328,-17.360486,-1.620831
1001.367188,-13.684320,-5.391358,-3.223510,-7.296613
1001.371094,-11.072487,-12.208437,-13.870079,-7.099532
1001.375000,-10.471997,-7.785258,-5.045739,-1.353483
1001.378906,-6.204713,-9.036164,-7.181017,-12.438591
1001.382812,-3.885166,-3.129502,-7.418580,-7.864286
1001.386719,-12.596010,-9.210586,-5.112496,-7.024844
1001.390625,-5.057927,-1.453373,-5.458492,-4.636208
1001.394531,0.893092,-1.970693,3.537480,-0.461034
1001.398438,3.945204,-0.568934,-2.229389,-4.084966
1001.402344,-4.466861,-0.086266,2.840421,0.742138
1001.406250,-3.489424,2.852129,-0.291149,2.510170
1001.410156,5.864635,8.297176,4.597224,11.380430
1001.414062,4.625719,9.143053,0.335380,4.341271
1001.417969,10.530481,16.631687,9.875161,8.971550
1001.421875,7.620665,13.442910,12.109446,4.147141
1001.425781,16.246377,16.231007,7.767887,12.883402
1001.429688,7.644743,15.874525,10.908085,12.349106
1001.433594,11.574284,8.474980,4.834711,9.902179
1001.437500,5.239185,-3.374680,-0.126630,0.320953
1001.441406,7.759002,5.027959,11.105301,2.383968
1001.445312,-5.578755,9.624276,4.370780,3.791296
1001.449219,5.448164,1.829316,-1.763494,-0.922686
1001.453125,1.496638,-4.442050,-0.808868,-0.324796
1001.457031,-11.454764,-4.325621,3.611963,-4.931558
1001.460938,-7.586349,-12.481271,-10.424577,-8.070424
1001.464844,-6.188869,-1.685609,-8.053556,-2.955780
1001.468750,-10.361759,-3.962645,-9.244319,-4.980002
1001.472656,-6.999752,-18.910196,-16.215707,-3.275724
1001.476562,-12.678541,-8.773880,-11.422392,-4.064530
1001.480469,-3.285488,-5.214796,-12.124771,-8.495000
1001.484375,-7.963949,-11.175680,-12.450784,-10.018357
1001.488281,1.781957,-5.418373,-3.022724,-2.670853
1001.492188,-7.326783,-2.074728,-0.639660,-7.211792
1001.496094,-5.474005,-3.444532,-2.754024,-3.351300
1001.500000,-0.291262,4.377880,3.946018,4.449507
1001.503906,-0.102561,5.865918,7.493647,-6.031467
1001.507812,10.463598,6.400045,3.983900,5.024781
1001.511719,7.077801,6.244466,6.945507,4.503971
1001.515625,6.240069,7.474464,1.931899,9.124867
1001.519531,6.369259,11.965369,7.269466,3.051887
1001.523438,5.235662,9.194881,15.023905,10.407805
1001.527344,3.951215,5.862049,5.084801,14.980963
1001.531250,-0.099720,6.932437,10.497516,15.669687
1001.535156,5.389425,4.144249,7.180724,4.699956
1001.539062,1.071474,6.363276,3.649185,4.609337
1001.542969,-1.501047,9.573501,3.610018,-5.023391
1001.546875,6.486354,-3.052683,1.545333,-0.851472
1001.550781,2.125809,0.262134,0.845298,-9.552544
1001.554688,-4.690463,-6.799420,-5.983734,0.241216
1001.558594,1.053998,-3.028308,-9.043616,2.611232
1001.562500,-8.993842,-8.690254,-8.064892,-6.815241
1001.566406,-20.145637,-3.469336,-11.160498,-8.739587
1001.570312,-7.155413,-8.964806,-10.141034,-14.873973
1001.574219,-8.277820,-7.083828,-7.814639,-13.263488
1001.578125,-11.190878,-14.841389,-14.578466,-6.790582
1001.582031,-0.710185,-8.014420,-10.037675,-12.402296
1001.585938,-14.208617,-8.200916,-2.626274,-8.521510
1001.589844,-9.158527,-0.785802,-4.643690,-7.796041
1001.593750,-7.742462,-5.764285,2.681975,-5.328290
1001.597656,-0.389817,-0.731467,1.774339,-1.164091
1001.601562,1.646980,0.325582,5.434348,-1.957314
1001.605469,11.552898,3.775693,2.309570,-2.396000
1001.609375,3.947421,11.535625,4.361988,3.962480
1001.613281,4.279005,8.120849,0.652717,11.078616
1001.617188,7.765596,18.564796,6.563332,7.272279
1001.621094,11.902676,4.455316,20.060277,5.093184
1001.625000,16.163420,10.158451,7.535322,6.953790
1001.628906,10.754483,4.492703,12.052659,20.012274
1001.632812,9.467925,9.376860,8.874710,12.417548
1001.636719,10.177952,4.808443,8.781676,5.787892
1001.640625,3.511837,1.952429,6.111978,13.888666
1001.644531,0.833864,6.673500,-4.572530,-3.609254
1001.648438,-3.345148,5.177133,-1.031595,3.379465
1001.652344,-4.329960,-0.440269,1.877376,-1.830240
1001.656250,-5.013306,-2.754733,-6.105644,-6.777043
1001.660156,-0.932954,-2.339192,-0.800024,0.157409
1001.664062,-2.226007,-1.666727,-9.657140,-15.323090
1001.667969,-8.686933,-9.170291,-3.976419,-10.411599
1001.671875,-20.615343,-6.920606,-8.665198,-14.248596
1001.675781,-2.881291,-2.163287,-14.295530,-6.828390
1001.679688,-11.516544,-7.545692,-17.915946,-5.204471
1001.683594,-6.805098,-16.826996,-15.703420,-6.821995
1001.687500,-5.971639,-0.056260,-13.772280,-7.966949
1001.691406,-14.021508,-5.388476,2.545153,-7.884692
1001.695312,-5.232276,-2.328141,-1.046255,-8.416475
1001.699219,-0.706061,2.676767,0.677549,-3.857873
1001.703125,3.109793,7.476228,-6.462789,8.247088
1001.707031,-2.568801,4.069841,5.480951,2.389548
1001.710938,0.906305,5.204661,4.628521,6.594692
1001.714844,7.012992,3.713806,8.284647,3.320563
1001.718750,8.019811,9.850217,18.757172,13.476950
1001.722656,9.240433,8.207205,11.192928,12.444286
1001.726562,10.152307,8.779373,13.312365,8.705250
1001.730469,12.631659,6.389173,4.887101,7.839840
1001.734375,7.589130,8.935865,12.798165,17.579257
1001.738281,13.943415,13.010032,6.450546,3.280789
1001.742188,10.040692,7.518048,6.139281,3.413001
1001.746094,3.321938,2.799865,1.807014,4.065663
1001.750000,8.455335,-1.853396,2.325355,-0.560374
1001.753906,-5.526705,-6.925957,5.844607,-0.200045
1001.757812,-1.634510,-3.584879,1.735913,-5.197778
1001.761719,-5.658998,-4.746323,-0.377290,-3.844220
1001.765625,-3.036860,-11.376668,-3.140768,-9.359270
1001.769531,-6.722258,-10.700274,-10.162022,-6.191652
1001.773438,-8.705855,-7.613311,-8.627826,-1.676685
1001.777344,-12.374286,-10.719940,-1.716004,-6.427866
1001.781250,-11.843483,-11.472741,-9.804349,-8.063729
1001.785156,-10.372681,-6.244755,-3.367059,-2.651997
1001.789062,-10.166191,-8.220795,1.138711,-6.192265
1001.792969,-8.529243,-2.953803,-2.333735,-4.827791
1001.796875,-1.430060,-8.269844,-2.994026,0.697214
1001.800781,-3.185399,-11.192908,2.737590,9.040833
1001.804688,1.854416,-2.482860,3.040319,2.959146
1001.808594,3.812063,6.801209,6.571763,2.807199
1001.812500,4.851123,3.825569,10.862265,6.049613
1001.816406,2.580551,10.914583,7.943357,11.302674
1001.820312,15.159580,14.336218,12.365686,5.108864
1001.824219,3.183810,8.153324,13.360472,14.295495
1001.828125,9.905596,4.136967,16.594636,12.464791
1001.832031,4.170060,5.289480,11.256858,8.024730
1001.835938,3.008816,9.231475,3.000503,13.608254
1001.839844,9.978792,2.700611,5.805081,5.182534
1001.843750,1.362023,3.671381,-0.053302,6.252977
1001.847656,-4.827324,5.664475,-6.287441,5.884076
1001.851562,-4.853533,1.423049,-0.890171,4.946339
1001.855469,-9.240332,-15.921176,-8.029893,-5.325714
1001.859375,-5.973172,-3.492095,-7.008289,-9.168967
1001.863281,-5.533245,-1.572682,-10.883482,-13.677990
1001.867188,-19.450652,-2.655708,-11.507311,-15.675973
1001.871094,-18.200415,-11.375380,-12.760947,-16.531137
1001.875000,-10.830822,-8.484724,-8.420193,-6.832763
1001.878906,-8.227207,-3.246951,-11.596487,-5.343998
1001.882812,-9.418394,-6.839417,-5.396216,-15.749919
1001.886719,-3.428039,-10.904470,-2.630244,-1.149550
1001.890625,-0.024566,-10.587203,1.700033,-6.037862
1001.894531,-7.291807,-12.541568,-1.150715,-0.565494
1001.898438,1.212917,-1.085509,3.243648,2.396279
1001.902344,3.453461,-1.799468,1.395614,-1.534562
1001.906250,-0.296469,-0.082933,2.926408,2.440296
1001.910156,10.139581,7.367288,3.328738,7.796093
1001.914062,9.071838,0.295980,12.093894,4.922779
1001.917969,15.840595,5.110019,10.022858,6.959429
1001.921875,14.584976,10.606359,10.750157,12.130712
1001.925781,3.913680,13.425273,7.220043,9.326896
1001.929688,7.967116,7.716182,7.079923,6.716321
1001.933594,8.893549,13.689800,12.382608,7.299484
1001.937500,3.451933,10.886877,9.269356,2.207612
1001.941406,5.057330,10.819291,7.294403,0.088278
1001.945312,0.550562,3.011192,2.431028,8.325203
1001.949219,-0.301352,-4.933143,-0.215798,-7.158653
1001.953125,-3.238113,-1.265213,-5.044638,1.058062
1001.957031,-3.429704,-0.844772,-4.532889,0.445954
1001.960938,-5.875372,-3.007525,-5.531480,-0.714829
1001.964844,-10.027510,-7.891480,-10.057927,-12.567260
1001.968750,-8.633805,-6.250871,-9.753428,-10.087499
1001.972656,-14.186009,-16.874321,-12.213139,-10.187915
1001.976562,-9.691484,-3.611994,-8.880462,-9.183459
1001.980469,-11.885523,-2.655209,-10.900459,-18.605425
1001.984375,-9.856925,-12.027899,-17.852544,-13.117274
1001.988281,-8.618666,-3.975355,-1.173332,-0.527799
1001.992188,0.714020,-14.320691,0.036672,-5.265158
1001.996094,-1.714131,1.522369,3.445089,-8.286938
1002.000000,-0.255193,-3.439241,3.964545,1.954743
1002.003906,0.162933,-5.588219,6.491250,5.967830
1002.007812,9.380772,10.315763,5.091934,8.582207
1002.011719,13.377731,8.413116,3.631742,10.060196
1002.015625,6.791178,11.120895,13.146364,3.184172
1002.019531,9.431422,11.892879,7.687985,9.242623
1002.023438,5.278810,12.410225,10.892536,5.796666
1002.027344,8.665022,10.071407,12.503642,-0.143696
1002.031250,8.067417,7.343664,6.560542,4.748033
1002.035156,13.042803,4.056942,13.881613,9.201264
1002.039062,3.642405,4.124355,4.564406,10.303515
1002.042969,8.223138,1.550325,3.022410,6.114247
1002.046875,1.305145,3.211979,8.592575,11.775900
1002.050781,-1.621620,-1.723628,0.200124,-1.576760
1002.054688,-5.283766,-3.414958,-3.381690,-4.887209
1002.058594,-3.035186,-7.132215,-2.350808,-4.649239
1002.062500,-10.790069,-7.159151,-7.965707,-13.612124
1002.066406,-11.549901,-7.702386,-9.311146,-1.570077
1002.070312,-1.078557,-10.992167,-14.318051,-10.188151
1002.074219,-11.130621,-20.771020,-10.467645,-10.644559
1002.078125,-16.193475,-10.663658,-6.906556,-5.355971
1002.082031,-6.786993,-4.800385,-5.217630,-11.633090
1002.085938,-5.435585,-7.736271,-10.990633,-9.586272
1002.089844,-0.859056,-8.163156,-3.725707,-4.516826
1002.093750,-3.335654,-2.854219,-6.166500,-5.335264
1002.097656,-3.102830,-3.830621,-0.646319,-4.006938
1002.101562,-2.401847,4.995468,1.155247,-1.703473
1002.105469,5.418261,14.673689,0.172409,3.464399
1002.109375,0.296494,6.722363,11.773346,9.337986
1002.113281,7.742527,8.578893,14.333468,11.938761
1002.117188,15.420573,10.036804,4.885732,3.603846
1002.121094,10.525926,15.614282,0.648977,9.590501
1002.125000,5.892236,8.983495,10.008230,13.739074
1002.128906,10.630601,14.341145,11.002125,9.606232
1002.132812,8.173673,-0.001175,4.109433,4.934423
1002.136719,10.686742,12.809580,10.383129,13.344762
1002.140625,3.090887,-4.334935,5.795219,-0.136960
1002.144531,5.677962,5.961921,5.983672,-8.561465
1002.148438,-1.086981,-0.239320,-0.351749,2.635691
1002.152344,-4.561688,-5.856322,-2.194131,-0.775242
1002.156250,-0.242943,-11.039607,4.309129,-3.660132
1002.160156,-3.277072,-3.025213,-2.042038,-2.428648
1002.164062,-10.615033,-9.644302,-10.303608,-14.186895
1002.167969,-19.285797,-4.553032,-8.045561,-11.926024
1002.171875,-9.533856,-11.070334,-4.957455,-10.513225
1002.175781,-11.125536,-10.172712,-6.800220,-10.315150
1002.179688,-10.560506,-6.593028,-7.825095,-5.938285
1002.183594,-11.892599,-8.279003,0.074618,-9.815756
1002.187500,-15.875532,-3.710598,-1.199460,-10.565810
1002.191406,-4.243259,-13.075725,-5.813781,-5.257835
1002.195312,-5.727088,-1.830708,-1.551046,0.504165
1002.199219,5.004570,2.554695,-4.583351,-3.864295
1002.203125,-1.319740,3.899816,10.185677,-2.403847
1002.207031,-0.755836,4.194665,9.521971,3.868237
1002.210938,-7.253829,11.106646,13.406405,6.265773
1002.214844,12.167323,6.039283,11.992496,2.753017
1002.218750,1.855972,8.524987,2.959263,10.576605
1002.222656,9.837788,2.780021,9.338217,10.556664
1002.226562,5.198624,13.954749,9.229103,5.673017
1002.230469,9.687101,9.253423,1.819976,6.073731
1002.234375,6.945291,8.829551,7.379334,5.617290
1002.238281,7.918191,5.315271,4.472784,1.590478
1002.242188,4.320758,9.926364,-0.607515,7.422296
1002.246094,4.460983,0.237238,-3.354416,-1.549322
1002.250000,5.379973,-0.101803,-1.929149,-4.040456
1002.253906,-6.118290,5.435035,5.877181,1.454400
1002.257812,-5.749508,-6.637581,-7.295187,4.180092
1002.261719,-8.203935,-3.980711,-7.661791,-8.620308
1002.265625,-8.932211,-7.285707,-4.643915,-8.800273
1002.269531,-10.797432,-15.717473,-9.069284,-8.294721
1002.273438,-13.503164,-3.015812,-13.334781,-13.418478
1002.277344,-10.656929,-10.581094,-7.912459,-15.628830
1002.281250,-10.486969,-6.986554,-6.173472,-17.572457
1002.285156,-7.431721,-8.244129,-6.548428,-11.638075
1002.289062,-8.368352,-8.089370,-9.907098,-4.795727
1002.292969,4.740645,0.336994,-1.535381,-3.776141
1002.296875,5.554910,2.142188,-0.064655,-1.052802
1002.300781,9.717420,-11.274105,5.981418,1.567997
1002.304688,3.889818,4.346872,-0.509830,1.844607
1002.308594,5.024670,8.427337,0.834050,7.798189
1002.312500,6.060628,5.772667,7.331727,10.816222
1002.316406,7.144495,13.306154,13.644800,5.854197
1002.320312,9.350899,5.397081,2.468269,11.632897
1002.324219,16.447729,2.918203,3.179107,10.913706
1002.328125,5.786563,13.184017,4.668096,19.729816
1002.332031,14.679009,15.249251,18.136762,11.709287
1002.335938,9.100579,10.396944,6.514064,7.852050
1002.339844,2.813789,5.134645,13.025107,-0.303064
1002.343750,4.264070,-1.588220,6.557601,-1.365533
1002.347656,-10.028217,-6.142326,-1.728360,-0.107907
1002.351562,-2.988590,-1.218626,-8.274759,4.336869
1002.355469,4.599171,0.690211,-8.349297,1.682372
1002.359375,-8.712138,-6.380752,-9.143440,-20.273097
1002.363281,-6.853925,1.918558,-6.577411,-6.541648
1002.367188,-7.252873,-9.699743,-8.363649,-8.758875
1002.371094,-16.846878,-15.455835,-10.405106,-11.774419
1002.375000,-13.482937,-6.851558,-7.407465,-10.493607
1002.378906,-8.154669,-15.178450,-9.228903,-9.197506
1002.382812,-3.594234,-2.884089,-7.475868,-5.071478
1002.386719,-11.854256,2.322069,-11.664326,-13.035629
1002.390625,-0.009267,-3.438179,-5.020669,-4.711590
1002.394531,-2.716854,-2.094286,-2.718246,-6.040694
1002.398438,-6.972572,3.234632,-0.841436,-4.371762
1002.402344,3.230027,-0.903820,1.272839,-1.175276
1002.406250,6.244709,6.281529,4.560038,2.016367
1002.410156,4.992453,15.308221,4.965470,13.758998
1002.414062,12.478291,10.146298,1.429346,8.717022
1002.417969,4.317464,19.429167,1.970093,10.592078
1002.421875,8.616954,6.353227,9.139846,2.171583
1002.425781,15.560286,7.488305,11.448586,10.331764
1002.429688,3.172139,8.998458,12.104917,5.712124
1002.433594,5.337640,14.358902,15.740382,12.347175
1002.437500,3.435589,7.643874,12.091287,11.153831
1002.441406,8.858961,10.678808,0.605106,5.760312
1002.445312,1.297618,4.691208,6.576140,-5.572477
1002.449219,4.739182,-0.277443,-1.838767,-2.897723
1002.453125,-3.910497,1.516777,-3.304929,2.072097
1002.457031,0.434687,1.750384,-7.539575,-12.636282
1002.460938,-8.865360,1.272823,-11.082168,-5.883646
1002.464844,-13.779427,-8.490251,-10.278594,0.310485
1002.468750,1.991965,-7.788689,-9.126984,-8.908925
1002.472656,-6.440015,-12.462415,-8.649746,-5.651128
1002.476562,-15.787679,-11.673076,-14.369949,-15.394385
1002.480469,-10.519779,-10.505013,-13.482452,1.231064
1002.484375,-4.844672,-2.372376,-7.500061,-8.412220
1002.488281,-2.787916,-13.737809,-7.645911,-3.714759
1002.492188,-3.710912,-6.684494,3.034814,-3.475174
1002.496094,-5.817162,-2.784861,1.748464,-3.639901
1002.500000,1.466396,-0.366949,-6.504005,-6.526458
1002.503906,3.469661,-4.253286,-1.529670,-3.355381
1002.507812,5.248133,3.171947,9.573189,5.521284
1002.511719,14.433487,7.957025,6.606761,7.407062
1002.515625,9.698117,14.583081,8.733917,2.380314
1002.519531,21.519441,12.902958,10.678263,8.965425
1002.523438,2.543896,11.552090,19.268929,12.263977
1002.527344,12.341600,7.865371,12.549659,8.191675
1002.531250,13.171655,10.434296,19.344505,10.091531
1002.535156,1.524278,7.245040,-4.458190,5.983171
1002.539062,3.007925,2.083484,6.267751,3.154698
1002.542969,6.864484,2.571064,-0.090923,-0.719457
1002.546875,0.415774,7.150812,6.918846,1.798624
1002.550781,3.168895,1.147140,-1.653006,-0.937723
1002.554688,-6.369378,0.434340,-0.921648,-2.813168
1002.558594,-7.115883,-3.102786,-1.291030,-3.980031
1002.562500,-1.073884,-13.075771,-10.609317,-5.577518
1002.566406,-9.991059,-5.774840,-9.385216,-3.723313
1002.570312,-8.215018,-12.294912,-8.209446,-2.268992
1002.574219,-9.611811,-11.132421,-10.233777,-15.813493
1002.578125,-12.146562,-12.921388,-6.440842,-6.292882
1002.582031,-9.264139,-8.863918,-5.697114,-13.195414
1002.585938,-10.705838,-13.134788,-10.591157,-7.493304
1002.589844,-5.580571,-11.417039,-10.191949,-4.668676
1002.593750,-2.841659,-5.901489,-3.447700,-6.190676
1002.597656,0.486146,-0.658833,2.000411,7.534474
1002.601562,0.900949,2.005375,6.116264,4.783868
1002.605469,-2.437660,-1.582607,5.091665,-1.233938
1002.609375,13.272661,7.229959,8.097961,4.632289
1002.613281,6.558222,8.557988,6.348508,0.758821
1002.617188,8.960569,2.896880,14.789953,8.434224
1002.621094,5.859699,10.212658,16.405362,17.689801
1002.625000,13.565284,11.620334,17.603404,6.884516
1002.628906,8.100835,10.432812,10.970488,11.779115
1002.632812,8.236267,5.650368,9.377796,7.336267
1002.636719,-0.722670,-0.326935,8.065357,7.567367
1002.640625,9.390018,5.165158,5.451385,5.322597
1002.644531,-0.614194,4.443695,4.113309,3.708327
1002.648438,1.772153,3.828394,0.667108,-3.534551
1002.652344,-7.100724,-3.658872,-1.026642,-8.692528
1002.656250,-5.403678,-10.567925,-4.758014,-3.065446
1002.660156,-12.508590,-8.620074,-3.943018,-5.774781
1002.664062,-5.969856,-16.009272,-12.680716,-11.528206
1002.667969,-13.023315,-18.156373,-8.041193,-13.752532
1002.671875,-3.929777,-8.084073,-12.959151,-13.009627
1002.675781,-15.314960,-12.360011,-14.041158,-12.591243
1002.679688,-13.293773,-7.777868,-10.012299,-10.401383
1002.683594,-1.940363,-7.503347,-8.225317,-16.523469
1002.687500,-5.781910,-10.660253,-11.748083,-9.666134
1002.691406,4.617604,-5.036974,-4.789077,-10.077242
1002.695312,-0.939989,-2.793820,-11.869162,2.944012
1002.699219,-0.157984,-1.303972,3.419268,0.370570
1002.703125,-0.590330,1.241696,1.796214,6.197755
1002.707031,9.833536,5.178298,-0.500353,1.182350
1002.710938,4.682884,2.802943,10.240684,4.715820
1002.714844,4.895047,5.808097,7.296126,5.836903
1002.718750,11.726559,9.129361,8.347167,10.399428
1002.722656,12.106021,1.118626,7.687650,10.374593
1002.726562,9.875637,14.168549,11.127397,9.499191
1002.730469,4.478231,3.827885,8.994508,15.225107
1002.734375,7.867836,6.119397,14.800824,12.625801
1002.738281,6.779504,6.246656,12.325398,13.544465
1002.742188,-1.089603,1.659890,8.149505,7.032304
1002.746094,-4.973833,1.258467,-0.040058,4.712223
1002.750000,-3.648701,2.967166,4.472397,-13.048486
1002.753906,-4.528519,-3.803470,-3.025204,8.953792
1002.757812,0.691360,-5.318892,-11.197921,-1.245817
1002.761719,-6.142166,-5.151632,-10.286647,-6.223500
1002.765625,-12.845541,-19.256948,-17.559291,-6.082935
1002.769531,-10.901621,-13.988948,3.697493,-5.009334
1002.773438,-20.931949,-7.228381,-3.824235,-8.581760
1002.777344,-5.882869,-10.789240,-7.654968,-9.908643
1002.781250,-6.429592,-12.083649,-5.043810,-7.924603
1002.785156,-11.348082,-3.401651,-6.888604,-8.025126
1002.789062,-4.599466,1.375297,-9.666719,-8.877598
1002.792969,-6.080129,-4.823602,-0.067901,-8.029215
1002.796875,-7.735344,-0.076888,-5.436448,0.054747
1002.800781,3.972339,1.156040,6.325939,4.722710
1002.804688,8.773660,8.373165,-1.538335,-0.907561
1002.808594,6.034231,-0.198382,7.739891,5.118573
1002.812500,1.444046,7.336881,-0.957304,5.144370
1002.816406,7.905332,3.023180,3.160994,3.487427
1002.820312,12.307022,7.044927,11.604392,5.234922
1002.824219,11.924448,13.929464,5.251252,8.496872
1002.828125,9.561504,9.678958,10.587336,11.613809
1002.832031,8.117650,4.873616,9.369457,4.288632
1002.835938,11.881298,0.833871,3.890369,9.895031
1002.839844,6.034810,6.935018,11.740815,2.967377
1002.843750,1.837341,6.272705,6.012288,2.467258
1002.847656,7.065462,6.938568,2.206224,8.978394
1002.851562,-13.186990,2.946899,-1.144154,-2.654011
1002.855469,5.009026,-6.781392,0.377608,-2.521797
1002.859375,-5.724323,-5.142788,-5.538835,-6.819973
1002.863281,-8.914364,-9.729797,-5.837608,-3.639683
1002.867188,-6.386880,-0.236124,-4.195620,-14.041002
1002.871094,-4.152289,-16.835019,-14.738794,-6.616314
1002.875000,-7.671845,-11.599081,-9.680104,-6.890187
1002.878906,-10.504979,-13.979212,-2.406131,-11.112052
1002.882812,-19.984257,-8.608287,-5.105188,-5.976390
1002.886719,-6.660337,-7.124948,-14.783512,-10.050680
1002.890625,-6.742416,-8.570563,-4.611896,-6.635079
1002.894531,-6.492103,-2.468131,-8.466407,1.314816
1002.898438,-1.196186,5.440871,4.600816,1.948994
1002.902344,5.511165,-0.590035,3.598929,0.428895
1002.906250,3.062387,2.153286,0.034514,4.098321
1002.910156,0.032167,7.790233,3.525312,-4.285522
1002.914062,9.025160,5.581711,8.297756,11.337893
1002.917969,4.159575,8.647040,13.084230,-1.566954
1002.921875,8.272740,7.431809,6.819262,12.830622
1002.925781,10.608773,2.309764,9.280496,8.732034
1002.929688,9.687786,5.772338,12.300811,5.345005
1002.933594,12.021056,6.456350,8.567848,6.611815
1002.937500,5.795108,3.425621,4.521584,10.345724
1002.941406,3.380127,5.099464,2.290781,6.997615
1002.945312,0.638616,8.725764,-2.759225,-2.544532
1002.949219,-8.951442,-2.165746,5.367753,2.783341
1002.953125,-1.350796,1.188001,-3.422219,-6.760927
1002.957031,-4.725390,-1.752641,-8.204528,-5.097938
1002.960938,-12.460180,-16.837486,-15.309153,-13.048697
1002.964844,-5.191731,-8.026481,-9.539963,-6.142289
1002.968750,-7.378677,-7.390532,-4.662249,-14.773515
1002.972656,-15.305198,-10.572658,-11.902877,-7.068387
1002.976562,-12.717342,-7.074044,-10.954388,-6.490389
1002.980469,-2.927583,-12.793535,-9.130437,-8.512181
1002.984375,-9.074998,-4.128872,-5.740504,-5.116651
1002.988281,-0.873088,-6.222319,-7.233675,-7.239808
1002.992188,-1.280004,5.232482,-1.317215,-6.371626
1002.996094,-3.272159,-4.428208,-10.303953,-0.063973
1003.000000,-2.449986,1.967661,-1.881068,-5.593607
1003.003906,2.198576,2.945749,7.443196,5.748249
1003.007812,5.703399,7.587971,2.585301,9.947903
1003.011719,11.363940,3.219848,8.133170,9.127645
1003.015625,6.345395,10.486524,11.383059,6.037298
1003.019531,11.085668,4.620651,3.452382,6.061066
1003.023438,3.518693,5.758081,9.932157,11.465833
1003.027344,6.415299,15.850436,6.767149,16.231420
1003.031250,6.880592,12.843676,12.663521,10.700812
1003.035156,10.405810,11.491672,16.040544,3.790288
1003.039062,2.849860,9.147268,7.405765,7.276764
1003.042969,6.046898,9.347251,1.575544,2.112955
1003.046875,-4.042343,1.131442,2.961902,2.635246
1003.050781,4.181483,-0.892452,0.682398,1.518402
1003.054688,-4.868915,1.192074,-3.685075,2.708939
1003.058594,3.264770,0.743559,-10.913391,-2.606359
1003.062500,-3.201202,-5.380139,-7.039694,-5.411987
1003.066406,-3.346824,-7.024917,-6.638750,-12.157088
1003.070312,-14.100075,-9.543110,-8.144646,-2.385290
1003.074219,-12.023623,-13.726430,-5.282170,-5.056332
1003.078125,-11.699225,-1.099901,-8.403037,-9.166307
1003.082031,-7.534655,-13.308008,-4.531398,-11.016883
1003.085938,-4.009182,-5.791725,-9.600809,-11.890486
1003.089844,-2.054984,-8.156085,-4.731653,-10.809594
1003.093750,-0.892591,-2.769065,-2.367617,-6.909067
1003.097656,3.167686,5.497391,1.093529,4.285835
1003.101562,6.685547,0.952923,4.932630,-3.490067
1003.105469,0.334075,2.921692,3.634020,-2.238717
1003.109375,3.614994,5.756497,2.190229,11.586651
1003.113281,6.002764,8.181257,11.596897,3.729421
1003.117188,7.918701,8.884607,4.779137,5.967695
1003.121094,3.913175,16.323437,16.609414,9.900641
1003.125000,13.171452,9.502007,9.886128,10.662124
1003.128906,10.319321,5.816874,10.448493,8.822556
1003.132812,10.260404,3.319372,10.564828,7.862689
1003.136719,9.580347,4.968056,2.992948,4.644501
1003.140625,3.826061,4.523653,4.505123,2.262930
1003.144531,-0.255920,5.936955,4.026203,6.452139
1003.148438,7.727558,-7.303530,1.555443,3.209113
1003.152344,-5.194883,-0.234095,-2.620609,-3.202092
1003.156250,-8.899658,-3.562392,-3.570680,-3.882624
1003.160156,-8.728907,1.101050,-7.636795,-14.267565
1003.164062,-16.391517,-7.084960,-9.855208,-13.943900
1003.167969,-8.152226,-8.516798,-9.942131,-7.966473
1003.171875,-15.726045,-12.309766,-8.455482,-15.387449
1003.175781,-5.794021,-10.741989,-9.918222,-7.658558
1003.179688,-8.269188,-11.996881,-7.159436,-2.944524
1003.183594,-13.030774,-9.967129,-9.294189,-13.012467
1003.187500,-8.367220,-13.495904,-12.114740,-3.041507
1003.191406,-10.170661,-5.704387,-6.167821,-4.362356
1003.195312,-3.958243,-3.616086,-0.633286,-3.723240
1003.199219,4.337685,-2.849064,4.791100,-0.861785
1003.203125,3.515087,5.844362,-1.095409,4.354133
1003.207031,4.972270,6.406000,1.230582,5.922003
1003.210938,0.999175,13.752550,5.834201,4.140136
1003.214844,12.026143,8.645206,9.733735,9.763619
1003.218750,10.815931,8.186232,12.714624,3.579304
1003.222656,2.368176,4.266179,3.739804,10.283641
1003.226562,2.344694,8.066575,7.986633,4.899168
1003.230469,9.929441,7.262108,3.733855,11.152382
1003.234375,8.893187,8.458043,14.718383,14.378526
1003.238281,2.175770,9.564004,11.411463,6.143743
1003.242188,5.429347,0.667432,3.622387,1.812929
1003.246094,0.621598,13.001395,-1.569761,-7.918117
1003.250000,-2.023810,9.486255,-4.919371,2.760899
1003.253906,2.955219,-1.533117,-4.027666,-1.082629
1003.257812,-9.430622,-5.409136,-4.562651,0.300523
1003.261719,-16.589056,-1.251674,-11.355916,-8.167041
1003.265625,-16.067456,-12.406942,-6.620763,-15.987704
1003.269531,-10.100244,-5.650797,-12.362344,-2.199094
1003.273438,-6.696643,-11.321534,-23.458519,-11.847070
1003.277344,-10.916729,-5.845611,-9.497199,-12.274588
1003.281250,-10.268544,-14.632346,-4.840793,-4.664573
1003.285156,-0.797630,-12.771219,-4.127857,-7.101688
1003.289062,-10.075777,-7.524484,-4.896475,-4.445023
1003.292969,-6.828712,-0.434731,2.626844,-7.555492
1003.296875,-7.518008,-7.581724,-4.042346,-5.258803
1003.300781,4.576631,3.195397,0.566498,-5.013641
1003.304688,0.298657,7.436927,2.632581,5.533165
1003.308594,9.331680,10.159036,6.105080,-1.624807
1003.312500,8.107557,6.232673,6.231075,8.327293
1003.316406,10.382531,6.584801,7.791460,6.972672
1003.320312,7.966114,7.410850,3.163027,14.188245
1003.324219,11.414427,13.303668,15.045978,2.360397
1003.328125,5.323849,6.905140,3.704017,10.738399
1003.332031,10.461564,10.010530,15.790509,12.084216
1003.335938,6.776414,12.367106,6.088617,9.375670
1003.339844,5.374100,1.834778,14.779494,3.698880
1003.343750,12.844361,2.647355,5.012882,10.687260
1003.347656,-4.968125,1.939021,4.353657,8.708758
1003.351562,6.415565,-7.006989,4.979474,-5.679145
1003.355469,-9.494838,-0.258140,1.301211,-4.476021
1003.359375,-3.513944,-9.977742,-12.632742,-10.576189
1003.363281,-6.101920,-7.754530,-7.849449,-9.838528
1003.367188,-4.000535,-6.491497,-14.961578,-2.933957
1003.371094,2.254387,-7.939200,-15.907258,-7.512740
1003.375000,-10.391970,-14.637604,-3.854721,-6.260806
1003.378906,-1.640096,-9.120994,-8.164707,-11.993531
1003.382812,-8.377147,-11.134194,-12.146471,-18.173271
1003.386719,-6.707304,-9.620577,-6.658015,1.472962
1003.390625,2.905179,0.485196,-8.551961,1.408716
1003.394531,-2.844742,-3.717431,0.979659,-1.782389
1003.398438,-0.664746,0.653635,0.915714,-3.479586
1003.402344,-6.598319,2.339112,1.158846,4.954174
1003.406250,-0.521237,16.790327,6.357320,2.457897
1003.410156,11.551759,5.396251,1.666720,7.391843
1003.414062,3.707795,6.147685,16.188599,3.616783
1003.417969,11.530009,10.045932,6.966377,8.116936
1003.421875,11.947544,7.825111,7.601006,9.688803
1003.425781,7.251988,7.718974,8.130909,16.038077
1003.429688,8.747067,9.233262,8.337488,5.948509
1003.433594,11.152380,12.922426,4.792537,9.347079
1003.437500,10.033636,7.168950,10.372824,1.900298
1003.441406,0.931855,7.017689,3.185695,5.858413
1003.445312,9.218408,-3.475831,-0.431450,1.339174
1003.449219,-1.332978,-5.819663,-5.355342,1.058243
1003.453125,-0.194044,-6.171717,-6.101793,-5.642782
1003.457031,-4.855547,-4.913913,-1.756358,-6.857524
1003.460938,-3.557251,-5.608503,-6.088730,-7.573588
1003.464844,-10.550454,-12.128038,-8.332513,-10.593574
1003.468750,-4.972976,-12.019867,-14.302657,-4.504678
1003.472656,-13.463519,-7.313263,-13.365784,-11.164837
1003.476562,-4.685235,-10.658101,-15.808551,-14.930754
1003.480469,-14.159964,-11.569798,-12.739666,-5.790912
1003.484375,-6.623708,-4.837353,-15.623394,-6.965012
1003.488281,-9.560844,-4.914893,-4.446610,-9.133688
1003.492188,-9.923596,-0.074186,-9.499061,-6.287527
1003.496094,-8.438068,1.708187,-2.782372,-0.778346
1003.500000,-0.882298,2.989941,-8.716973,-2.077731
1003.503906,0.621419,-2.730101,4.421342,3.925035
1003.507812,5.360752,2.694347,4.982849,4.843818
1003.511719,9.908041,7.601921,12.839156,11.055284
1003.515625,13.345607,5.286191,6.539407,7.266712
1003.519531,7.833277,18.684643,7.794163,10.619252
1003.523438,8.655367,12.998904,8.492218,11.037885
1003.527344,9.130337,9.186131,12.519361,10.136382
1003.531250,9.234637,15.389982,10.226637,7.160291
1003.535156,5.941370,9.722408,6.245590,9.320202
1003.539062,4.758312,11.826798,9.448590,9.742693
1003.542969,-0.763136,-2.783899,7.216568,10.508041
1003.546875,6.100521,-2.505472,-1.167810,3.841408
1003.550781,3.057183,6.436101,-6.500152,-3.554761
1003.554688,-4.441814,-0.434226,-2.968811,-0.097239
1003.558594,-4.410105,-7.933786,0.530922,-6.112005
1003.562500,-4.043292,-10.080727,-3.929633,-5.754771
1003.566406,-8.402705,-7.700446,-9.866099,-5.632210
1003.570312,-13.702053,-4.542304,-8.907704,-0.661202
1003.574219,-11.874446,-16.670644,-10.068774,-10.562003
1003.578125,-15.302667,-9.598951,-3.505648,-11.013317
1003.582031,-8.249918,-6.173674,-8.660544,-3.471266
1003.585938,-2.175536,-4.450765,-6.335465,-12.823268
1003.589844,-2.942000,-5.906781,-0.503016,-11.288961
1003.593750,3.649232,0.835638,-5.113665,-9.719695
1003.597656,0.342930,-1.900400,-6.327484,-5.623761
1003.601562,-1.003287,8.649783,-3.760279,2.666013
1003.605469,4.711223,0.395222,4.846830,3.241167
1003.609375,11.416784,-2.362402,-0.025928,2.615499
1003.613281,3.383267,3.605465,4.335017,7.277767
1003.617188,5.310069,12.513409,6.888675,11.729237
1003.621094,14.254034,7.540759,9.004490,6.512109
1003.625000,7.432499,11.149599,6.755040,12.456680
1003.628906,6.149878,11.376718,13.249000,4.785634
1003.632812,8.790999,13.278677,4.844752,16.870180
1003.636719,4.723445,12.591474,9.222868,10.469952
1003.640625,1.203200,3.166949,8.379199,2.909143
1003.644531,2.346840,0.968454,5.233565,2.817613
1003.648438,-5.015276,3.130182,3.551133,1.742420
1003.652344,-2.003681,-3.788675,-8.278261,-1.712997
1003.656250,0.573720,-3.810144,-5.486003,-0.443408
1003.660156,-13.022181,-3.476449,-3.287843,-7.235715
1003.664062,-10.114554,-6.935819,-3.192029,-8.997654
1003.667969,-4.783534,-13.271308,-7.967040,-7.013421
1003.671875,-8.537398,-6.504386,-10.201162,-10.365928
1003.675781,-13.730234,-12.701427,-9.898269,-10.769252
1003.679688,-18.120574,-9.371859,-6.391378,-9.252098
1003.683594,-5.083390,-11.818132,-11.910605,-10.097983
1003.687500,-4.437425,-13.045706,-8.006653,-7.832002
1003.691406,-7.296823,-10.848775,-2.592102,-5.941753
1003.695312,7.664350,-3.341444,-6.124055,-4.725297
1003.699219,3.918216,1.203591,2.795931,-3.682840
1003.703125,7.162333,4.971611,-0.904647,-2.408177
1003.707031,1.767533,3.855668,5.840424,2.422052
1003.710938,1.323435,3.047021,3.982784,8.543064
1003.714844,10.228641,11.318023,3.134151,6.061537
1003.718750,8.904830,14.586866,12.374445,7.111250
1003.722656,5.969316,19.366785,10.487626,8.349057
1003.726562,16.008953,17.502382,3.943336,4.336124
1003.730469,9.924445,12.087723,8.452823,7.077120
1003.734375,5.277407,1.916091,12.684549,6.053725
1003.738281,7.741662,7.965755,3.714027,0.672920
1003.742188,2.028344,1.468749,9.316566,1.860897
1003.746094,4.752089,1.377194,3.696671,1.420676
1003.750000,5.616814,-5.182062,-5.062512,-7.212253
1003.753906,-5.451349,-1.470241,-4.759167,-12.021473
1003.757812,-1.470652,-4.869090,-8.886700,-5.463078
1003.761719,-13.133113,-9.744716,-8.049106,-4.079839
1003.765625,-9.773405,-3.999976,-4.189296,-8.769049
1003.769531,1.278012,-6.755298,-11.308164,-9.352351
1003.773438,-8.036717,-18.539655,-9.131287,-5.703918
1003.777344,-11.655268,-8.207439,-0.081968,-12.159370
1003.781250,-18.392885,-9.053692,-3.555112,-10.331954
1003.785156,-11.476558,-14.239984,-8.280307,-1.792008
1003.789062,-6.776956,-2.862958,-5.480634,-4.908374
1003.792969,8.717473,-8.011977,-6.058449,-3.317137
1003.796875,-3.706386,-7.239166,-2.899601,-1.878000
1003.800781,-0.355471,9.925900,2.884727,-6.457933
1003.804688,4.176600,3.306458,8.922623,4.782500
1003.808594,-0.941197,-3.513853,5.599398,10.071089
1003.812500,3.098408,5.138881,3.121234,11.738275
1003.816406,8.146857,7.387724,7.675561,7.165182
1003.820312,9.113185,10.786634,12.129612,10.325548
1003.824219,9.498588,8.263584,2.132335,11.078912
1003.828125,9.177339,5.487498,9.372811,9.349452
1003.832031,12.153990,8.598327,4.650228,11.086627
1003.835938,0.228538,4.365592,0.143941,11.899835
1003.839844,7.529937,4.210472,11.985141,-0.777053
1003.843750,-1.781440,11.932660,5.711267,9.640948
1003.847656,-3.735239,3.837111,0.323635,4.990528
1003.851562,-5.218787,-3.084019,1.388862,1.350566
1003.855469,-5.772885,-3.842750,-3.556887,0.453406
1003.859375,-10.930740,-2.125759,-8.246309,-6.060197
1003.863281,-5.835628,-7.167865,-9.135523,1.675643
1003.867188,-15.572343,-13.824493,-16.229767,-15.431769
1003.871094,-9.138566,-11.512656,-20.840734,-8.670191
1003.875000,-17.237574,-11.987694,-15.951079,-2.915522
1003.878906,-12.752544,-8.731379,-5.179247,-4.831265
1003.882812,-3.079560,-3.766371,-14.843917,-15.151411
1003.886719,-0.675534,-8.238234,-5.424276,-3.126125
1003.890625,-7.775136,-5.087389,-5.534655,-13.289798
1003.894531,-3.429504,3.478394,-13.699656,-4.947261
1003.898438,1.897313,1.867779,1.490432,-2.744919
1003.902344,2.385374,-2.965261,-0.318486,4.056261
1003.906250,-1.660102,-1.752197,4.720542,8.865626
1003.910156,6.382799,7.855750,-0.276176,12.139400
1003.914062,14.163219,8.916202,5.810653,10.381142
1003.917969,9.138912,13.962183,12.966105,7.715368
1003.921875,9.531441,15.315952,8.091970,13.780624
1003.925781,7.501729,10.276567,0.841323,7.882698
1003.929688,10.106911,7.117022,12.226380,3.819132
1003.933594,3.884370,8.766707,9.456709,4.798061
1003.937500,14.773398,-0.120200,3.075393,1.947426
1003.941406,3.932502,5.111121,7.332319,10.211279
1003.945312,5.382905,-1.198289,10.457330,-0.236706
1003.949219,2.190697,-3.939430,-2.218345,-3.587245
1003.953125,-7.092301,3.366598,0.952752,-5.139904
1003.957031,0.245394,-3.933475,-9.011769,-6.124233
1003.960938,-14.600762,-6.403406,-13.651929,-2.929446
1003.964844,-9.605035,1.936089,-10.499686,-10.015667
1003.968750,-10.379499,-6.080911,-10.030249,-12.199295
1003.972656,-12.827594,-15.003138,-9.351710,-7.260118
1003.976562,-5.192753,-4.787655,-12.469260,-11.045047
1003.980469,-7.591903,-9.008778,-7.478240,-7.453203
1003.984375,-3.893952,-11.531407,-6.313495,-7.558890
1003.988281,-6.176565,-7.992315,-5.337842,-2.491697
1003.992188,-5.626381,-1.507845,-4.162642,-1.486701
1003.996094,-4.679589,0.803830,-1.126043,-6.161251
1004.000000,-8.473811,-0.530181,-1.591246,-3.098475
1004.003906,-6.079476,1.920240,-0.428040,3.308520
1004.007812,2.356394,1.455939,-3.780894,3.274496
1004.011719,9.644789,0.250821,11.120269,6.159295
1004.015625,4.974585,4.006165,9.925523,2.486162
1004.019531,11.904335,6.535974,5.851861,5.053802
1004.023438,11.957899,8.683708,8.674334,9.479886
1004.027344,7.374745,6.331535,12.013838,12.472942
1004.031250,10.747274,6.468214,7.505133,8.811142
1004.035156,0.056588,4.714279,3.557394,7.846237
1004.039062,5.948125,12.984776,8.112665,5.626072
1004.042969,4.810469,5.548326,-1.501276,1.282965
1004.046875,-0.358718,2.804463,3.463087,2.196533
1004.050781,3.887274,1.140369,1.427234,-2.008636
1004.054688,-2.823147,-11.476523,1.657980,0.746042
1004.058594,-7.356303,-5.121990,-1.523494,-5.801043
1004.062500,-4.585207,-4.158137,-12.165166,-4.952675
1004.066406,-10.623153,-3.381205,-12.201572,-4.033577
1004.070312,-13.207776,-14.160009,-10.377146,-9.309705
1004.074219,-2.953262,-18.765966,-11.970499,-9.060187
1004.078125,-7.231986,-0.188419,-15.176009,-7.988772
1004.082031,-13.671850,-1.391251,-10.386568,-11.157631
1004.085938,-3.370370,-4.309632,-5.197637,-11.867658
1004.089844,-0.057748,-5.360014,-5.415702,-9.191134
1004.093750,-11.736235,-9.391924,-2.404272,-8.611250
1004.097656,2.731790,0.824454,7.052304,-1.045089
1004.101562,-1.450439,1.158426,13.130890,3.220864
1004.105469,4.313763,1.052693,-4.630845,0.264958
1004.109375,10.140628,4.408529,0.263407,13.063211
1004.113281,9.935057,8.149684,7.179908,8.380930
1004.117188,7.187715,12.646350,9.060874,8.532680
1004.121094,8.680948,11.613420,14.110748,4.685231
1004.125000,10.972598,6.386104,10.950752,6.400183
1004.128906,15.490370,10.772872,14.397687,11.588126
1004.132812,9.600317,11.054842,7.253078,9.921531
1004.136719,5.669141,-2.150511,8.444061,9.238556
1004.140625,2.709255,6.770368,5.574268,3.708849
1004.144531,6.117605,1.172628,3.125352,2.118779
1004.148438,4.606995,-5.754309,4.773908,-0.776070
1004.152344,-6.069686,-0.653942,-3.073961,7.222271
1004.156250,4.271392,-2.257250,4.115144,3.130104
1004.160156,-8.293215,-9.918836,-9.380002,-6.544496
1004.164062,4.589616,-14.281399,-14.210034,-5.973133
1004.167969,-9.877493,-7.012232,-4.635986,-4.816075
1004.171875,-9.941734,-9.153795,-3.123646,-6.185865
1004.175781,-10.948809,-10.941513,-6.668679,-15.577532
1004.179688,-9.462953,-2.204203,-11.538082,-3.698978
1004.183594,-5.514352,-5.640269,-10.577921,-4.546243
1004.187500,-4.954935,-12.580653,-11.552607,-15.313047
1004.191406,-2.412874,-6.393953,-13.956892,4.390031
1004.195312,-0.279144,-8.600751,-3.421796,-7.356982
1004.199219,-4.845389,-7.993242,-3.097211,2.698755
1004.203125,1.201031,2.441004,0.277857,2.783817
1004.207031,5.089150,-0.810659,2.218973,3.814840
1004.210938,7.802327,8.922912,5.770150,1.398587
1004.214844,8.765441,8.707343,6.562611,6.366527
1004.218750,5.912312,1.346595,2.504425,16.989615
1004.222656,12.719570,10.143841,3.412361,8.083869
1004.226562,8.149873,16.081367,6.908897,15.010317
1004.230469,11.008015,14.546190,-0.339729,4.766410
1004.234375,7.259863,3.501527,10.548243,-2.429849
1004.238281,6.240811,8.102732,0.179896,4.593414
1004.242188,2.017465,-0.414757,8.518529,-1.549288
1004.246094,-0.106984,3.208135,4.129493,3.390176
1004.250000,4.632004,1.139857,-3.281294,-0.899517
1004.253906,-1.302869,-1.051515,-4.529302,2.058225
1004.257812,-1.368217,-7.485398,-10.227511,-10.804801
1004.261719,-7.724495,-9.661905,-8.790350,-8.679574
1004.265625,-9.026292,-7.418276,-5.490320,-14.288473
1004.269531,-8.167078,-14.585321,-7.880454,-6.038900
1004.273438,-8.570059,-7.048806,-11.976816,-9.551737
1004.277344,-13.771661,-10.319211,-10.527004,-1.982153
1004.281250,-3.481625,-6.746135,-7.204878,-7.974804
1004.285156,-3.887694,-5.931567,-8.407291,-2.797043
1004.289062,-0.959647,-1.707261,-7.737356,-9.924510
1004.292969,-3.616193,-4.970825,2.206437,-10.696075
1004.296875,-8.999008,-3.999169,-0.460618,-1.319057
1004.300781,0.331722,-0.130953,-1.460064,0.805674
1004.304688,6.960722,2.881221,9.711467,0.327681
1004.308594,2.929610,9.460947,3.841572,0.039461
1004.312500,7.178866,3.718066,5.357990,11.335897
1004.316406,2.242979,13.610512,7.190100,19.307413
1004.320312,4.602307,10.913579,8.654371,12.806130
1004.324219,4.510671,19.683556,8.388201,12.371942
1004.328125,12.210240,15.732576,8.968383,9.635347
1004.332031,14.338570,14.989703,2.724558,10.794678
1004.335938,13.827557,3.475487,10.343613,3.463472
1004.339844,4.998505,8.255565,14.797508,7.164863
1004.343750,6.812460,4.027181,2.054716,-0.752043
1004.347656,-0.204206,-0.326318,0.918186,-3.802614
1004.351562,2.075520,-1.350706,-1.870026,-3.654193
1004.355469,-9.189031,-3.967845,-5.992009,-2.529208
1004.359375,-4.104299,-10.863556,-5.818767,-7.858548
1004.363281,-10.347662,-9.401838,-7.058336,-15.580482
1004.367188,-6.535186,-2.833794,-8.949263,-5.331837
1004.371094,-6.637209,-11.877188,-6.121916,-8.366741
1004.375000,-4.002507,-12.975034,-11.981482,-6.144814
1004.378906,-9.980383,-6.126693,-12.786387,-12.717189
1004.382812,0.204160,-3.676490,-10.817159,-6.009260
1004.386719,-7.650345,-3.075182,-12.809024,-10.480400
1004.390625,-5.895553,-10.074434,-5.608385,-9.033411
1004.394531,-9.140005,-2.612845,2.546158,-0.891001
1004.398438,3.486001,3.163263,-8.906333,1.802784
1004.402344,6.899478,3.906609,3.057571,0.261499
1004.406250,2.314682,4.232094,2.966554,9.687866
1004.410156,9.648310,5.326389,7.585590,3.466826
1004.414062,15.542788,11.280176,5.889480,15.015950
1004.417969,6.868427,17.547422,15.525546,4.078221
1004.421875,14.526121,11.212869,8.649946,4.182814
1004.425781,13.281187,11.666237,9.341743,11.048390
1004.429688,8.320020,12.476069,13.975517,10.300543
1004.433594,10.430748,7.770125,13.044672,10.336490
1004.437500,11.653580,13.586968,8.488222,9.207011
1004.441406,2.425636,2.556595,14.507361,8.679038
1004.445312,-4.654856,1.282465,2.087074,10.332685
1004.449219,2.479498,-2.712108,3.746342,7.791719
1004.453125,0.467785,-1.256064,1.929691,2.189651
1004.457031,-7.034849,-2.902307,-6.696048,-8.622880
1004.460938,-6.836051,-13.869467,-0.424079,-7.699880
1004.464844,-7.469572,-6.648576,-12.360190,-8.965134
1004.468750,-7.702344,-7.852022,-8.448633,-2.951627
1004.472656,-5.458253,-18.674825,-13.215987,-11.201978
1004.476562,-5.406076,-6.602885,-13.747898,-9.654649
1004.480469,-16.715916,-11.913082,-6.841282,-1.011643
1004.484375,-13.188461,-7.743727,-7.242183,-2.662970
1004.488281,-9.535164,-7.151517,-11.226485,-10.304532
1004.492188,-9.694235,1.122546,-2.618184,-5.957124
1004.496094,-9.233604,5.519139,-0.669205,1.648097
1004.500000,0.029958,2.397499,-0.393546,2.175616
1004.503906,6.905665,3.587944,-0.512680,10.665634
1004.507812,3.795105,4.094422,5.125706,-1.839163
1004.511719,3.183259,8.325223,10.420242,11.326471
1004.515625,6.589937,5.771667,11.068753,12.398655
1004.519531,8.735689,7.801200,8.521286,13.901473
1004.523438,12.926475,7.945262,9.828367,1.713952
1004.527344,4.755321,9.849954,11.025073,15.811457
1004.531250,15.095518,13.751887,2.027874,13.786130
1004.535156,14.791305,1.725736,0.380139,6.879471
1004.539062,7.568350,16.012975,4.231224,10.415281
1004.542969,8.003316,3.282722,1.610662,2.840942
1004.546875,0.600675,7.189103,6.357711,4.204370
1004.550781,2.647651,0.790054,9.158344,0.372585
1004.554688,-7.318108,-12.041837,-4.082652,1.526179
1004.558594,-13.712686,-1.654679,-2.231518,-3.768024
1004.562500,-5.246238,-3.506002,-7.157210,-5.044492
1004.566406,-4.177411,-11.169832,-6.040843,-2.584615
1004.570312,-14.379681,-8.706559,-7.154562,-14.399953
1004.574219,-9.339283,-10.649924,-7.577865,-11.291846
1004.578125,-13.438508,-8.979333,-16.789702,-16.805863
1004.582031,-3.716318,-6.483547,-11.570304,-13.464975
1004.585938,-10.879971,-10.664443,-8.668466,-3.466347
1004.589844,-9.452114,-6.114783,-9.424012,-6.009071
1004.593750,-0.503163,-1.240276,-7.955988,-16.150733
1004.597656,-4.288079,0.901134,-1.626276,1.652280
1004.601562,0.533906,-3.241332,3.010755,15.351329
1004.605469,3.851739,-0.545714,1.651227,-0.374807
1004.609375,8.827716,12.529310,-3.613301,8.371988
1004.613281,14.336374,6.992053,10.604320,10.583543
1004.617188,5.603460,7.729307,10.398121,9.469738
1004.621094,4.672441,6.463891,13.093334,10.128666
1004.625000,6.885992,13.871643,0.970377,8.781702
1004.628906,14.910870,9.513812,12.803046,6.709042
1004.632812,12.556186,11.627624,12.891529,20.819263
1004.636719,10.316633,7.944650,1.138682,14.120476
1004.640625,4.256958,4.298758,4.141914,2.418385
1004.644531,12.466490,4.047722,-0.754176,3.456703
1004.648438,0.552257,0.403609,-5.273343,-2.975131
1004.652344,-6.225572,3.993398,-2.161946,-5.709458
1004.656250,1.107824,-7.913895,-8.578480,-2.738620
1004.660156,-5.985841,-1.577615,-10.523762,-9.235110
1004.664062,-4.787969,-10.517260,-13.632811,-11.229447
1004.667969,-3.936403,-5.993568,-10.341709,-12.196866
1004.671875,-6.005865,-10.262313,-3.474619,-12.213090
1004.675781,-4.761491,-12.324396,-8.030928,-9.307966
1004.679688,-11.493169,-2.807828,-3.918837,-5.848642
1004.683594,-12.317852,-1.547746,-13.625109,-1.054299
1004.687500,-7.069251,0.534785,-14.015959,-7.191085
1004.691406,-11.977664,-4.479877,-4.569380,-4.822220
1004.695312,-3.365138,-1.252789,2.235622,-9.472986
1004.699219,-6.921761,1.963309,-7.869485,-5.066647
1004.703125,5.641397,-4.157182,-7.414684,0.902700
1004.707031,4.013057,1.189744,6.437598,-2.783498
1004.710938,6.279134,5.214411,4.887397,9.321635
1004.714844,8.272163,5.609498,7.514490,5.914227
1004.718750,15.155200,6.362511,14.456450,7.314725
1004.722656,8.534005,7.304057,18.238076,5.613241
1004.726562,14.455259,13.214997,10.305075,6.915680
1004.730469,2.262812,7.810775,3.844756,5.026001
1004.734375,6.641688,-2.037625,9.209064,13.524317
1004.738281,7.370555,6.476385,5.358944,7.068405
1004.742188,0.355090,6.183675,1.779368,8.247909
1004.746094,0.921158,-3.346320,1.477690,-2.885240
1004.750000,-4.116833,-2.380507,-8.591518,-3.595276
1004.753906,1.095053,-8.805550,-2.247643,4.512742
1004.757812,-7.629965,-11.413463,0.944929,-7.514676
1004.761719,-8.715711,-6.714774,-13.987798,-7.020959
1004.765625,-7.523535,-7.393867,-8.913554,-15.128161
1004.769531,-9.357374,-9.113896,-4.345313,-5.568817
1004.773438,-8.465550,-5.377905,-11.528441,-17.828972
1004.777344,-14.363819,-9.162346,-12.287395,-15.305263
1004.781250,-10.816255,-12.609200,-6.066198,-12.373821
1004.785156,-4.876071,-7.121680,-9.843764,-9.893905
1004.789062,-0.703447,-4.377332,-6.963843,-2.804555
1004.792969,-9.616699,-5.903453,-9.905821,-4.551931
1004.796875,-4.100265,-3.952598,3.585459,-0.719904
1004.800781,2.036969,-0.624019,-0.285268,6.090071
1004.804688,-6.448338,6.273608,3.037858,6.580525
1004.808594,-1.659182,2.984168,12.110566,3.182585
1004.812500,2.025309,5.936959,9.161680,6.883480
1004.816406,10.917072,15.361729,7.470130,10.032307
1004.820312,13.898069,9.211489,8.417244,14.938672
1004.824219,7.924599,10.386969,9.929174,11.041836
1004.828125,15.646981,5.641728,9.167248,9.442615
1004.832031,4.143416,3.848197,10.361157,7.605813
1004.835938,13.739326,1.626920,6.910131,0.182985
1004.839844,6.257157,8.740573,6.625522,6.278159
1004.843750,6.308658,2.114734,6.152224,1.508635
1004.847656,2.527210,11.352561,3.576408,-0.654746
1004.851562,1.335787,-7.011801,1.328151,0.370376
1004.855469,-2.690934,-10.209802,0.498243,-3.950678
1004.859375,-5.022125,-6.771554,3.339191,-9.083942
1004.863281,-8.240754,-9.828052,-7.110744,-11.026286
1004.867188,-10.888440,-5.741169,-7.496425,-9.451215
1004.871094,-13.952198,-11.868053,-6.858679,-9.171030
1004.875000,-19.853963,-10.694958,-14.638070,-6.416219
1004.878906,-12.992277,-4.489601,-16.576330,-11.218459
1004.882812,-8.206457,-7.725703,-8.705836,-8.335064
1004.886719,-4.105533,-4.162057,-10.030464,-4.661963
1004.890625,-4.830077,1.848398,-3.622801,-3.774412
1004.894531,-4.086952,-2.991368,-3.771670,-4.559295
1004.898438,-2.500789,-10.094666,-6.475412,-2.243476
1004.902344,2.067890,2.047961,-4.614974,2.442231
1004.906250,8.522158,0.965451,2.655505,2.427942
1004.910156,5.857660,5.016769,7.235391,1.550906
1004.914062,6.880069,9.505531,8.226807,12.587573
1004.917969,8.361640,3.330097,9.141884,6.676440
1004.921875,13.123538,14.469872,10.346957,-0.284008
1004.925781,9.461111,11.879909,11.469837,5.925892
1004.929688,12.760512,9.767392,8.171280,10.913163
1004.933594,10.133529,5.622296,10.925052,11.460655
1004.937500,13.253591,1.942829,9.654128,4.298708
1004.941406,6.904892,2.625736,0.429056,10.627236
1004.945312,12.717663,4.828117,3.533035,0.163383
1004.949219,-0.441300,4.109965,5.017536,4.148033
1004.953125,-3.788477,3.420084,5.838302,-5.586295
1004.957031,-8.297951,-0.923450,-18.201525,-0.678752
1004.960938,-10.494716,-13.325981,-5.990877,-12.179630
1004.964844,-10.001824,-2.384520,-10.165745,-10.529727
1004.968750,-9.229052,-1.440861,-10.158930,-12.516501
1004.972656,-3.827402,-7.960503,-14.973966,-11.233979
1004.976562,-4.637446,-5.565558,-10.405063,-11.632564
1004.980469,-6.892979,-12.273293,-3.056155,-12.489128
1004.984375,-7.731629,-4.775859,-7.984449,-5.325777
1004.988281,-10.160406,-12.644777,-2.915048,0.062376
1004.992188,1.181112,-9.523473,-11.852582,1.027868
1004.996094,-6.978796,-5.335542,-5.783187,-2.793801
1005.000000,-1.084199,-2.539061,-2.482386,-6.824814
1005.003906,-2.713148,2.236568,2.034021,-4.931315
1005.007812,5.496747,11.497265,7.378196,8.765003
1005.011719,5.789188,3.182102,2.814465,6.488035
1005.015625,2.690666,4.091427,7.494370,10.717817
1005.019531,11.026188,2.807387,1.823317,5.801710
1005.023438,8.055557,6.498998,10.584280,18.195216
1005.027344,12.601365,12.638629,13.547818,13.088414
1005.031250,2.111205,9.040222,7.904052,3.059818
1005.035156,9.062433,4.249320,6.548188,9.110743
1005.039062,7.982736,6.909998,4.862860,1.106300
1005.042969,-1.614964,-3.883053,-1.337447,4.315713
1005.046875,2.379590,-2.805239,-0.041286,0.211083
1005.050781,-1.268393,9.507973,-12.348514,-3.368204
1005.054688,-4.696920,1.963785,-3.983790,-4.858108
1005.058594,-5.829842,1.796461,-3.742379,-7.593722
1005.062500,-9.039636,-13.503348,-8.807103,-3.026964
1005.066406,-9.691453,-9.119930,-5.743948,-5.368994
1005.070312,-9.080914,-10.946846,-4.772878,-14.564528
1005.074219,-10.533750,-5.055702,-8.261753,-16.366791
1005.078125,-5.454731,-17.782608,-15.548850,-13.455670
1005.082031,-9.219399,-15.814967,-5.923599,-5.080585
1005.085938,-19.112296,-11.770348,-9.914343,-9.775944
1005.089844,-10.398034,-2.131562,-1.740418,-4.927066
1005.093750,-6.507234,-4.350096,-5.460989,-4.487744
1005.097656,-3.918556,-4.713623,0.274854,0.026051
1005.101562,2.466445,-7.389526,-0.075325,-3.543796
1005.105469,8.192476,6.694644,-4.070711,2.907581
1005.109375,7.016966,2.510234,3.982254,8.276358
1005.113281,7.406764,4.804587,9.217700,4.801655
1005.117188,4.328663,6.072172,9.791493,7.422884
1005.121094,9.626065,8.521778,11.123116,6.037253
1005.125000,15.164705,8.508779,13.106449,11.369196
1005.128906,13.985878,14.294850,11.272690,5.376190
1005.132812,12.338013,8.730688,7.737513,6.859833
1005.136719,11.798613,9.158219,9.738025,4.049376
1005.140625,10.383841,11.050362,3.772120,11.821847
1005.144531,2.219882,8.167034,4.866948,6.702101
1005.148438,0.094142,4.068552,-4.428408,6.553872
1005.152344,-8.172604,3.718162,-5.435211,-3.801526
1005.156250,-7.458038,-0.886775,2.726070,-11.956811
1005.160156,-3.211784,-7.761522,0.636464,-11.068687
1005.164062,-11.615475,-9.284756,-9.608834,-8.109865
1005.167969,-15.276405,-13.914796,-2.653589,-9.966755
1005.171875,-8.769683,-9.843756,-11.585865,-5.476036
1005.175781,-11.752382,-11.135698,-7.937707,-11.332529
1005.179688,-4.131890,-5.603681,-5.581470,-11.950834
1005.183594,-12.085167,-12.348895,-13.617671,-7.517864
1005.187500,-10.480578,-2.360852,3.093442,-11.400985
1005.191406,-2.609063,-11.812797,-7.829259,-3.840195
1005.195312,-0.420240,-4.868300,-4.998760,-3.381615
1005.199219,6.590603,5.044706,3.485339,0.820000
1005.203125,-0.982275,4.509357,1.725581,-0.642029
1005.207031,11.367467,3.252171,5.179443,5.061288
1005.210938,1.944344,2.391090,1.427909,-1.022459
1005.214844,9.539993,12.584077,4.138017,2.966231
1005.218750,15.861767,12.416053,12.825253,2.936765
1005.222656,8.380196,6.753594,17.015418,11.232178
1005.226562,11.715434,8.975660,10.469545,9.205201
1005.230469,12.341884,13.766866,8.199182,11.761254
1005.234375,9.401086,8.267554,10.161399,8.615742
1005.238281,14.917089,14.881513,7.692835,9.181107
1005.242188,7.677999,3.373005,7.393152,11.041732
1005.246094,2.429100,4.752224,-0.489415,1.820698
1005.250000,-0.908420,5.105490,0.234533,6.033998
1005.253906,-0.676117,-5.619053,-4.076785,-9.206167
1005.257812,-3.050511,-2.685065,-11.366873,-4.970159
1005.261719,-4.549925,-11.258953,-13.685585,-6.528124
1005.265625,-16.536257,-11.384319,-16.214588,-1.052176
1005.269531,-4.450685,-3.042311,-3.417073,-6.329357
1005.273438,-6.443039,-11.628592,-8.089930,-11.718376
1005.277344,-9.843475,-9.517628,-9.369848,-11.974923
1005.281250,-1.863186,-8.608369,-6.983635,-16.079651
1005.285156,-15.010505,-19.686644,-4.163407,-8.683882
1005.289062,-9.419907,-10.046062,-14.830382,-8.767674
1005.292969,-5.042783,2.449519,-2.404814,-4.946380
1005.296875,-1.009181,-0.329537,-0.280903,0.392667
1005.300781,1.486831,-3.771370,1.235329,-1.047397
1005.304688,4.145448,-1.843589,3.426406,-1.060846
1005.308594,6.640679,9.253297,4.352000,0.720384
1005.312500,9.042218,6.536047,8.074802,4.498574
1005.316406,7.910231,5.929823,9.796979,6.343407
1005.320312,10.126416,10.636030,16.342748,8.110581
1005.324219,16.111034,6.531905,7.694159,6.312434
1005.328125,4.601702,5.270248,13.717678,15.807098
1005.332031,8.346952,8.397596,3.491577,5.082142
1005.335938,11.864016,6.763085,11.120440,7.168319
1005.339844,7.581451,4.400827,2.611207,15.308603
1005.343750,4.465560,7.926799,4.300982,-1.311522
1005.347656,-4.217226,2.049693,2.935505,3.574257
1005.351562,-6.502485,-15.323815,0.806580,2.761952
1005.355469,3.378427,0.260182,-1.858007,-4.551252
1005.359375,-6.956632,-2.491728,-10.867034,-4.991489
1005.363281,-6.977662,-4.224472,-10.002964,-9.766137
1005.367188,-8.302123,-7.267426,-0.323742,-9.772172
1005.371094,-7.318559,-7.985062,-12.722884,-9.321332
1005.375000,-11.622662,-6.429696,-12.232478,-5.168345
1005.378906,-8.978042,-11.959189,-18.670926,-4.779013
1005.382812,-9.179497,-13.396214,-7.391632,-4.254346
1005.386719,-10.337391,-11.898178,-5.566614,-6.584743
1005.390625,-7.061560,-7.523819,-3.457506,-0.126938
1005.394531,-2.951064,-3.692035,-8.856169,-5.396841
1005.398438,-1.295277,-6.946913,-7.057186,1.103000
1005.402344,1.846360,-3.467638,9.208716,-0.564069
1005.406250,11.542774,7.292528,3.201168,5.024278
1005.410156,7.808669,9.470573,0.493484,3.481952
1005.414062,10.413094,10.475541,3.748751,1.976746
1005.417969,15.493718,12.437934,5.010280,7.530707
1005.421875,6.887707,13.435344,9.852761,12.777308
1005.425781,10.114763,15.086625,4.236331,7.525414
1005.429688,12.107583,10.652791,4.828345,7.264939
1005.433594,9.047177,6.882186,6.285710,8.037787
1005.437500,6.022659,11.404060,-2.201275,9.950681
1005.441406,7.151465,3.760066,8.812026,2.555621
1005.445312,4.925210,-3.819421,5.804714,4.157738
1005.449219,-6.043062,5.203964,6.747106,6.152543
1005.453125,-6.063278,-0.064429,0.667606,2.383931
1005.457031,0.462148,0.313860,-3.369691,-2.868720
1005.460938,4.102639,-9.585991,0.481829,-11.310678
1005.464844,-6.704895,-12.408726,-1.243442,-10.815839
1005.468750,-8.699971,-3.712328,-14.628339,-11.707303
1005.472656,-10.303179,-7.228288,-12.314290,-12.588650
1005.476562,-16.526555,-7.936090,-12.010433,-16.727920
1005.480469,-11.178087,-4.844508,-3.678886,-1.556406
1005.484375,-7.922038,-7.954754,-5.735372,-6.524885
1005.488281,-3.449763,-15.034095,-4.776456,-8.832972
1005.492188,0.279743,-1.441697,-2.900812,-8.646565
1005.496094,-2.038412,0.912858,0.053569,2.057866
1005.500000,-2.120792,2.590657,-4.208644,-0.248505
1005.503906,2.532996,-1.617717,7.923747,2.998287
1005.507812,5.734555,12.668960,0.348710,7.211728
1005.511719,11.382478,6.891701,4.560596,7.017867
1005.515625,5.584926,7.716701,3.675650,11.333181
1005.519531,12.781342,7.811348,10.847847,5.140301
1005.523438,2.670100,8.531730,14.601643,6.606328
1005.527344,9.303130,-0.504768,9.145041,13.343117
1005.531250,5.120383,3.878064,13.701977,10.291067
1005.535156,8.594487,10.038405,9.192107,10.056183
1005.539062,3.275408,10.532715,5.295367,4.800331
1005.542969,6.045165,-2.714128,3.863493,6.373508
1005.546875,5.297055,8.415634,6.969121,7.545516
1005.550781,0.244686,-4.216129,-1.970013,-1.563848
1005.554688,-4.011365,-6.284862,-4.633420,-0.053639
1005.558594,-11.941638,-7.545633,-7.951106,-6.862121
1005.562500,-8.051125,-7.293881,-2.295854,-11.733504
1005.566406,-6.348600,-4.713612,-7.677913,-11.141157
1005.570312,-9.025581,-1.733438,-6.212425,-12.925499
1005.574219,-3.366526,-14.011774,-11.219827,-2.960527
1005.578125,-12.085056,-11.015511,-12.804857,-9.219153
1005.582031,-6.338762,-3.177926,-9.885892,-7.967430
1005.585938,-14.698628,-11.408272,-8.709429,-17.514069
1005.589844,-8.174318,-1.038740,-1.709646,-8.216196
1005.593750,-0.431008,-10.967090,1.861362,4.368609
1005.597656,-3.267826,1.858361,1.687930,-2.429240
1005.601562,-0.733054,-3.497397,6.680909,7.821214
1005.605469,6.545923,2.442837,6.439573,4.244874
1005.609375,7.946959,7.379296,10.113588,0.795894
1005.613281,9.376286,10.953963,11.771895,8.800644
1005.617188,7.114805,15.259646,5.608132,7.768320
1005.621094,15.569425,13.832536,10.306113,10.325536
1005.625000,10.767692,8.006855,10.321272,10.834286
1005.628906,12.039808,7.732861,10.388673,6.963743
1005.632812,8.322404,10.287958,11.875824,14.898095
1005.636719,5.804147,1.806539,9.537605,8.076575
1005.640625,3.166040,9.533526,7.187987,6.055491
1005.644531,1.456933,2.131475,3.664569,6.853301
1005.648438,-3.009069,0.115145,2.777650,-3.922556
1005.652344,-2.487175,5.830151,0.175307,0.124310
1005.656250,-0.989229,-0.175496,-10.807877,-5.509026
1005.660156,-4.064008,-7.474833,-8.554840,-15.305140
1005.664062,-7.865503,-8.868170,-7.974476,-4.648494
1005.667969,-6.746667,-5.106052,-15.588432,-6.419442
1005.671875,-7.387055,-10.645552,-11.881711,-5.881605
1005.675781,-1.806293,-9.322838,-7.858765,-6.782164
1005.679688,-11.676105,-7.425470,-0.510289,-9.672395
1005.683594,-5.312867,-10.809063,-7.407402,-9.138757
1005.687500,-6.139022,-5.555232,-10.896769,-9.600214
1005.691406,-4.643428,-8.327584,-6.370647,-9.526780
1005.695312,-9.956598,-1.301980,-3.989922,-3.612266
1005.699219,-6.560656,5.457385,0.728264,-1.868805
1005.703125,1.997481,4.771004,-1.090596,2.060344
1005.707031,10.985536,7.493549,1.199541,8.455279
1005.710938,3.721639,8.039495,8.713328,3.958240
1005.714844,8.557734,8.922515,6.063099,4.382293
1005.718750,13.725541,11.778890,6.372954,2.629458
1005.722656,5.663628,1.171394,12.954765,13.627337
1005.726562,3.940313,6.697195,12.280207,12.085763
1005.730469,7.567963,7.132422,5.199402,16.929005
1005.734375,3.158408,11.885954,7.117432,4.700701
1005.738281,6.762637,3.571194,7.198835,1.590341
1005.742188,5.851530,10.784403,-6.869902,-0.575729
1005.746094,7.108031,-1.548423,-7.631350,0.846128
1005.750000,-7.224996,-2.267626,6.026134,3.872073
1005.753906,-0.930955,-6.073689,-5.172795,-3.763771
1005.757812,-1.212508,0.601422,-3.188316,1.001010
1005.761719,-3.957706,-4.821752,-7.841209,-7.254251
1005.765625,-9.164377,-8.520103,-7.494047,-3.430147
1005.769531,-4.636414,-2.465647,-11.366868,-12.396219
1005.773438,-12.715637,-12.279116,-9.475780,-12.900075
1005.777344,-13.656636,-10.383001,-14.296079,-3.288427
1005.781250,-14.979423,-11.356507,-9.345369,-9.320201
1005.785156,-14.076737,-3.168297,-9.467100,-4.438560
1005.789062,-0.503443,-5.888037,-9.931497,-8.110441
1005.792969,-1.485851,-5.876448,-8.111134,-5.764070
1005.796875,-1.377250,0.080396,-1.177519,1.930651
1005.800781,0.685112,2.741627,-1.581850,2.066941
1005.804688,4.706776,2.643753,-1.323565,2.139936
1005.808594,1.388435,3.844899,6.024075,3.226866
1005.812500,13.695520,7.002772,6.685493,12.140706
1005.816406,4.873492,6.876837,12.535231,6.072498
1005.820312,6.835672,5.684637,6.241809,3.715830
1005.824219,11.943018,5.956743,15.334213,10.171417
1005.828125,7.351583,12.488636,6.763698,14.958484
1005.832031,10.384477,8.450714,7.524536,0.964458
1005.835938,11.308135,10.135392,6.587068,9.796899
1005.839844,1.442067,5.758527,10.112649,5.631700
1005.843750,9.036146,-2.784491,12.200501,0.123184
1005.847656,-3.297917,-1.189108,-7.795199,2.612712
1005.851562,-5.548884,-2.987996,2.117875,-0.965873
1005.855469,-1.735584,-2.418213,-4.188493,-2.732218
1005.859375,-3.711514,-9.830804,-1.040102,-5.272560
1005.863281,-7.528968,-5.085580,-6.078179,-3.363229
1005.867188,-10.661412,-14.060066,-7.469543,-10.853044
1005.871094,1.363244,-13.124844,-12.736992,-15.068879
1005.875000,-8.979715,-7.442837,-15.497097,-2.892942
1005.878906,-3.783934,-9.931906,-3.303895,-3.495845
1005.882812,-1.846963,-3.251961,-16.365589,-4.409013
1005.886719,-1.443389,-7.831069,-3.517599,-8.367611
1005.890625,-8.382397,-5.065020,-4.936749,-2.087130
1005.894531,-10.814161,-6.960413,0.979508,-2.461983
1005.898438,3.416609,-4.079223,-1.085114,1.497758
1005.902344,2.714570,3.635680,2.309418,0.984248
1005.906250,11.168578,1.066009,3.574704,9.372266
1005.910156,5.837282,4.543003,1.780975,5.772348
1005.914062,8.274300,7.512651,2.580681,9.324065
1005.917969,8.908335,11.971098,11.286241,7.200754
1005.921875,4.039300,2.565380,15.645611,12.790203
1005.925781,3.894559,6.975816,5.904014,12.667319
1005.929688,9.393005,11.304195,2.624847,9.260290
1005.933594,12.309733,13.113079,12.935245,6.521305
1005.937500,9.930493,9.073474,12.674317,10.997375
1005.941406,6.301648,2.424965,0.719875,4.615830
1005.945312,-2.224390,6.668445,2.405428,-0.815610
1005.949219,-5.894168,-1.618218,3.770454,7.214059
1005.953125,-3.052843,-7.902195,-8.964496,-2.350644
1005.957031,-6.964898,-0.311642,-1.849696,-1.989241
1005.960938,-8.445280,-0.486434,-8.117887,-11.155904
1005.964844,-2.314031,-14.891245,-8.342330,-10.274409
1005.968750,-3.909751,-3.724218,-12.944539,-11.800552
1005.972656,-10.232773,-5.732022,-10.343260,-7.385518
1005.976562,-10.904877,-3.572425,-16.099626,-6.312376
1005.980469,-5.306260,-10.577691,-6.181351,-9.888026
1005.984375,-13.195548,-5.345418,-10.036578,-3.656859
1005.988281,-5.165070,-6.516416,-6.331008,-8.086648
1005.992188,-8.420745,-2.068119,-1.183787,-8.849430
1005.996094,1.528833,2.498455,-6.455297,-3.051876
1006.000000,-0.056917,-2.756400,2.180889,1.821688
1006.003906,1.290229,4.621510,6.637512,-0.340067
1006.007812,-1.282470,9.166628,3.442475,0.765686
1006.011719,12.785198,7.497814,13.168476,9.585867
1006.015625,11.005190,11.943303,6.884980,11.974821
1006.019531,14.238922,8.219214,10.054296,10.219511
1006.023438,9.300093,12.512846,9.406602,12.222397
1006.027344,8.221564,11.127796,12.299545,16.487957
1006.031250,10.123295,12.170374,8.395634,6.388732
1006.035156,8.559113,8.093454,6.036299,10.751983
1006.039062,7.030653,2.709567,1.270559,8.954277
1006.042969,-0.257120,-0.892352,6.538786,-5.740832
1006.046875,2.243845,-3.409025,4.864931,-1.289655
1006.050781,2.525911,-4.305855,0.497542,-1.149843
1006.054688,-0.865677,-8.956904,-3.662228,-12.193102
1006.058594,-1.276528,-6.359068,-8.776729,1.424791
1006.062500,-1.532350,-0.828855,-4.288081,-4.436227
1006.066406,-11.342574,-19.136744,-11.891772,-13.350772
1006.070312,-11.024380,-9.465764,-5.149659,-5.971589
1006.074219,-14.982339,-8.317562,-11.486047,-11.529082
1006.078125,-6.456795,-13.782120,-13.454355,-13.556553
1006.082031,-12.174846,-5.415658,-13.953655,-11.170368
1006.085938,-14.540501,-7.609327,-11.135786,-10.902773
1006.089844,-0.480983,-8.857567,-2.925565,-4.603339
1006.093750,-0.271044,-0.719408,-2.681349,0.186081
1006.097656,-3.194574,6.857842,1.618064,-6.853244
1006.101562,-3.278049,2.338182,-6.212272,-5.009270
1006.105469,-2.581677,4.517606,-5.321638,8.026685
1006.109375,-0.792971,2.344384,4.063227,0.695300
1006.113281,10.149748,5.681463,13.906742,0.159826
1006.117188,9.654986,7.020949,3.875243,3.960999
1006.121094,17.490830,6.884315,17.526042,4.905395
1006.125000,12.372244,11.822097,15.720228,5.565378
1006.128906,11.326650,6.133937,10.364846,11.319573
1006.132812,8.497089,7.719491,15.130814,3.359337
1006.136719,5.878046,4.299847,10.317927,4.656414
1006.140625,-0.447134,1.909977,6.339478,3.356902
1006.144531,6.836339,6.284304,3.116226,4.499910
1006.148438,1.804172,-2.220508,3.877264,6.040456
1006.152344,0.389240,4.308718,-4.114295,-5.911502
1006.156250,6.410679,-7.179573,-15.557537,-4.244237
1006.160156,1.069883,-4.702257,-0.536339,-3.656909
1006.164062,-2.007598,-7.711467,-7.259108,-9.876158
1006.167969,-15.048356,-10.240878,-9.932898,-9.727560
1006.171875,-0.334140,-10.079018,-19.524147,-6.859696
1006.175781,-7.038441,1.098083,-14.171553,-15.043591
1006.179688,-2.530474,-9.498223,-12.726997,-11.384612
1006.183594,-5.999429,-13.256864,-7.457461,-9.739161
1006.187500,-15.026698,-5.124559,-2.936369,-7.075802
1006.191406,-4.070893,-10.554194,-6.473022,-8.413649
1006.195312,5.522435,-1.093371,-9.185827,-3.362445
1006.199219,-2.992958,0.960989,-6.674792,-4.824674
1006.203125,1.282667,1.884626,7.219697,2.542072
1006.207031,5.274625,-2.255473,-0.798929,3.792278
1006.210938,3.576092,2.257001,8.720847,6.393274
1006.214844,12.614940,7.707747,7.736501,8.900332
1006.218750,7.268351,13.739310,7.854548,16.900774
1006.222656,5.924345,10.617207,12.078949,9.872728
1006.226562,11.276617,13.532624,13.706072,16.092417
1006.230469,16.281914,11.591245,9.536797,8.968995
1006.234375,4.097092,3.620949,9.294907,11.371892
1006.238281,6.900991,13.147777,5.935847,2.901766
1006.242188,1.065612,5.456957,14.141144,16.185167
1006.246094,6.630599,4.342805,2.116770,2.155670
1006.250000,3.552081,-4.132683,-6.415241,4.135989
1006.253906,-4.417293,-2.859774,-10.930751,-8.148987
1006.257812,-11.363447,-5.583230,-5.511442,-3.318679
1006.261719,-8.666850,-5.437683,-6.609938,-12.596056
1006.265625,-9.127466,-11.244034,-8.781904,-11.598087
1006.269531,-8.492987,-6.910141,-4.543339,-6.302946
1006.273438,-15.036685,-16.687036,-10.938520,-10.024542
1006.277344,-11.150775,-13.300423,-5.153615,-12.148373
1006.281250,-12.321618,-12.982355,-11.059366,-6.751948
1006.285156,-8.368634,-10.188208,-6.197770,-5.423664
1006.289062,-0.531762,-3.690504,-4.870778,-5.784304
1006.292969,-1.998896,-4.112474,-3.481869,-2.255533
1006.296875,0.444474,-1.940464,0.594263,1.089536
1006.300781,-5.409588,0.473828,-0.783315,0.347832
1006.304688,1.829446,6.547657,-1.932929,-2.744780
1006.308594,10.801207,2.938760,1.246585,5.060419
1006.312500,9.163413,3.470923,5.279221,12.290434
1006.316406,6.290261,13.501464,12.220585,7.064569
1006.320312,17.588829,13.254358,7.844138,12.474310
1006.324219,9.593821,15.916911,11.229388,14.091144
1006.328125,18.353335,15.521472,11.104939,6.543524
1006.332031,6.690504,7.226322,9.550627,9.771166
1006.335938,6.905502,8.975674,2.013965,13.002584
1006.339844,5.744379,5.750674,4.928516,1.931783
1006.343750,0.769943,1.897417,2.974596,2.615679
1006.347656,-3.022770,1.999989,6.085840,1.053592
1006.351562,0.998754,-0.790244,-6.050810,-0.870902
1006.355469,-3.071886,-7.683890,-2.361101,-0.178518
1006.359375,-14.037434,-12.413318,-4.220865,-4.876382
1006.363281,-6.098457,1.820710,-5.055969,-15.282828
1006.367188,-0.156379,-8.766657,-5.320094,-5.918780
1006.371094,-11.553637,0.093610,-8.751633,-12.303107
1006.375000,-9.295023,-3.154345,-6.311022,-10.799670
1006.378906,-4.377188,-5.919020,-7.927463,-9.333814
1006.382812,-8.520881,-6.441740,-9.116553,-14.879556
1006.386719,-15.961242,-7.817036,-7.359768,-8.265518
1006.390625,-6.937529,-5.365617,-10.393587,-14.318150
1006.394531,-3.683633,-2.142585,-1.165340,0.378806
1006.398438,2.884450,-3.682502,0.537588,-5.459041
1006.402344,9.072750,-2.881094,8.016813,3.972116
1006.406250,5.870338,5.745715,8.533534,-1.332166
1006.410156,8.573928,8.895382,10.385781,7.619402
1006.414062,1.192685,1.826522,6.774391,6.092977
1006.417969,7.089299,9.451526,10.035806,8.538931
1006.421875,19.706798,9.092989,7.690376,17.776618
1006.425781,6.674052,10.606975,11.075004,6.114967
1006.429688,7.130052,14.566840,12.643410,12.822413
1006.433594,7.683240,4.106766,9.362674,-2.437085
1006.437500,11.245320,6.479409,7.686004,11.862470
1006.441406,8.783733,7.337083,-1.465428,8.953588
1006.445312,2.949497,3.350337,-1.306078,3.589282
1006.449219,-2.393078,-3.528943,-1.827590,-3.430627
1006.453125,-11.369917,-4.085257,-2.557882,-6.477240
1006.457031,-7.244636,-2.725111,-3.609211,-1.494102
1006.460938,-6.548764,-8.202328,-5.961735,-3.804875
1006.464844,-3.887236,-6.014867,-3.744636,-7.282598
1006.468750,-9.839882,-13.715094,-5.661371,-11.423667
1006.472656,-9.191553,-4.386806,-7.696176,-8.259481
1006.476562,-9.124173,-17.042425,-7.664586,-8.561487
1006.480469,-0.274454,-3.070486,-12.186491,-12.835413
1006.484375,-3.647192,-4.840780,-13.166663,-15.487239
1006.488281,-11.912984,-6.211848,-7.251232,-10.612128
1006.492188,-8.383623,-3.479433,-13.530357,-9.807022
1006.496094,-5.265521,-4.243641,-2.714202,-6.575010
1006.500000,-6.737850,1.962404,-2.932046,-2.452248
1006.503906,11.948310,0.591778,-2.241670,-0.762123
1006.507812,1.583242,1.232011,2.946787,3.608572
1006.511719,0.438193,3.278708,3.593577,1.394419
1006.515625,13.072592,9.212206,9.598316,10.337746
1006.519531,5.255874,9.653575,10.891761,4.801611
1006.523438,14.783783,13.664009,11.410815,9.347178
1006.527344,10.050766,6.371622,8.640089,4.969780
1006.531250,9.608050,12.135481,10.412722,7.496011
1006.535156,9.634800,4.969243,11.210627,7.302989
1006.539062,0.401582,9.761770,10.232719,2.862411
1006.542969,4.306149,3.468369,4.184014,3.111516
1006.546875,4.986893,4.749885,-3.559533,0.450560
1006.550781,-0.578140,12.086850,4.882006,-2.033009
1006.554688,-0.768973,-8.085322,-7.655775,4.639601
1006.558594,-3.375672,-5.914564,3.366998,-10.466076
1006.562500,-8.086152,-8.616580,-14.992956,-6.527498
1006.566406,-14.901878,-16.724009,-13.587255,-2.487185
1006.570312,-8.533547,-7.392250,-8.737549,-9.805498
1006.574219,-2.137354,-9.126091,-13.892215,-15.362673
1006.578125,-3.645667,-1.927901,-7.948096,-6.827259
1006.582031,-5.336715,-7.215375,-8.271180,-7.778751
1006.585938,-2.301754,-7.015023,-13.584287,-4.346006
1006.589844,-2.861291,-11.082485,-6.896136,-3.655558
1006.593750,-0.534333,-6.369979,-4.152876,0.027593
1006.597656,0.590247,-4.310954,1.877380,9.848187
1006.601562,7.769793,2.660276,1.818321,-8.532199
1006.605469,5.327048,-2.219281,4.394823,1.419828
1006.609375,7.719725,13.049666,2.776740,9.194747
1006.613281,0.759632,8.541045,3.766985,7.876349
1006.617188,12.683084,8.562888,6.230705,6.946402
1006.621094,11.219878,10.992217,19.887347,12.840188
1006.625000,1.694389,6.959004,6.672475,14.644371
1006.628906,11.036911,2.756871,16.208422,8.467881
1006.632812,4.272683,9.483146,-2.516368,6.479239
1006.636719,15.209483,7.277433,6.284412,9.467447
1006.640625,4.645270,0.889712,-4.668404,7.808189
1006.644531,-6.264960,0.216662,4.038643,-0.760397
1006.648438,5.107928,3.592512,-3.201102,5.841477
1006.652344,-2.808371,-7.195726,0.564408,1.990017
1006.656250,-9.195976,-0.501842,-6.759812,-6.077999
1006.660156,-0.195352,1.205123,-4.439928,-5.533969
1006.664062,-11.822350,-3.403144,-15.592052,-0.581122
1006.667969,-16.866625,-6.462684,-6.421355,-7.039420
1006.671875,-10.442532,-6.149465,-12.161196,-5.086500
1006.675781,-9.092396,-13.484206,-8.602006,-14.044055
1006.679688,-8.621237,-7.627843,-8.760786,-16.369944
1006.683594,-6.784571,-9.666905,0.988748,-7.153364
1006.687500,-7.177114,-9.338279,-9.919574,-12.271931
1006.691406,-2.784493,-2.726032,2.888514,-6.772012
1006.695312,-0.232064,-7.517527,2.706411,-7.366122
1006.699219,2.175840,-0.241931,0.040027,0.389766
1006.703125,6.428462,6.762168,-0.678994,1.708229
1006.707031,12.077350,7.252414,-1.533391,3.706185
1006.710938,-1.372892,11.925234,5.945756,2.246618
1006.714844,9.103730,6.905164,7.154678,6.442040
1006.718750,9.495148,-1.084696,10.784401,7.124928
1006.722656,5.790206,10.258254,20.343894,13.384354
1006.726562,10.704017,11.958069,13.864808,0.259000
1006.730469,11.189313,16.043416,9.656534,4.494794
1006.734375,9.966104,8.929256,5.410749,5.727058
1006.738281,5.137722,1.880913,6.427255,10.206085
1006.742188,3.215807,-0.063233,5.794311,7.154816
1006.746094,0.652578,4.175698,3.648154,1.318959
1006.750000,6.304998,5.755210,-0.654189,-7.523017
1006.753906,1.663277,-4.233329,-6.645871,-2.201359
1006.757812,-1.260714,-10.027406,-2.623745,-5.000530
1006.761719,-7.846358,-9.107116,-10.338514,-6.318686
1006.765625,-9.123510,-13.770182,-8.026811,-9.848644
1006.769531,-10.986561,-9.891950,-15.322772,-16.896694
1006.773438,-14.281108,-5.556300,-7.008487,-1.138250
1006.777344,-13.665374,-12.127007,-14.452037,-12.302952
1006.781250,-10.241954,-6.684264,-12.472973,-0.628179
1006.785156,-4.658466,-8.297032,-10.812053,-8.752697
1006.789062,-9.404819,-2.539064,-4.222364,-9.443559
1006.792969,-10.120504,-2.957102,-4.320397,0.550938
1006.796875,-3.708834,-1.176873,-0.679679,0.585298
1006.800781,0.522775,-8.379570,-1.060532,-9.059454
1006.804688,2.053909,0.964639,5.938602,-1.887035
1006.808594,2.847786,13.354456,2.663501,1.813924
1006.812500,7.142350,11.730770,10.300709,8.760024
1006.816406,12.054051,1.920494,12.662066,7.957093
1006.820312,12.038246,8.977183,13.771376,8.430485
1006.824219,11.776750,11.521332,4.063803,14.609750
1006.828125,9.907114,13.923592,9.267710,13.606003
1006.832031,13.311824,14.920849,12.536310,9.650641
1006.835938,5.659824,9.942348,8.545720,8.978867
1006.839844,7.804187,6.108281,1.919295,3.601181
1006.843750,-7.844764,0.654341,4.746695,3.956927
1006.847656,1.370131,1.850458,-2.263337,1.140543
1006.851562,-1.784526,0.147342,1.775883,-5.390353
1006.855469,-11.393319,-3.360592,3.538021,1.065542
1006.859375,-4.921326,-8.286462,-6.509505,-7.255228
1006.863281,-5.200239,-3.758286,-7.910257,-9.232776
1006.867188,-12.793672,-15.670209,-15.620368,-13.567260
1006.871094,-14.198589,-7.044178,-8.377590,-3.626184
1006.875000,-11.695072,-11.113297,-6.408737,-11.669246
1006.878906,-6.642061,-10.218362,-5.784809,-4.612824
1006.882812,-5.906339,-9.763122,-17.157651,-8.968628
1006.886719,-7.157501,-9.961142,-2.529195,-9.502375
1006.890625,-10.332876,-4.296187,3.559916,-8.578117
1006.894531,4.415288,-8.027794,-2.239498,-2.843524
1006.898438,-2.482127,-6.612084,3.310766,4.389892
1006.902344,-2.940806,8.006800,-4.140538,1.821162
1006.906250,-1.333561,-1.783291,2.790671,10.627338
1006.910156,4.417391,6.181427,-4.006082,5.196331
1006.914062,9.845781,6.970992,4.567745,8.839841
1006.917969,12.562022,17.222411,10.139515,15.755982
1006.921875,11.191604,8.604312,9.554517,12.351023
1006.925781,13.817067,8.774808,11.413300,16.592274
1006.929688,8.573779,11.290997,8.422724,13.706891
1006.933594,8.352045,5.129119,3.232919,8.629475
1006.937500,12.636875,4.879946,1.659393,5.328621
1006.941406,2.413819,7.361848,3.629179,5.767164
1006.945312,9.100756,7.593353,1.973786,10.958358
1006.949219,-3.068937,2.633620,4.255353,2.522752
1006.953125,3.293745,-3.083498,-6.186001,-1.919576
1006.957031,-6.456737,-12.849075,0.430630,-3.328344
1006.960938,-5.896113,-8.487654,-9.366972,-5.578137
1006.964844,-13.654458,-8.713093,-10.729208,-7.658766
1006.968750,-17.671269,-15.176864,-9.621318,-10.523641
1006.972656,-5.488567,-12.341472,-10.825717,-5.924787
1006.976562,-13.542393,-16.969959,-12.123330,-10.671325
1006.980469,-12.309568,-13.787067,-8.553303,-8.677297
1006.984375,-10.703563,-6.112767,-8.206589,-22.052420
1006.988281,-10.287100,-7.227223,-4.539120,-12.367004
1006.992188,-5.777965,-4.765776,-1.599440,-4.589855
1006.996094,-6.331212,-1.173261,-2.266952,-7.336729
1007.000000,11.313836,-6.413090,1.409176,-1.110079
1007.003906,-2.760790,10.027091,4.540091,1.036558
1007.007812,13.830506,10.353716,4.627412,2.273529
1007.011719,4.888462,3.950912,7.898705,3.897308
1007.015625,20.428316,12.185778,6.475947,13.896485
1007.019531,13.289325,12.124183,11.861617,5.177005
1007.023438,2.720551,7.918789,-1.268012,11.736533
1007.027344,9.343597,4.863268,16.457820,8.231961
1007.031250,6.890000,12.922536,10.852551,3.415807
1007.035156,3.792900,11.223765,11.558543,8.522785
1007.039062,10.408551,4.606049,7.610237,8.061829
1007.042969,-2.264041,2.951276,6.343033,5.438128
1007.046875,1.340340,4.723745,4.610743,3.325728
1007.050781,5.044232,-3.071866,5.963800,-4.034140
1007.054688,-5.034150,-1.862856,-5.970165,-2.782778
1007.058594,-10.832039,-9.780742,-6.463957,-5.054428
1007.062500,-7.993489,-1.663769,-1.344783,-11.914458
1007.066406,-11.822939,-6.216351,-16.360720,5.091035
1007.070312,-10.688184,-11.665492,-9.251172,-12.176313
1007.074219,-13.217323,-8.469945,-10.944413,-3.871067
1007.078125,-5.734602,-13.356699,-19.465764,-14.172247
1007.082031,-10.851452,-3.947580,-11.819166,2.096450
1007.085938,-5.298212,-7.828250,-2.804630,-6.161309
1007.089844,-10.127666,4.431042,-14.207205,-5.937189
1007.093750,-0.066769,-8.099302,-5.086780,-13.459110
1007.097656,-3.922481,-2.785126,-3.743321,1.040956
1007.101562,3.843823,6.306106,4.486072,3.867254
1007.105469,1.024239,7.163768,-0.000820,-2.237899
1007.109375,6.633218,6.380853,4.163035,2.331659
1007.113281,6.326655,7.706417,4.514174,1.320252
1007.117188,7.432820,7.274967,16.327618,11.537579
1007.121094,2.517584,13.167288,4.642342,9.531476
1007.125000,12.576147,15.706824,8.994218,7.396625
1007.128906,11.696083,5.975563,9.161122,5.004200
1007.132812,13.778249,7.947302,2.837362,-0.330781
1007.136719,5.250823,-2.837981,8.724048,8.990578
1007.140625,6.639892,6.823567,3.177930,4.577224
1007.144531,3.783715,1.607814,4.477676,1.308725
1007.148438,3.372115,5.165264,-0.779662,-1.872289
1007.152344,-4.032085,-2.377242,3.950475,-4.796473
1007.156250,-7.848637,-9.927404,-11.690749,-4.086084
1007.160156,-1.355217,-2.671112,-1.414500,-1.917944
1007.164062,-2.707093,-10.699981,-9.794538,-11.435794
1007.167969,-11.511438,-13.524112,-4.064188,-7.257931
1007.171875,-4.540693,-4.982833,-12.672292,-6.078396
1007.175781,-7.726443,-10.365595,-8.337258,-14.403430
1007.179688,-10.203597,-10.659209,-16.803484,-11.684352
1007.183594,-10.350290,-7.924686,-8.299984,1.149205
1007.187500,-12.730674,-3.053918,-1.524819,-10.054553
1007.191406,3.976926,-5.063032,-8.972220,-5.697513
1007.195312,-5.977888,2.072122,-1.755309,-1.674981
1007.199219,-0.217861,1.297644,3.791530,6.131951
1007.203125,8.367006,-0.196258,0.822254,8.287694
1007.207031,0.935066,2.933148,6.443697,-0.291678
1007.210938,6.395821,8.408931,6.222988,14.116845
1007.214844,10.180816,9.544973,10.427734,5.693995
1007.218750,5.323516,11.761685,14.895767,10.416703
1007.222656,6.194503,12.573254,8.902481,9.135656
1007.226562,9.158308,8.532174,10.840120,13.811817
1007.230469,14.895547,1.829731,6.153732,7.858345
1007.234375,7.663956,4.678038,4.354579,8.571289
1007.238281,8.598698,5.010213,3.423781,7.656009
1007.242188,6.134680,-0.337063,6.414668,5.689046
1007.246094,8.090319,0.911179,6.690453,5.437022
1007.250000,-7.327916,-3.652769,-2.052824,2.001752
1007.253906,1.322200,-5.636196,-6.352311,2.592169
1007.257812,0.029863,0.424419,1.379412,-4.164488
1007.261719,-3.930081,-3.336009,-2.444263,-5.311503
1007.265625,-2.420113,-11.827973,-6.307177,-5.794070
1007.269531,-6.711719,-10.767683,-13.369099,-11.284781
1007.273438,-10.522214,-9.265449,-14.458713,-7.205713
1007.277344,-9.399369,-3.738116,-9.305088,-8.434310
1007.281250,-5.290206,-18.208035,-13.272065,-11.041063
1007.285156,1.052324,-7.811663,-11.602158,-7.280435
1007.289062,-7.638309,-4.482860,-3.578597,0.004481
1007.292969,-8.581654,-2.083301,-6.629065,2.813864
1007.296875,-8.500684,-2.466909,-1.259240,-2.728738
1007.300781,0.550956,5.409804,1.641937,-3.475897
1007.304688,-0.926900,-1.727515,4.293001,2.812591
1007.308594,7.684629,-2.185173,-1.733055,0.458865
1007.312500,5.090553,7.729942,5.979752,9.707290
1007.316406,8.974721,3.675643,16.601727,10.224496
1007.320312,13.916789,2.143942,14.431693,11.298303
1007.324219,11.291386,11.519909,12.673461,14.605338
1007.328125,-0.874299,13.457507,8.627953,11.196677
1007.332031,6.600230,16.401522,11.128605,3.498077
1007.335938,5.754850,7.727845,3.786667,12.351083
1007.339844,14.246473,1.066128,10.056130,2.317155
1007.343750,4.591404,-0.846012,2.538080,6.185310
1007.347656,-0.617633,4.145125,-5.495596,2.206797
1007.351562,-3.238985,0.745625,-1.632100,-2.374850
1007.355469,-6.588584,6.274831,-6.352256,-5.266210
1007.359375,-6.205801,-7.578372,-8.781119,-11.132263
1007.363281,-7.325061,-9.832452,-6.316549,-8.025669
1007.367188,-6.560454,-3.378273,-6.436560,-6.750927
1007.371094,-2.707320,-11.233566,-10.857944,-4.395219
1007.375000,-2.756997,-6.171618,-14.508196,-4.663018
1007.378906,-9.984233,-7.971802,-5.403420,-12.699944
1007.382812,-2.892293,-10.576534,0.692388,-10.611063
1007.386719,-10.770779,-11.653394,-13.851932,-11.770167
1007.390625,-7.928341,-3.788494,-9.158818,-0.050854
1007.394531,-0.251647,-2.242184,-3.642852,-7.317459
1007.398438,-2.881665,-4.608922,-2.540646,-5.237375
1007.402344,-3.454484,3.258708,-7.838132,2.149165
1007.406250,3.235101,3.367683,3.002293,6.676322
1007.410156,4.254872,-0.661048,6.951910,10.653668
1007.414062,9.104450,5.080273,3.777173,3.558750
1007.417969,9.204901,10.841727,10.877656,8.087279
1007.421875,10.196024,11.988114,12.895745,11.414608
1007.425781,11.022514,7.413502,4.713016,8.167800
1007.429688,3.817231,12.499227,5.166052,17.290542
1007.433594,13.665163,9.986880,15.493384,6.993757
1007.437500,8.818926,8.219301,10.388763,10.009211
1007.441406,10.934548,6.408656,7.581666,2.018201
1007.445312,7.364354,3.602491,10.101725,2.610264
1007.449219,-3.893181,-3.656973,-0.247601,-1.358725
1007.453125,-5.925801,-2.632183,3.004162,2.055475
1007.457031,-2.310293,-4.395123,1.188789,-5.928475
1007.460938,-2.403579,-4.988236,-4.523855,-8.362691
1007.464844,-10.848253,-2.198099,-2.161458,-14.339340
1007.468750,-8.460058,-13.359043,-10.091037,-13.455285
1007.472656,-21.938695,-6.615007,-6.123831,-8.300134
1007.476562,-10.276677,-10.279859,-7.380348,-14.172762
1007.480469,-17.899018,-6.152429,-6.245966,-5.765230
1007.484375,-7.682751,-4.678192,-7.094139,-4.552322
1007.488281,-11.758714,-8.717272,-10.487446,-3.679299
1007.492188,-1.384948,-6.354551,-3.943717,-6.155471
1007.496094,-0.678381,-6.551812,-7.471022,-2.621033
1007.500000,-3.312716,0.809831,4.611824,-4.180216
1007.503906,-0.898091,6.628638,-5.656419,0.119787
1007.507812,10.395362,7.306714,8.908068,-0.383451
1007.511719,3.513568,10.333226,3.294596,4.437035
1007.515625,14.065129,8.181294,14.212760,11.963305
1007.519531,16.527955,12.920284,11.266661,5.385056
1007.523438,2.603382,8.698011,8.035763,15.196314
1007.527344,7.912733,10.279658,5.199639,16.989756
1007.531250,7.376699,9.621841,4.195673,14.374290
1007.535156,12.916837,6.488666,8.093821,12.061279
1007.539062,8.734659,5.380793,4.334545,3.727182
1007.542969,6.862680,-3.899047,5.216309,1.777164
1007.546875,-0.166111,2.338453,-6.429046,2.924391
1007.550781,1.155562,-7.005683,-0.461446,-1.074781
1007.554688,1.412117,0.383416,-3.626953,-1.541466
1007.558594,-6.180985,-1.328133,-4.142437,3.865633
1007.562500,-2.073095,-5.616535,-10.905388,-2.914031
1007.566406,-6.373732,-7.931887,-10.417140,-8.247386
1007.570312,-10.570340,-9.665065,-12.075732,-4.845213
1007.574219,-16.854583,-12.367793,-13.140086,-6.681545
1007.578125,-7.892874,-14.094984,-6.480800,-7.482095
1007.582031,1.899884,-5.466270,-4.309546,-6.712645
1007.585938,-6.419429,-2.267754,-14.608556,-10.114634
1007.589844,-9.608819,-4.090244,-4.501830,-11.594640
1007.593750,-9.662895,-11.695781,-12.882642,-2.409868
1007.597656,-0.168001,-7.001982,-1.392660,0.120033
1007.601562,-2.031279,1.881185,6.150695,-1.559552
1007.605469,10.899630,3.111785,-1.053691,4.633077
1007.609375,3.722263,2.299642,4.295362,9.420835
1007.613281,2.182930,5.654657,3.483535,7.677045
1007.617188,10.546457,7.652338,9.255850,0.963328
1007.621094,11.191771,8.966629,10.992501,18.910770
1007.625000,12.141469,10.405051,5.409819,8.438350
1007.628906,7.630983,12.190060,16.568827,9.089104
1007.632812,6.115512,11.424365,12.186667,2.020045
1007.636719,11.441879,8.115540,9.901740,7.458467
1007.640625,11.076617,3.165994,-1.497262,9.906660
1007.644531,1.040329,4.003397,-1.494427,3.720345
1007.648438,-0.829904,2.374427,0.164296,-0.825570
1007.652344,-4.894633,1.094419,0.783843,-2.661433
1007.656250,-5.221989,-8.386358,-2.084204,-10.704087
1007.660156,0.603585,-2.315327,-10.698725,0.362793
1007.664062,-6.322535,-8.351532,-0.575568,-4.900560
1007.667969,-7.125475,-7.827658,-19.369773,-9.710877
1007.671875,-11.897352,-7.192236,-5.017536,-8.826349
1007.675781,-5.670186,-4.467242,-10.435439,-6.778017
1007.679688,-11.273232,-10.198739,-8.323290,-11.729283
1007.683594,-8.072025,-8.775740,-14.720334,-16.943209
1007.687500,-4.046526,-12.133079,-11.905582,-8.883060
1007.691406,-4.069755,-7.335686,-7.750675,-4.425429
1007.695312,-4.494756,-3.342613,-5.009237,-1.135338
1007.699219,-2.590679,0.994269,0.013873,-4.089293
1007.703125,5.060283,-2.912734,5.545227,1.655552
1007.707031,2.896154,10.541860,2.960012,-5.660829
1007.710938,4.975401,8.522436,9.301416,8.942511
1007.714844,-0.061765,11.322968,14.299994,9.874501
1007.718750,5.831453,8.315241,7.760860,12.071740
1007.722656,10.234131,7.099613,15.187339,9.634330
1007.726562,6.867587,6.610580,19.142496,6.643602
1007.730469,15.375270,13.058360,7.055755,6.548175
1007.734375,6.557566,8.584717,9.624958,11.952188
1007.738281,4.334036,2.861088,7.752637,7.125080
1007.742188,6.857332,-2.280951,2.064954,6.722383
1007.746094,-7.135722,4.488415,0.546816,-4.389156
1007.750000,2.804781,0.224149,4.608496,5.451826
1007.753906,4.113425,-2.892566,5.101963,-2.834009
1007.757812,-0.787922,-1.725578,-3.467148,-10.787653
1007.761719,-7.298252,-6.254703,1.010399,-2.981534
1007.765625,-6.868068,-11.230514,-16.140430,-6.765453
1007.769531,-11.168886,-8.860378,-8.878671,-10.639108
1007.773438,-15.251547,-5.505449,-8.978085,-9.266937
1007.777344,-10.656393,-14.103683,-8.329992,-11.747415
1007.781250,-15.824645,-7.121733,-3.754280,-13.771110
1007.785156,-10.904483,-7.765829,-10.400658,-2.253441
1007.789062,-2.293641,-4.665751,-9.141182,-5.996792
1007.792969,0.193874,-1.332405,-4.907406,-7.169389
1007.796875,-4.962930,2.700685,-5.529942,-5.036890
1007.800781,1.928961,6.220601,12.716600,-5.961540
1007.804688,-0.927240,5.313229,-8.156666,0.717987
1007.808594,3.374196,7.326112,5.578329,3.820172
1007.812500,-1.721169,6.125578,4.633443,6.703805
1007.816406,13.298407,9.593383,8.076368,13.769803
1007.820312,9.252275,10.254559,21.201764,11.297748
1007.824219,7.941758,7.543188,9.135482,0.047803
1007.828125,11.023656,12.733510,8.448301,7.390274
1007.832031,12.346136,4.822002,14.261072,5.490397
1007.835938,9.420116,6.865652,7.938442,12.126497
1007.839844,11.599587,5.316260,-3.592329,7.582927
1007.843750,8.598522,3.620235,0.119716,5.954952
1007.847656,-5.367975,11.127950,2.664378,5.449739
1007.851562,2.883211,-3.748344,-1.111173,3.463093
1007.855469,-2.194659,-4.807440,1.338894,-2.269782
1007.859375,1.311421,-10.998854,-4.076451,-2.559879
1007.863281,-11.724614,-14.008884,-7.889587,-9.357487
1007.867188,-1.386628,-11.786347,-2.458355,-11.973422
1007.871094,-14.066009,-9.807113,-12.064937,-17.252936
1007.875000,-13.226809,-6.098912,-8.915744,-9.394618
1007.878906,-5.380305,-7.859781,-14.151685,-11.425850
1007.882812,-13.863189,-17.783833,-9.684966,-3.659772
1007.886719,0.560782,-5.931953,-4.311785,-10.395637
1007.890625,-1.761950,-3.770882,-6.871861,-2.211914
1007.894531,-5.262467,-11.058046,-0.035132,2.788002
1007.898438,-0.655572,-4.030340,6.883419,-1.082269
1007.902344,3.904278,-0.434147,-0.874048,3.931191
1007.906250,5.333021,0.080142,5.385108,7.366016
1007.910156,4.573713,3.813086,7.313550,6.233831
1007.914062,5.588545,-0.501678,12.492872,4.598717
1007.917969,11.119504,9.862239,7.194859,11.853935
1007.921875,13.450726,9.158875,10.196478,7.473795
1007.925781,11.854031,18.966028,12.970875,9.762995
1007.929688,18.008089,8.182866,11.148401,11.891549
1007.933594,13.108626,10.523255,11.788307,13.029277
1007.937500,6.507834,10.978881,11.828978,6.505298
1007.941406,-1.309530,0.137959,2.737049,5.651456
1007.945312,1.095859,4.816339,1.332443,5.256965
1007.949219,-2.541576,-1.323662,6.696965,-2.562207
1007.953125,-7.435637,-10.853359,-3.259886,-3.314169
1007.957031,1.721232,-4.721991,1.328062,-4.427032
1007.960938,-4.934591,-6.560190,-5.904143,-4.575024
1007.964844,-5.056064,-2.273175,-13.669081,-8.335906
1007.968750,0.871531,-5.468849,-7.324951,-9.024817
1007.972656,-6.776035,-11.944470,-13.797723,-12.242619
1007.976562,-8.807459,-16.780599,-10.993987,-10.095518
1007.980469,-9.340629,-17.253343,-8.917269,-4.025233
1007.984375,-9.050859,-11.031194,-9.191950,-11.888701
1007.988281,-6.362839,-6.375060,-7.918447,-2.684133
1007.992188,-6.717846,-1.729732,-12.767562,4.173719
1007.996094,-3.197050,-3.644595,-0.245244,-2.275095
1008.000000,0.244169,-2.039652,5.788051,-0.507457
1008.003906,-1.628170,4.453936,4.014379,-2.612520
1008.007812,11.688940,1.014494,0.395848,0.083847
1008.011719,-2.237435,7.846126,3.674281,3.863846
1008.015625,12.026449,13.417039,7.024362,5.045380
1008.019531,7.319716,11.299377,16.793628,5.088291
1008.023438,7.531577,8.523758,11.128789,9.578610
1008.027344,12.249147,10.934438,14.255866,11.391281
1008.031250,6.201040,8.500536,3.981797,6.951724
1008.035156,15.192538,11.129780,7.980499,11.625801
1008.039062,6.335877,8.362279,7.260239,13.116902
1008.042969,4.613192,-0.894442,3.435887,10.717883
1008.046875,1.456284,1.759583,-0.721341,-3.510214
1008.050781,1.541787,-2.816281,2.304825,-1.376204
1008.054688,-0.625736,-6.709371,-4.249077,-4.500284
1008.058594,-2.748131,-2.399654,-4.447272,-5.127922
1008.062500,-0.023227,-7.010384,-15.524492,-6.992087
1008.066406,-8.384560,-4.625502,-8.019707,-9.470769
1008.070312,-12.997804,-9.122719,-8.147363,-8.329265
1008.074219,-3.127746,-13.713912,-12.005874,-16.515558
1008.078125,-6.636246,-9.130554,-10.401681,-7.214620
1008.082031,-13.188190,-12.791815,-4.574304,-11.467802
1008.085938,-12.558751,-11.355114,-9.109947,-17.334519
1008.089844,-4.154092,-8.089424,-3.636223,-5.492772
1008.093750,-12.591586,-2.034438,-12.273797,-0.653325
1008.097656,-0.230343,-1.589528,-0.017341,1.458041
1008.101562,-2.445602,2.323918,3.224213,0.555151
1008.105469,1.884441,-1.887351,1.059270,4.579023
1008.109375,13.107107,5.670482,2.678322,7.564403
1008.113281,10.749860,4.116172,1.894837,9.909006
1008.117188,11.684160,13.986505,10.028757,7.040710
1008.121094,11.545067,16.582790,11.872347,6.164149
1008.125000,13.880037,16.948035,17.494916,11.623856
1008.128906,12.814015,14.146810,8.958673,6.445860
1008.132812,8.478296,9.282180,-0.566441,9.882702
1008.136719,8.542231,6.993685,6.636460,8.665173
1008.140625,3.934962,12.994771,6.444711,6.351841
1008.144531,7.024382,6.398511,-2.440341,2.891825
1008.148438,4.030858,-2.458382,4.091378,1.209707
1008.152344,3.379157,5.973214,0.671800,1.491292
1008.156250,-5.364487,-2.819600,-5.109786,-2.094830
1008.160156,-3.862780,-2.966004,-15.907009,-9.083808
1008.164062,-4.052442,-4.763670,-11.074237,-10.860652
1008.167969,-6.386427,-12.236339,-10.416074,-3.676744
1008.171875,-9.223491,-8.687697,-8.141860,-3.236958
1008.175781,-15.310412,-9.094339,-12.509204,-1.599680
1008.179688,-11.103106,-9.128425,-7.149135,-8.959441
1008.183594,-6.847435,-8.284120,-2.915505,0.869011
1008.187500,-6.024800,-6.443152,-6.148995,-4.230733
1008.191406,-6.940142,-10.828869,-6.521596,-9.113498
1008.195312,-6.074358,-4.898692,-0.609335,-4.508401
1008.199219,4.198883,-0.560431,1.104532,-4.973875
1008.203125,5.330599,0.106288,2.317806,-1.066515
1008.207031,8.809205,3.756786,2.945264,9.401471
1008.210938,4.836661,5.652733,-0.513816,6.786800
1008.214844,13.030086,8.463779,-1.654183,11.584571
1008.218750,13.374534,5.467287,16.008164,4.591544
1008.222656,17.877154,8.766069,9.093417,15.114747
1008.226562,8.940943,3.113525,9.192688,3.936578
1008.230469,10.883028,11.939959,5.894984,5.983725
1008.234375,11.274458,9.993704,3.689950,3.665498
1008.238281,5.358247,3.001477,2.572050,-0.675777
1008.242188,7.219153,4.928703,2.576271,1.981759
1008.246094,4.092693,5.363390,5.805214,1.223171
1008.250000,2.033787,11.949965,3.201195,-0.375912
1008.253906,-0.219214,-2.917381,6.744183,-1.622608
1008.257812,-11.636892,-6.789471,-3.758218,-6.100860
1008.261719,-8.731062,-7.562995,-8.215234,-1.451110
1008.265625,-10.311390,-9.002861,-11.165207,-8.557688
1008.269531,-11.080391,-6.945262,-16.346823,-5.304369
1008.273438,-14.054249,-8.353807,-17.367582,-10.892672
1008.277344,-6.551065,-6.272791,-10.342487,-8.342061
1008.281250,-16.054550,0.410132,-14.618717,-3.592096
1008.285156,-11.834856,-12.522845,-6.130555,-9.000350
1008.289062,-8.876542,-10.972107,-6.870527,-8.987337
1008.292969,-5.738271,-11.680817,1.806910,-1.898107
1008.296875,-2.690459,-2.734705,2.594233,-6.342800
1008.300781,1.246689,5.166538,-1.704776,2.805751
1008.304688,7.011759,-0.959565,-2.874750,-2.369432
1008.308594,1.625532,10.054380,9.543951,3.025676
1008.312500,1.328340,2.818819,3.691133,13.473438
1008.316406,10.226365,12.513236,2.670113,2.860252
1008.320312,14.151518,4.704566,10.998145,0.521938
1008.324219,9.242751,9.302499,6.796549,8.348106
1008.328125,8.475228,10.738443,7.212393,11.117354
1008.332031,13.104065,14.507492,10.997242,7.503418
1008.335938,6.410035,12.102826,5.585150,9.619895
1008.339844,6.019297,9.447568,3.855320,9.979169
1008.343750,9.671062,16.344890,1.599560,4.119199
1008.347656,0.493935,2.324085,5.846032,-0.092927
1008.351562,1.564405,-1.984224,-9.484072,9.759631
1008.355469,0.454352,-9.900188,-0.415933,3.941989
1008.359375,-2.642308,-5.925387,-5.566266,-9.108941
1008.363281,-6.594536,-2.130501,-9.823992,-10.873312
1008.367188,-8.522939,-9.785742,2.418511,-14.793632
1008.371094,-8.983169,-2.270031,-7.063133,-8.672322
1008.375000,-2.902235,-10.050065,-6.699569,-7.074415
1008.378906,-8.110552,-15.310610,-7.702351,-12.696753
1008.382812,-6.116373,-7.541421,-6.888996,-8.929077
1008.386719,-11.652959,-2.092381,-11.271792,-7.906584
1008.390625,-4.423293,-8.300977,-3.140012,-4.151325
1008.394531,-7.153764,-2.493611,-3.765332,-4.300693
1008.398438,-1.400076,0.752576,4.941740,6.878426
1008.402344,11.880372,-2.410963,6.813508,-0.866732
1008.406250,2.551045,7.189482,0.841838,-3.166449
1008.410156,5.690207,2.022730,8.429311,7.056741
1008.414062,2.981449,11.564492,6.008832,5.425555
1008.417969,7.894477,13.048190,7.911415,6.726312
1008.421875,11.209948,9.298529,7.649605,11.177445
1008.425781,5.816816,9.669531,13.901861,13.692547
1008.429688,11.615824,13.747456,12.204119,9.244582
1008.433594,14.505822,13.387483,5.875268,6.617796
1008.437500,8.786677,2.795199,8.573384,8.039477
1008.441406,8.453287,5.575120,-1.630021,3.156471
1008.445312,-1.659126,-3.172803,-2.282946,1.074290
1008.449219,3.222695,7.099151,2.975194,-2.368320
1008.453125,-0.935130,-5.140580,-1.996775,5.120192
1008.457031,-2.386079,-2.933852,3.692167,-3.403720
1008.460938,-4.009497,-3.467199,-3.508790,-6.253249
1008.464844,-9.520649,-6.140579,-13.214440,-7.379023
1008.468750,-8.967433,-10.054343,-10.032731,-9.792635
1008.472656,-11.349056,-8.951564,-11.777306,-10.745223
1008.476562,-4.355897,-14.706241,-10.105711,-7.138372
1008.480469,-5.017990,-12.539709,-9.817688,-5.774243
1008.484375,-5.002322,-6.500961,-4.148651,-10.001451
1008.488281,-2.011696,-4.619320,-10.241999,-5.143130
1008.492188,-6.750117,-10.288146,-9.151781,-6.749465
1008.496094,-3.627339,-8.521822,-0.588687,0.507837
1008.500000,6.031820,2.900325,-0.688689,-1.562180
1008.503906,2.604603,-0.723563,2.158395,1.457057
1008.507812,4.326636,7.745277,5.897446,0.783563
1008.511719,7.495786,1.513010,3.970674,10.232864
1008.515625,10.668103,8.511985,11.971601,15.095937
1008.519531,12.513848,10.423114,-0.472450,10.306784
1008.523438,7.940506,10.945078,12.180382,11.018912
1008.527344,5.562547,9.313195,7.162014,16.892197
1008.531250,9.504589,4.578944,17.530111,7.215280
1008.535156,14.048228,0.576935,6.597440,4.482996
1008.539062,11.638053,13.837735,7.658362,5.235731
1008.542969,0.594997,3.539461,4.053064,0.180389
1008.546875,0.091592,1.187055,1.026437,2.666909
1008.550781,1.208160,-5.722389,0.845845,-3.063626
1008.554688,-0.619610,3.308972,-3.470013,-1.561300
1008.558594,-3.214989,-3.387843,-4.680172,-8.948849
1008.562500,1.590355,3.188177,-12.413886,-0.581999
1008.566406,-6.358741,-9.517947,-11.772715,-5.612453
1008.570312,-11.594750,-20.082696,-6.903007,-10.778437
1008.574219,-7.805876,-5.324433,-9.309492,-15.734775
1008.578125,-12.531171,-11.249267,-7.846496,-12.488874
1008.582031,-12.055461,-12.292965,-5.667003,-8.110188
1008.585938,-7.673671,1.358617,-7.898129,-12.601201
1008.589844,-2.931412,-4.402043,2.306915,-7.715887
1008.593750,-3.635685,-3.282850,-4.550315,-3.815656
1008.597656,0.682103,0.683584,1.737512,-0.495871
1008.601562,-1.913048,1.528944,-0.231868,5.242168
1008.605469,2.497146,-0.103205,4.058786,-1.831847
1008.609375,4.895619,10.578836,13.774022,0.792029
1008.613281,8.524329,6.485563,1.374606,10.435526
1008.617188,9.807021,11.537639,12.372889,7.179319
1008.621094,10.935829,10.595724,-0.240522,4.132435
1008.625000,6.004020,9.928329,12.593683,8.241063
1008.628906,20.570240,12.230955,7.794354,12.987399
1008.632812,14.960341,17.306003,7.586090,8.102094
1008.636719,13.628690,-0.216605,-0.138055,2.571016
1008.640625,2.295094,6.693181,10.108296,-0.790884
1008.644531,5.814041,-1.986573,0.375638,3.800377
1008.648438,-1.438573,-2.264170,0.042153,-6.796211
1008.652344,3.239657,-2.122135,0.570021,-5.804866
1008.656250,-1.777896,-2.694013,-9.148633,-0.288846
1008.660156,-6.158507,-10.164671,-1.942446,-6.534054
1008.664062,-5.768646,-7.579748,-6.081073,-6.888737
1008.667969,-10.162055,-7.439911,-12.134306,-13.166923
1008.671875,-8.400860,-9.209764,-4.306052,-6.742001
1008.675781,-3.866438,-13.074236,-9.734672,-4.531733
1008.679688,-11.831901,-19.860563,-7.097466,-9.447051
1008.683594,-8.439776,-17.748411,-6.533553,-4.062194
1008.687500,-10.499805,-5.669381,-3.729600,-3.796136
1008.691406,-6.638663,-8.245376,3.131457,-4.528945
1008.695312,0.484300,-9.267586,0.551177,-4.669028
1008.699219,0.797838,-0.908180,2.358317,-3.482514
1008.703125,-7.393403,5.384382,8.718591,7.387922
1008.707031,8.173100,2.273422,4.064553,10.709104
1008.710938,5.937724,10.520559,8.629242,5.790278
1008.714844,3.306451,18.577643,8.419780,10.428670
1008.718750,13.858474,6.155206,13.637214,8.691872
1008.722656,8.263533,12.684392,12.457449,5.362087
1008.726562,3.774343,9.324385,6.568311,11.056493
1008.730469,10.526363,13.484257,14.771666,4.103819
1008.734375,4.233202,6.247976,15.898525,8.229849
1008.738281,1.968136,4.789569,4.338883,8.610514
1008.742188,4.514631,2.106802,10.228130,7.412475
1008.746094,1.152439,3.159267,9.151438,9.772405
1008.750000,8.034750,-2.384411,1.186199,1.135822
1008.753906,-3.930198,4.864164,-4.695015,2.554533
1008.757812,-12.328215,-0.816515,-10.877433,-3.169603
1008.761719,-6.125471,-1.428429,-5.205290,-11.084082
1008.765625,-4.965246,-9.378063,-7.912751,-5.785230
1008.769531,-9.903729,-9.906905,-8.672638,-13.567581
1008.773438,-12.473664,-11.163257,-10.870260,-6.313726
1008.777344,-11.694728,-8.760912,-2.057812,-13.096107
1008.781250,-6.956242,-8.940298,-10.168077,-10.655657
1008.785156,-13.112690,-7.448447,-10.136415,-6.029936
1008.789062,-4.253981,-6.676737,-7.239736,-5.807094
1008.792969,-8.305367,-3.783323,-6.701232,-5.615140
1008.796875,-1.992032,-5.438006,-2.985958,-8.219973
1008.800781,-1.148641,7.245474,7.667716,3.102667
1008.804688,3.433558,-0.422544,10.652042,-0.909389
1008.808594,5.824836,3.347277,6.627464,1.210315
1008.812500,7.504149,8.304285,1.415125,11.773514
1008.816406,7.702686,8.990508,2.819446,16.071652
1008.820312,5.852158,10.152157,10.485320,10.186370
1008.824219,1.188742,10.033312,7.328095,15.009768
1008.828125,7.485334,10.260324,9.997540,7.426417
1008.832031,8.554541,5.208937,5.972940,1.874685
1008.835938,7.748404,5.717924,19.737611,4.558024
1008.839844,9.144948,12.270434,3.675212,5.431417
1008.843750,1.752029,7.629189,7.018521,9.711069
1008.847656,-6.864788,-0.398527,3.518482,1.571477
1008.851562,4.474712,-2.288714,-2.641986,-6.521777
1008.855469,-3.379955,-0.967986,-2.765239,-8.982296
1008.859375,-12.970975,-12.218778,-4.030393,-0.504568
1008.863281,-7.989015,-6.600612,-3.159200,-7.180065
1008.867188,-12.409422,-12.132994,-17.045218,-7.760622
1008.871094,-14.401698,-14.211223,-2.663642,-15.079511
1008.875000,-9.065330,-9.185996,-11.140695,-12.884248
1008.878906,-13.301621,-14.534665,-5.519135,-14.302334
1008.882812,-8.805196,-15.180088,-8.947054,-14.518484
1008.886719,-1.198535,-0.862416,-10.668039,-8.554768
1008.890625,-16.835661,-7.200101,-7.817703,-8.587306
1008.894531,-7.396798,3.276077,-5.595989,1.552227
1008.898438,-3.440556,0.316762,-1.572340,6.429318
1008.902344,0.564058,9.437519,1.201611,0.218688
1008.906250,2.230944,3.719918,11.449869,0.038087
1008.910156,8.711626,5.833282,5.599698,1.730944
1008.914062,5.474478,12.978040,3.305311,10.359388
1008.917969,13.725621,8.481325,3.800893,10.592569
1008.921875,4.077310,10.151154,5.455114,10.836853
1008.925781,12.266734,8.173653,15.111082,6.332989
1008.929688,8.727814,17.535132,15.971545,3.321710
1008.933594,8.067534,9.408803,11.367136,6.962298
1008.937500,4.471405,9.592515,15.070367,3.712519
1008.941406,7.737609,1.317704,8.813339,4.162291
1008.945312,4.255894,1.498152,5.196327,4.567873
1008.949219,-2.147478,-3.839225,3.473150,-9.714667
1008.953125,-4.146021,-1.800307,4.497736,3.689938
1008.957031,-4.339865,-1.934544,-10.133127,-5.780957
1008.960938,-16.985974,-5.087125,-2.005147,-6.315628
1008.964844,-6.632073,-0.372750,-6.276356,-5.168960
1008.968750,-6.555119,-12.311747,-11.364372,-15.303780
1008.972656,-13.454100,-7.249163,-4.799251,-5.402333
1008.976562,-6.484285,-12.431031,-13.146188,-16.751553
1008.980469,-9.764285,-13.119436,-16.592761,-15.033623
1008.984375,-8.210156,-0.396393,1.224270,-11.540344
1008.988281,-4.166538,-12.747196,-4.358456,-7.987980
1008.992188,-4.349599,4.670684,-13.463136,-6.973815
1008.996094,-1.485426,-4.705134,-1.995181,0.581741
1009.000000,0.811085,-5.489655,-0.304884,8.819488
1009.003906,9.224090,5.518845,1.019535,5.597057
1009.007812,9.124421,10.157376,3.152318,6.312604
1009.011719,1.353300,9.125506,8.682515,4.383979
1009.015625,9.149205,6.273952,7.739804,11.989483
1009.019531,11.240709,10.327646,6.218348,8.527914
1009.023438,13.217119,13.961611,13.648939,11.460016
1009.027344,12.387955,11.000087,3.912201,12.219197
1009.031250,6.996145,15.528674,16.854768,13.954277
1009.035156,14.078210,16.980591,12.192843,3.704190
1009.039062,5.072507,3.447306,10.457001,10.988249
1009.042969,6.791114,5.833088,2.323964,15.846524
1009.046875,6.775245,-0.312708,-1.190888,-0.391169
1009.050781,3.144212,2.815896,0.552277,-2.237361
1009.054688,-0.175832,1.613378,-6.696062,-2.001358
1009.058594,-10.106137,-2.574427,-0.378182,-5.518455
1009.062500,1.401653,-0.226628,-12.358916,-4.470289
1009.066406,-6.780440,-16.938601,-6.307474,-8.429211
1009.070312,-7.795484,-10.018256,-7.028453,-9.273888
1009.074219,-11.511759,-10.884749,-8.404458,-4.166667
1009.078125,-8.499143,-12.682444,-7.973484,-9.231584
1009.082031,-15.175494,-9.082503,-8.580551,-13.071337
1009.085938,-2.632827,-4.093345,-3.552029,-6.716974
1009.089844,-8.034310,-3.750103,-4.240447,-0.853388
1009.093750,-1.730519,-3.818015,-4.836211,-3.436010
1009.097656,-2.896488,-11.242126,-4.115872,2.311781
1009.101562,5.139080,-1.065736,-5.295654,-4.194863
1009.105469,-0.072286,1.960922,2.997709,8.150433
1009.109375,6.554724,3.522347,11.061789,3.077948
1009.113281,8.218807,11.259982,13.443472,12.303643
1009.117188,7.133332,14.046485,10.009903,10.712295
1009.121094,8.916795,0.912346,8.081519,13.057437
1009.125000,4.558301,9.142037,11.151089,11.303654
1009.128906,11.828818,7.944354,5.309048,10.214083
1009.132812,1.725146,14.321059,13.295514,11.668118
1009.136719,7.827366,6.299485,8.257266,9.650993
1009.140625,9.468350,3.236784,0.696330,10.895271
1009.144531,6.614539,2.664451,10.292059,7.773182
1009.148438,2.748147,5.398624,-3.203803,1.598356
1009.152344,3.866790,1.187021,9.791592,-3.529834
1009.156250,-4.294649,-8.800383,-0.243434,-1.548838
1009.160156,-9.100084,-6.913474,-11.083967,-8.772589
1009.164062,-4.149273,-7.058645,-8.659985,-6.530629
1009.167969,-5.607086,-12.840013,-9.840160,-4.592310
1009.171875,-12.422796,-4.087761,-17.844749,-12.839397
1009.175781,-5.850624,-4.140319,-7.185481,-12.839118
1009.179688,-12.966079,-13.176579,-6.062833,-12.961732
1009.183594,-7.663841,-7.041186,-6.192199,-5.091608
