timestamp,TP9,AF7,AF8,TP10
1000.000000,-6.297201,4.682143,-5.860768,-0.417712
1000.003906,-1.280556,-1.765540,0.018299,-0.150228
1000.007812,-0.067162,4.639304,6.210034,2.783247
1000.011719,2.971514,7.159519,8.749620,8.747721
1000.015625,9.556684,10.429826,9.376594,5.532255
1000.019531,12.236702,10.759197,6.030581,4.534707
1000.023438,7.716028,6.099424,5.625756,9.204723
1000.027344,11.012422,4.435970,9.299881,10.974859
1000.031250,5.248006,15.077129,11.459656,8.137885
1000.035156,12.237001,8.303842,9.442430,8.810902
1000.039062,6.927011,11.923718,8.674447,13.342753
1000.042969,2.431269,1.509725,9.389712,7.095730
1000.046875,2.478162,-6.403307,-2.022028,-5.367462
1000.050781,8.686093,3.314805,1.550203,1.251909
1000.054688,-7.508582,-7.875740,-7.030654,-2.544409
1000.058594,-7.819994,-9.441208,-6.106811,-0.491970
1000.062500,-5.950063,0.641377,-4.757238,-11.435917
1000.066406,-7.010423,-10.869923,-4.719306,-8.355849
1000.070312,-14.973584,-11.936000,-18.921854,-10.025260
1000.074219,-10.805081,-11.157987,-8.250813,-10.051658
1000.078125,-8.600813,-6.895168,-9.047084,-8.583164
1000.082031,-8.220664,-7.711440,-7.598783,-11.368745
1000.085938,-12.242168,-3.616792,0.921905,-12.787099
1000.089844,-9.382427,-13.101923,-4.603803,-11.982809
1000.093750,-8.323301,2.338864,-6.859812,-4.976978
1000.097656,-3.958280,3.103869,-7.915649,-0.735361
1000.101562,-4.807701,-5.716600,1.139167,6.520475
1000.105469,5.061044,-3.632267,3.530415,-0.547048
1000.109375,8.228907,6.173899,1.002728,5.891931
1000.113281,1.014571,8.000947,8.291739,6.224958
1000.117188,10.487631,10.790144,3.305010,8.390624
1000.121094,14.648443,5.962564,11.612381,12.180409
1000.125000,6.187418,6.589989,10.367789,10.289161
1000.128906,11.408316,11.311326,7.158300,-1.529467
1000.132812,8.463932,8.472011,9.703516,7.592449
1000.136719,9.727613,5.467893,8.057169,10.922479
1000.140625,4.580102,4.583592,4.215992,4.892291
1000.144531,0.293654,4.632368,11.500990,5.339928
1000.148438,6.336423,2.721856,1.043906,1.853709
1000.152344,2.721477,-2.678366,-10.883732,8.371939
1000.156250,-6.079762,-7.635740,-1.218489,-5.502438
1000.160156,-11.255351,-8.709273,-15.714839,-6.919833
1000.164062,-14.246261,-12.484157,-10.568620,-5.522323
1000.167969,-8.375667,-6.928644,-7.964074,0.144219
1000.171875,-6.857696,-13.965223,-5.081028,-11.793984
1000.175781,-9.738805,-12.182290,-16.220633,-9.897368
1000.179688,-7.814889,-16.447165,-5.212175,-4.753818
1000.183594,-2.472269,-4.192215,-8.089063,-9.986338
1000.187500,-5.605710,-12.745254,-5.890056,-6.887074
1000.191406,-6.305346,-7.591089,-10.050598,-6.472731
1000.195312,-6.327745,-3.894394,-4.482319,-4.027872
1000.199219,2.331220,-4.236058,3.516916,-0.573006
1000.203125,6.205696,0.369289,-2.935250,8.550471
1000.207031,0.431406,8.161925,1.122127,4.936579
1000.210938,7.090158,2.181200,8.550621,11.395781
1000.214844,18.097479,7.370293,11.507542,6.698329
1000.218750,10.889438,8.904479,6.315325,8.214030
1000.222656,13.186217,7.940172,12.148560,6.784834
1000.226562,9.147883,10.649108,7.307261,11.168902
1000.230469,11.800716,12.283743,13.638516,5.547354
1000.234375,5.674570,8.003463,9.191870,7.154034
1000.238281,9.911391,4.431016,7.751125,8.283241
1000.242188,6.033487,2.369555,4.901478,5.173394
1000.246094,6.416445,-1.225456,-0.717329,2.632741
1000.250000,-1.205694,-0.425498,0.113163,-6.311503
1000.253906,-0.343854,4.577589,-0.650113,-1.363781
1000.257812,-2.664081,-6.639954,-4.909482,-3.593504
1000.261719,-9.082048,-13.241263,2.632163,-3.055885
1000.265625,-11.167142,-1.923995,-4.574817,-9.322598
1000.269531,-13.409844,-3.726179,-9.559064,-7.567669
1000.273438,-7.880584,-7.321803,-5.522606,-4.691938
1000.277344,-11.294571,-9.005113,-9.455012,-12.482730
1000.281250,-3.773689,-13.922454,-8.431818,-10.843528
1000.285156,-12.603602,-9.874700,-4.415833,-5.816730
1000.289062,-14.090029,-3.818209,-0.455453,-12.270989
1000.292969,-12.197044,-3.964790,-3.909092,-5.519341
1000.296875,-1.911900,1.240694,7.820815,-2.799784
1000.300781,-0.003339,-0.237636,0.266379,-3.702322
1000.304688,-1.626755,4.218225,2.614116,0.483730
1000.308594,7.612511,4.266643,5.456582,0.479160
1000.312500,-3.675277,18.974102,8.087274,0.939447
1000.316406,8.304130,0.803488,8.470563,8.075328
1000.320312,4.053252,14.699970,6.223747,13.234632
1000.324219,5.536336,6.199084,8.034327,3.970008
1000.328125,7.784850,9.968854,8.355020,6.253512
1000.332031,13.724423,10.404137,9.704356,12.866043
1000.335938,6.684777,3.757399,3.328596,10.756442
1000.339844,6.278214,0.850411,-1.186464,2.157071
1000.343750,-0.262061,-0.618789,8.410112,4.966470
1000.347656,1.152904,-0.596618,1.985694,2.754146
1000.351562,-2.174448,0.980307,-0.986218,-3.360681
1000.355469,-3.846597,-10.871619,-3.119270,-9.958715
1000.359375,-5.109286,-7.043948,-8.906135,-6.136016
1000.363281,-12.139504,-3.951182,-5.777098,-6.043952
1000.367188,-2.148059,-9.316323,-6.259539,-3.787723
1000.371094,-12.747310,-10.062705,0.723527,-11.217637
1000.375000,-13.246430,-6.886502,-13.244087,-11.698582
1000.378906,-18.940864,-5.580608,-13.442408,-16.722010
1000.382812,-12.716709,-9.953612,-12.444195,-6.392079
1000.386719,1.219420,-5.710863,-1.500089,-8.581299
1000.390625,-10.329906,-3.731695,-10.489179,-1.279004
1000.394531,2.917696,-5.881477,-3.664068,-4.511638
1000.398438,-8.359935,-0.087568,-1.185028,-4.984936
1000.402344,8.119604,-6.706198,4.542324,-1.610864
1000.406250,1.489232,-0.356756,2.888261,4.795833
1000.410156,7.813316,12.968802,3.401389,5.589531
1000.414062,3.944370,7.515380,3.485163,2.596219
1000.417969,9.145071,11.638738,7.081895,17.105226
1000.421875,14.732026,7.598982,10.435825,5.807721
1000.425781,7.800658,16.677250,11.858067,11.198865
1000.429688,9.781454,21.605015,7.920778,10.191383
1000.433594,11.787053,5.952280,14.246341,7.842004
1000.437500,13.099517,9.745159,4.471112,8.962162
1000.441406,15.621963,4.338669,4.741967,12.897867
1000.445312,5.036238,2.148180,2.241221,3.729924
1000.449219,0.838622,-1.354215,-2.894845,-1.659340
1000.453125,6.108215,-8.958065,-6.777671,-4.910704
1000.457031,-6.620996,-5.844078,-7.682061,2.016097
1000.460938,-4.086354,-15.327446,-4.525562,0.783677
1000.464844,-5.615410,-1.880065,-13.346019,-6.849054
1000.468750,-2.785459,-8.682875,-9.543408,-8.920514
1000.472656,-11.768107,-10.374229,-12.416560,-12.977846
1000.476562,-11.417366,-14.979415,-9.639838,-2.133282
1000.480469,-3.110721,-14.841644,-6.225997,-6.179287
1000.484375,-17.671075,-10.740508,-12.400605,-8.907029
1000.488281,-5.756714,-5.388030,-0.448641,-13.087660
1000.492188,-7.012490,-5.245093,-7.416302,-13.358352
1000.496094,-8.461455,-2.718638,-10.507801,-8.529762
1000.500000,-5.843140,1.300186,-1.655730,-1.569934
1000.503906,-1.645542,2.467961,-1.034035,0.879111
1000.507812,10.553067,3.055287,6.317228,2.582706
1000.511719,7.357833,6.905206,-1.073732,8.017108
1000.515625,9.154458,1.239506,7.323306,7.512223
1000.519531,15.096609,12.724239,7.268157,10.916192
1000.523438,13.143859,4.529271,6.213698,14.665292
1000.527344,5.587528,5.886735,6.276648,7.197779
1000.531250,5.140969,5.460040,14.273910,14.791616
1000.535156,10.074254,9.338069,9.153831,4.168924
1000.539062,4.978305,2.793905,0.173326,9.605527
1000.542969,1.080217,10.422010,0.903534,2.024372
1000.546875,-5.161459,6.026212,0.630478,2.578565
1000.550781,-1.223112,-1.491080,3.645749,2.450075
1000.554688,-4.298459,0.389576,-10.681062,3.065843
1000.558594,-12.570148,-5.326085,-9.266737,-5.010180
1000.562500,-10.903311,-9.772781,-8.105640,-8.132780
1000.566406,-9.141493,-14.058212,-11.977945,-2.533159
1000.570312,-4.081601,-2.684679,-10.001041,-10.623049
1000.574219,-11.152236,-5.468007,-12.489143,-7.843157
1000.578125,-20.067882,-11.160744,-5.611828,-7.491321
1000.582031,-9.945853,-4.332211,-13.717859,-4.659710
1000.585938,-7.720589,-4.055315,-5.266504,-6.516499
1000.589844,-3.606626,-4.466887,-5.931526,-3.215695
1000.593750,1.472963,0.638914,-6.813130,-5.027821
1000.597656,-0.170948,-4.142395,3.889567,-5.700678
1000.601562,-0.119808,6.324137,-0.947812,-0.322581
1000.605469,6.313601,-2.535734,6.078407,-2.710773
1000.609375,8.328466,4.847840,6.774019,3.910634
1000.613281,14.845422,2.942114,7.491214,8.024117
1000.617188,2.467215,7.482579,11.705531,9.519871
1000.621094,14.630588,11.505543,13.090517,16.697891
1000.625000,9.249135,19.991657,9.359435,14.689503
1000.628906,5.590146,8.879531,15.817152,5.768761
1000.632812,7.658446,14.588736,12.988777,6.307008
1000.636719,11.997464,3.540996,8.336521,13.256070
1000.640625,6.387578,-1.844010,6.116051,-2.416997
1000.644531,0.093794,14.228568,7.580239,1.112900
1000.648438,2.461434,5.171777,-1.763253,0.969548
1000.652344,-3.147182,-5.721088,1.248573,5.876335
1000.656250,-7.389315,4.624860,-5.269491,-1.468800
1000.660156,-5.882246,-4.492652,-5.622232,-3.344973
1000.664062,-1.439255,-9.481914,-13.133852,0.743276
1000.667969,-11.644834,-12.328913,-3.052472,-4.460159
1000.671875,-10.074612,-9.101070,-9.267265,-8.334026
1000.675781,-9.311440,-12.856602,-7.720497,-12.833179
1000.679688,-5.365996,-9.818863,-10.248500,-13.134888
1000.683594,-5.567920,-10.955320,-12.171566,-6.284341
1000.687500,-8.924245,-6.923788,-9.990174,-8.586496
1000.691406,-7.442174,-6.290358,-2.269681,-6.487677
1000.695312,-2.478750,-10.224022,-1.656824,-3.209518
1000.699219,-1.092694,-1.652267,-3.801865,-3.786259
1000.703125,-2.626834,-4.555884,-0.356883,5.665346
1000.707031,5.759875,0.124994,-4.196249,2.552547
1000.710938,8.707878,11.498560,3.446010,2.638749
1000.714844,8.743613,8.828312,7.955885,7.384971
1000.718750,4.299183,8.121931,15.329517,9.175003
1000.722656,5.640451,13.369701,12.586048,9.018006
1000.726562,13.454940,15.340222,11.788898,12.922955
1000.730469,4.743920,6.891405,11.777941,11.882913
1000.734375,-1.882378,8.021997,9.805692,8.400257
1000.738281,6.547810,14.996488,8.105675,13.056291
1000.742188,2.565072,3.559248,7.681853,2.192790
1000.746094,3.944638,-1.612377,-3.144366,6.465122
1000.750000,3.628981,-5.767972,-2.541916,3.819976
1000.753906,1.533424,-1.210322,-10.462437,-1.988548
1000.757812,-11.683883,-4.752862,0.267338,-6.343672
1000.761719,-4.368637,-1.540441,-12.230036,-5.263321
1000.765625,-2.844607,-8.637885,-6.841196,-4.085294
1000.769531,-4.396955,-12.395915,-8.422539,-14.701629
1000.773438,-15.641901,-15.410307,-7.308209,-15.502694
1000.777344,-10.314532,-13.684976,-9.932142,-6.548981
1000.781250,-11.065636,-16.473794,-12.235238,-13.123919
1000.785156,-5.246510,-16.797876,-12.127567,-10.782904
1000.789062,-5.093441,-7.409077,-5.400406,-5.337112
1000.792969,0.936007,-7.882415,-4.211585,-2.861089
1000.796875,-3.053603,0.488552,2.102985,0.344794
1000.800781,2.743089,1.965961,-1.393437,1.195236
1000.804688,3.632530,-5.236694,2.079629,5.821142
1000.808594,5.425340,3.543630,6.139002,2.326128
1000.812500,7.549458,6.510615,8.302033,-0.510350
1000.816406,3.614386,11.433349,2.025991,8.859796
1000.820312,12.360724,12.639108,12.504956,8.445953
1000.824219,7.567031,7.049385,15.588240,12.405120
1000.828125,10.455881,8.237811,17.336763,9.582233
1000.832031,14.805204,9.122415,7.912134,9.428624
1000.835938,6.594130,5.979666,6.074411,7.230999
1000.839844,6.139821,6.509800,11.761746,5.419924
1000.843750,7.116439,6.250818,5.381000,6.014694
1000.847656,2.684419,11.611441,9.163649,-2.747907
1000.851562,-7.370632,-6.720999,-0.734933,4.983040
1000.855469,-1.471970,1.240274,5.423102,-5.767994
1000.859375,1.839582,-0.545021,-3.476566,-5.113292
1000.863281,-6.308772,-0.539023,-15.911170,-7.182297
1000.867188,-10.430862,-3.114696,-7.051768,-8.260671
1000.871094,-12.161778,-10.484163,-7.709526,-6.724336
1000.875000,-11.254257,-16.958405,-9.458716,-6.915856
1000.878906,-12.041564,-12.604610,-6.053004,-1.694871
1000.882812,-9.673179,-7.074430,-5.696539,-18.619968
1000.886719,-9.311668,-9.632352,-2.618378,-9.055485
1000.890625,-2.453293,-0.312165,-5.442224,-3.723082
1000.894531,6.137181,-0.653968,2.164199,-3.540794
1000.898438,-7.561849,-2.192558,-3.312662,-0.551146
1000.902344,6.147991,2.923561,3.372332,2.913765
1000.906250,7.857935,7.610554,8.170844,8.270695
1000.910156,11.786045,6.878671,9.952414,14.943463
1000.914062,3.493505,8.243744,5.634556,5.436249
1000.917969,4.805815,5.866655,9.350872,9.567528
1000.921875,4.851580,12.166370,16.234581,6.224162
1000.925781,12.219094,14.343254,9.559728,8.773629
1000.929688,10.626549,14.434269,17.585368,10.905080
1000.933594,12.663449,11.982722,11.968334,-6.103008
1000.937500,4.390525,7.826269,12.493136,9.586334
1000.941406,2.763728,1.899988,-1.662583,3.496654
1000.945312,-2.349203,1.538981,-7.563692,5.155478
1000.949219,-1.579807,-4.883952,-4.289337,1.021551
1000.953125,0.124360,-3.543944,-6.767926,-3.876621
1000.957031,-5.696188,-9.413201,-2.889339,-2.313204
1000.960938,-8.454638,-7.584047,-7.138627,-2.471744
1000.964844,-4.967020,-8.071701,-3.808917,-6.965273
1000.968750,-15.945555,-6.045996,-14.479831,-10.032594
1000.972656,-11.331731,-7.628974,-8.337649,-3.900300
1000.976562,-7.839982,-3.938347,-15.261536,-8.099105
1000.980469,-7.785845,-10.206160,-11.553787,-12.981190
1000.984375,-9.787619,-3.127273,-10.524099,-5.594088
1000.988281,-7.895796,-6.283480,2.249405,-4.725288
1000.992188,-2.914863,-2.151355,-0.610864,-7.758964
1000.996094,-0.302797,-2.881328,-4.304269,0.680138
1001.000000,-2.712295,0.336258,0.710859,2.470539
1001.003906,0.343641,7.588695,-0.305701,5.577171
1001.007812,9.383345,9.302721,5.638784,4.912985
1001.011719,6.870033,5.198152,3.807119,5.748201
1001.015625,13.488987,4.477685,9.312519,8.191765
1001.019531,13.108864,3.019768,2.400813,8.162891
1001.023438,14.282272,9.854580,8.748147,3.585636
1001.027344,8.191267,5.438245,7.262489,18.146071
1001.031250,12.777444,8.440435,1.416100,3.657946
1001.035156,10.167266,8.065061,9.056476,4.889632
1001.039062,0.095552,8.487795,10.319453,12.864211
1001.042969,6.331620,-2.310601,-2.858745,6.693148
1001.046875,-0.375772,-0.118128,8.575772,9.366991
1001.050781,-1.279149,1.297163,-3.249627,2.594488
1001.054688,-5.478900,-0.864769,-0.596576,3.223222
1001.058594,1.176133,-2.228808,-0.321521,-7.369618
1001.062500,-4.325089,-7.325737,-0.056748,-4.107949
1001.066406,-12.476903,-7.745751,-1.276402,-10.123054
1001.070312,-18.995846,-9.860566,-12.960577,-7.991247
1001.074219,-11.277845,-8.480732,-4.080299,-13.161364
1001.078125,-5.126023,-11.698434,-18.946311,-10.612979
1001.082031,-14.117217,-13.462331,-5.421733,-10.794785
1001.085938,-13.623527,-12.031048,-4.250329,-7.923625
1001.089844,-6.178109,-8.980289,0.718357,-0.949987
1001.093750,-7.015127,-8.976788,-3.469090,-4.270104
1001.097656,0.460591,-5.540610,2.866527,-3.252374
1001.101562,6.233550,1.468738,-3.862620,-0.940332
1001.105469,1.264399,2.743475,2.791891,1.544405
1001.109375,0.007474,10.383561,6.027546,9.720175
1001.113281,6.697537,13.518571,7.083704,5.425633
1001.117188,9.442954,7.375625,11.631446,12.551061
1001.121094,4.727358,15.561835,8.629420,9.621818
1001.125000,14.063527,14.814161,12.442981,6.492619
1001.128906,5.695338,3.890661,8.665068,9.778435
1001.132812,9.961743,6.483638,11.418218,8.394634
1001.136719,12.155436,9.493730,12.526817,7.487985
1001.140625,4.543179,-0.567328,2.713886,11.833740
1001.144531,4.857010,0.483627,5.412999,-0.135652
1001.148438,4.040534,7.115068,4.385257,-5.506865
1001.152344,1.781099,-7.128432,1.194280,-6.278171
1001.156250,-8.320495,-5.359602,-1.574772,-4.494939
1001.160156,-13.154635,-12.286529,-2.568521,-13.819279
1001.164062,-9.178818,-8.501910,-12.300725,-18.502573
1001.167969,-8.123571,-8.458989,-5.787080,-9.250450
1001.171875,-11.453140,-7.894848,-9.973485,-3.729791
1001.175781,-5.375455,-10.851861,3.060670,-7.096462
1001.179688,-7.534890,-13.625881,-3.680760,-8.679215
1001.183594,-4.178785,-3.612598,-13.408908,-12.133118
1001.187500,1.520208,-4.261667,-6.708043,-3.437396
1001.191406,-6.036636,-1.267191,-14.835060,-0.248123
1001.195312,-3.591492,-1.302047,-8.501438,0.063926
1001.199219,-2.423342,-3.471275,-3.493269,-1.488901
1001.203125,2.983912,-3.759440,1.000202,-3.411061
1001.207031,2.894773,7.501602,4.592643,7.238474
1001.210938,2.258812,0.905357,5.454350,2.187190
1001.214844,9.222468,11.193487,1.285588,5.271600
1001.218750,9.542937,12.009924,5.887269,16.682361
1001.222656,12.393137,14.250996,4.152793,10.957728
1001.226562,2.137022,3.917208,13.002542,10.646969
1001.230469,8.023078,8.072852,13.262818,7.961538
1001.234375,0.106185,7.856626,10.490480,7.988614
1001.238281,0.711082,7.590679,7.887333,6.843766
1001.242188,6.089847,3.407695,-0.978998,6.267576
1001.246094,-2.893191,-4.479449,5.008138,2.035385
1001.250000,-1.606572,-1.698564,-1.194563,3.973527
1001.253906,-1.627671,1.926649,6.682713,-3.915512
1001.257812,-5.209991,-5.781685,1.506595,-5.815724
1001.261719,-10.707277,-3.949326,-14.084689,-8.887932
1001.265625,-8.455465,-8.045164,-8.582255,-6.678042
1001.269531,-11.732980,-10.934704,-15.048907,-13.448044
1001.273438,-13.945796,-13.586301,-8.064858,-8.440520
1001.277344,-20.174448,-7.486754,-9.726036,-13.324276
1001.281250,-6.565857,-9.277447,-5.487705,-4.231225
1001.285156,-8.445444,-6.845262,-4.064544,-6.655881
1001.289062,-8.130823,-12.466539,-13.889313,-12.710206
1001.292969,-3.986692,-4.394352,-4.816834,-8.622159
1001.296875,-6.245306,6.784643,-4.004604,3.179519
1001.300781,-2.089229,-0.535071,-5.886612,0.339566
1001.304688,-3.748273,0.091789,-4.374914,1.105633
1001.308594,0.320033,10.212474,5.156406,4.178306
1001.312500,13.112024,3.222025,7.501264,7.119248
1001.316406,0.885372,14.686002,13.626676,7.651602
1001.320312,12.134764,3.208716,12.131301,11.642608
1001.324219,11.308473,11.355053,8.007342,10.112565
1001.328125,12.517748,6.146463,1.652774,16.407507
1001.332031,7.893948,6.116529,4.534145,8.182440
1001.335938,9.855522,5.342353,16.250984,8.380293
1001.339844,11.272648,9.149560,9.356909,12.954496
1001.343750,-4.538032,5.336819,7.054012,-0.665226
1001.347656,-3.273450,-3.111143,-1.043466,4.578943
1001.351562,-6.027998,1.735825,-2.110018,-0.062811
1001.355469,-6.699300,-5.893948,1.266203,3.892788
1001.359375,-6.427246,-2.560850,-3.142395,-8.152881
1001.363281,-8.697305,-10.765892,-8.023223,-8.701191
1001.367188,-9.501479,-4.291645,-13.398522,-16.798579
1001.371094,-7.378143,-2.256480,-11.315757,-8.567468
1001.375000,-7.059803,-13.836374,-1.485041,-12.964995
1001.378906,-17.094867,-12.011965,-8.590023,-8.752961
1001.382812,-5.543256,-12.731505,-9.471811,-11.617627
1001.386719,-4.883004,-0.786490,-9.688211,-10.763007
1001.390625,-2.139216,-10.264556,-5.688464,-6.744349
1001.394531,-2.583903,-8.403608,-4.207699,-5.970878
1001.398438,1.112042,-1.254330,-4.476501,-4.576575
1001.402344,-1.295732,5.779741,7.850444,-5.038626
1001.406250,8.299280,1.418098,4.703574,0.234657
1001.410156,8.625881,4.878784,-0.472675,9.888515
1001.414062,6.549121,10.464167,1.792205,9.400128
1001.417969,8.203001,12.583980,5.547323,12.241392
1001.421875,11.967994,7.561595,10.242207,9.572028
1001.425781,5.255178,13.238174,1.195416,18.291688
1001.429688,10.802222,7.856894,13.089760,7.360797
1001.433594,3.502117,5.094274,20.139091,10.833266
1001.437500,5.388943,11.621800,9.482745,13.064431
1001.441406,3.874176,2.337706,13.625347,4.732641
1001.445312,7.911581,-0.219542,1.890026,2.539833
1001.449219,3.643352,-5.124624,-3.418349,-1.620969
1001.453125,0.261226,-0.572604,-1.298221,-3.088673
1001.457031,-4.330124,-10.364253,-4.872419,-0.412646
1001.460938,-0.074697,-4.870967,-8.040853,-8.184923
1001.464844,-6.782633,-2.267638,-2.371251,-13.347272
1001.468750,-16.535806,-6.138986,-5.073491,-6.399821
1001.472656,-7.554632,-15.329921,-13.001833,-12.284418
1001.476562,-5.508948,-11.045552,-14.616273,-7.969868
1001.480469,-8.376907,-15.338159,-10.570524,-12.834376
1001.484375,-13.179868,-9.285486,-9.085726,-12.826087
1001.488281,-7.039379,-4.246483,-7.029926,-8.211041
1001.492188,-3.044449,-11.266581,-0.278995,-2.510119
1001.496094,-5.210066,-5.608387,0.342872,-2.179485
1001.500000,0.531873,-1.355579,3.793987,-9.716205
1001.503906,13.275090,1.225333,2.758171,8.365187
1001.507812,8.432982,3.267856,2.148960,1.006574
1001.511719,8.183189,8.685979,2.491815,4.913142
1001.515625,5.382141,12.653117,11.288156,9.646958
1001.519531,10.753915,6.126291,11.071728,7.305109
1001.523438,10.739868,17.143421,10.825311,-0.186484
1001.527344,9.218610,10.942584,7.279120,4.640410
1001.531250,0.177267,7.892914,7.966241,3.020436
1001.535156,13.969140,6.137515,10.376430,9.299332
1001.539062,6.719383,13.268106,0.461945,3.806086
1001.542969,-1.263913,7.064050,3.000395,8.733198
1001.546875,6.250539,10.571843,5.227705,-1.316729
1001.550781,-1.193107,1.713375,-3.495711,1.377785
1001.554688,-2.784934,-0.218052,-7.993318,-6.076602
1001.558594,-1.241366,-3.304688,2.750555,-4.730728
1001.562500,-9.539976,-1.440473,-5.128409,-6.035848
1001.566406,-7.408297,-7.264950,-6.500211,-9.387639
1001.570312,-6.970833,-2.248779,-12.954887,-4.618371
1001.574219,-12.020358,-7.586978,-10.225501,-8.385670
1001.578125,-20.080334,-5.329240,-11.165592,-13.386691
1001.582031,-8.454160,-9.851691,-10.070866,-12.710694
1001.585938,-10.280241,-11.374597,-6.427668,-14.429378
1001.589844,-3.762592,-1.421646,-9.523187,-5.317667
1001.593750,-6.765920,-7.955938,-5.362741,-5.632578
1001.597656,-7.528796,0.891665,-5.097838,-2.730147
1001.601562,-5.029116,1.493566,0.421727,-1.895778
1001.605469,1.784013,-2.661758,10.813914,1.015239
1001.609375,3.723043,6.938166,9.347590,6.368505
1001.613281,9.397162,2.570543,12.189342,4.895701
1001.617188,8.940684,3.241772,14.371597,19.954422
1001.621094,10.456256,5.603677,16.046303,12.358464
1001.625000,13.350894,9.359446,7.646486,10.836601
1001.628906,12.744309,9.985607,9.491658,10.066353
1001.632812,9.557574,1.184968,6.159085,13.151411
1001.636719,2.306937,6.533421,10.524190,5.988387
1001.640625,11.342283,13.551180,9.453671,-2.102984
1001.644531,-1.579889,1.014159,6.199703,0.689325
1001.648438,-8.227704,-3.586890,8.661135,-7.519909
1001.652344,-4.585883,-4.472368,-4.893741,-7.846838
1001.656250,-6.936052,-6.325064,0.204777,-8.313815
1001.660156,-15.356732,-7.349051,-7.615419,-8.313348
1001.664062,-5.092875,0.621149,-4.915542,-0.880734
1001.667969,-14.459018,-8.527355,-7.749784,-1.485673
1001.671875,-4.260403,-11.662525,-7.831328,-2.620216
1001.675781,-5.984891,-8.124386,-8.726662,-5.738550
1001.679688,-2.772978,-6.832515,-8.857105,-13.440331
1001.683594,-16.022136,-14.225651,-13.010120,-8.555703
1001.687500,-9.876798,-12.028825,-0.966602,-8.801379
1001.691406,-13.420738,-5.856261,-4.374477,-3.306974
1001.695312,-4.580733,-2.635722,-5.676403,-3.187720
1001.699219,2.350444,-2.981997,-5.146219,-0.227812
1001.703125,-0.203665,1.610852,-2.237318,2.838949
1001.707031,6.086755,7.012778,-3.768221,6.944642
1001.710938,12.218358,6.073304,6.717465,10.943951
1001.714844,13.248729,10.221876,12.437124,8.096146
1001.718750,8.360371,9.823541,10.202925,6.009232
1001.722656,3.496055,13.080759,12.326508,18.894887
1001.726562,13.069248,14.554598,9.748855,6.141110
1001.730469,15.245035,13.424070,10.713037,13.709448
1001.734375,8.691855,6.976954,9.096121,9.178592
1001.738281,2.117299,7.690968,5.986244,11.649871
1001.742188,8.555584,4.338281,4.060766,0.777453
1001.746094,3.680461,14.643296,-1.906172,5.037038
1001.750000,-2.840410,-1.191727,7.265694,-1.094730
1001.753906,-2.726023,0.432431,-2.051640,-5.956726
1001.757812,-2.961974,-3.772707,-0.761438,-1.719837
1001.761719,-0.845201,-13.601605,-11.209673,-2.466018
1001.765625,-5.342620,-6.627490,-9.808978,-10.867909
1001.769531,-0.732703,-7.178165,-16.017264,-12.492161
1001.773438,-7.653996,-7.489353,-8.568130,-8.779829
1001.777344,-8.861737,-4.253294,-11.187081,-9.428629
1001.781250,-9.525793,-8.345591,-4.282179,-11.130496
1001.785156,-13.562734,-4.994494,-6.185125,-7.894506
1001.789062,-4.611010,-9.009246,-5.249709,-11.527382
1001.792969,-6.931444,-2.855719,-5.902636,-0.831228
1001.796875,-1.722914,-8.490359,-2.034996,-4.944429
1001.800781,5.895319,-4.356640,2.623083,-4.518197
1001.804688,3.738823,1.704978,1.157839,6.252701
1001.808594,2.203621,4.408543,2.903251,3.960453
1001.812500,9.953698,1.626737,6.264989,8.068146
1001.816406,6.436478,9.412361,7.600907,2.826733
1001.820312,11.500452,10.268402,12.279618,10.594279
1001.824219,10.608862,9.390666,7.637145,9.820646
1001.828125,6.217765,9.117706,9.917804,13.324018
1001.832031,7.800628,4.185455,7.908260,3.873075
1001.835938,10.145014,9.906388,4.900793,4.282381
1001.839844,6.333686,-0.355883,-0.333167,1.522843
1001.843750,4.953495,9.760822,11.524581,5.789501
1001.847656,3.606325,5.230780,1.991109,4.709607
1001.851562,-6.941596,-4.420594,6.602969,-3.675788
1001.855469,-3.888870,-4.159599,0.914546,-6.019568
1001.859375,-2.199627,2.262404,-4.934892,-4.468269
1001.863281,-15.945765,-8.429808,-13.397234,-9.830614
1001.867188,-0.273988,-8.635113,-13.502034,-6.556408
1001.871094,-13.872680,-7.525929,-11.131120,-5.792848
1001.875000,-14.292543,-8.972208,-5.513611,-12.170149
1001.878906,-8.554495,-19.082674,-12.345433,-4.960287
1001.882812,-11.164502,-9.139608,-6.544766,-9.492491
1001.886719,-4.185231,-13.500286,-2.536452,-11.922153
1001.890625,-1.647272,-1.453831,-2.012538,-10.930349
1001.894531,-5.830475,-5.595156,-9.572127,-7.292444
1001.898438,-2.353409,-1.326189,-3.468064,-2.041407
1001.902344,6.181738,-0.869642,-0.857786,10.667527
1001.906250,0.377628,8.120736,2.254702,-2.693358
1001.910156,7.025747,-0.736031,12.444568,12.092880
1001.914062,6.749116,7.133736,7.420294,2.966796
1001.917969,14.204355,18.434577,11.617254,11.265069
1001.921875,10.403650,16.591555,15.500161,8.165494
1001.925781,9.006372,6.263195,7.319702,6.600128
1001.929688,7.976687,6.301921,1.707160,12.774843
1001.933594,7.277241,11.500789,12.034051,10.819454
1001.937500,6.307338,3.441908,6.055327,2.869721
1001.941406,3.315830,2.539442,1.142415,3.358419
1001.945312,-1.725041,7.014390,0.747134,3.046227
1001.949219,-1.274414,-5.231799,-3.891290,6.041401
1001.953125,-1.592599,-2.364377,5.775178,-9.238604
1001.957031,-8.278593,-0.005060,-7.011090,1.993009
1001.960938,-9.895954,-6.011009,-10.787329,-6.756888
1001.964844,-7.874734,-15.225836,-17.050360,-16.394194
1001.968750,-19.335055,-9.282814,-3.908006,-11.122802
1001.972656,-3.911227,-4.869457,-10.777469,-7.611091
1001.976562,-10.812530,-11.866287,-7.367700,-6.206490
1001.980469,-12.675940,-16.602558,-10.266564,-6.457121
1001.984375,-9.746866,-3.906912,-10.706339,-10.280871
1001.988281,-11.928126,-3.684795,3.357938,-9.082302
1001.992188,-0.082233,-9.893232,-6.040821,-3.678035
1001.996094,0.152174,1.790772,-0.303888,-0.902752
1002.000000,7.967956,-2.831005,0.383564,-2.430970
1002.003906,7.831807,2.993553,2.534171,1.291201
1002.007812,5.123465,6.987842,6.955358,4.149793
1002.011719,10.960894,-5.443386,13.252439,5.089177
1002.015625,8.969292,19.055082,4.518000,9.310209
1002.019531,4.138042,6.557603,6.697739,1.342932
1002.023438,14.386933,10.219379,6.605946,13.917695
1002.027344,14.233685,7.850456,9.310888,10.018262
1002.031250,16.586067,9.704537,10.119241,13.208729
1002.035156,-0.673309,8.186555,7.529452,6.643633
1002.039062,6.872611,7.148462,6.324028,4.332829
1002.042969,2.402786,6.968385,2.268240,-2.539116
1002.046875,0.258569,-0.623642,-0.767561,-0.700535
1002.050781,7.170139,0.749911,-0.622967,0.266595
1002.054688,-0.942986,3.640942,-3.509814,-1.873337
1002.058594,-8.484926,1.005195,-6.890701,-8.852760
1002.062500,-5.427299,-6.326384,-1.327907,-14.044218
1002.066406,-11.412939,-7.940910,-6.174331,-9.188632
1002.070312,-9.972147,-4.373420,-8.840070,-8.164808
1002.074219,-4.295359,-8.799569,-5.957643,-6.696778
1002.078125,-10.148586,-6.721180,-7.633866,-13.797978
1002.082031,-12.325734,-8.195419,-16.359513,-13.734868
1002.085938,-11.661298,-4.565868,-3.235423,-7.615696
1002.089844,-3.202448,-4.498884,-2.893680,-10.274512
1002.093750,-6.861496,-6.283680,-2.220170,-4.981816
1002.097656,-0.757017,-10.988105,0.994687,0.243277
1002.101562,-2.744053,6.724260,2.363781,4.923157
1002.105469,-0.042865,2.916660,2.886930,1.443273
1002.109375,1.362755,6.121603,-2.946753,9.505356
1002.113281,4.824675,3.604883,0.820736,4.555376
1002.117188,1.673630,9.377912,10.940103,6.714891
1002.121094,4.735348,3.855283,9.951253,8.609292
1002.125000,2.918159,8.246517,11.764708,7.390228
1002.128906,9.458646,16.504471,12.221938,5.286734
1002.132812,9.601884,11.853453,3.577528,8.761786
1002.136719,8.430905,1.875196,3.894885,4.932277
1002.140625,6.128996,8.385170,-1.374813,8.631831
1002.144531,8.585341,0.438219,0.344515,4.492299
1002.148438,-3.176847,-1.530744,0.582829,-3.160861
1002.152344,1.864973,-4.394704,0.212798,6.136340
1002.156250,-5.751930,5.934451,-8.012065,0.386287
1002.160156,-8.155163,-5.092579,-3.601105,-4.747212
1002.164062,-11.623419,-11.486366,-6.725290,-12.089858
1002.167969,-6.104045,-13.161934,-10.829265,-7.819704
1002.171875,-18.442567,-14.541638,-9.504922,-16.036693
1002.175781,-12.597659,-12.309807,-11.911762,-17.257385
1002.179688,-8.113652,-14.905576,-5.776555,-16.678461
1002.183594,-14.496903,-14.841717,-7.228385,-8.294421
1002.187500,-16.847873,-6.302643,-4.686531,-11.619096
1002.191406,-4.058585,-3.340791,-4.349087,-8.548625
1002.195312,-1.806371,-8.160941,-1.361019,1.360548
1002.199219,5.103327,-8.230038,12.433213,3.247327
1002.203125,-4.744154,4.731838,-1.285085,1.500050
1002.207031,5.945461,6.067222,2.689772,-3.027313
1002.210938,2.796718,10.544561,11.503186,6.132982
1002.214844,5.641900,6.614737,7.025190,7.066791
1002.218750,14.322308,11.542718,7.092193,10.377459
1002.222656,8.382261,7.221028,11.730876,14.882214
1002.226562,13.844757,14.298471,10.994840,9.658106
1002.230469,8.597005,7.331539,11.611197,4.807671
1002.234375,6.895880,13.996084,5.306785,6.118525
1002.238281,1.767655,3.801057,7.071540,5.703069
1002.242188,7.398043,3.577749,5.091957,7.805546
1002.246094,7.367192,6.051261,-7.337325,0.664844
1002.250000,-3.948205,6.213451,-1.261561,-1.389280
1002.253906,-6.659453,-5.633231,-8.339663,-14.767893
1002.257812,-0.666251,-0.377550,-6.493717,-5.710415
1002.261719,-9.401416,-6.942848,-6.478436,-10.649579
1002.265625,-14.132916,-4.365871,-8.411839,-2.815331
1002.269531,-11.085466,-9.030544,-9.951537,-6.264362
1002.273438,-15.698711,-9.385571,-9.060305,-12.401319
1002.277344,-16.569859,-10.630134,-13.993410,-5.231006
1002.281250,-11.979443,-8.631013,-9.033428,-13.063206
1002.285156,-4.134153,-14.300722,-12.840032,-9.048318
1002.289062,-1.520717,-5.240555,-4.729575,-3.276285
1002.292969,0.879932,-0.476761,-6.442909,-8.193078
1002.296875,-6.438489,-3.889535,-4.552805,-3.550432
1002.300781,-10.872499,4.631638,6.458580,0.590330
1002.304688,3.375417,-2.976212,11.779124,-0.316569
1002.308594,7.839949,4.386929,-0.516046,5.977604
1002.312500,6.328503,12.117464,13.494122,2.907343
1002.316406,14.902300,12.375778,12.745546,8.103487
1002.320312,13.477166,6.685910,10.255531,11.302523
1002.324219,9.097125,10.334158,14.349163,11.176732
1002.328125,13.370630,9.606756,13.951332,15.035090
1002.332031,11.550130,16.402351,9.148846,3.959685
1002.335938,16.294703,8.604156,7.341601,7.975813
1002.339844,6.010055,2.618830,0.214812,10.505990
1002.343750,1.548135,9.334383,10.112032,2.108358
1002.347656,0.338216,3.519422,0.722680,-4.876038
1002.351562,-1.150307,-2.022499,-1.976684,-0.872899
1002.355469,-5.960951,5.328264,-0.961004,-7.772003
1002.359375,-12.805845,-4.913086,-10.750920,-6.673157
1002.363281,-11.789877,-7.676489,-3.409361,-12.887931
1002.367188,-7.599758,1.262353,-4.374271,-13.238471
1002.371094,-3.516622,-12.888951,-11.398619,-13.439124
1002.375000,3.164132,-7.641656,-8.594559,-9.773223
1002.378906,-11.881198,-10.422500,-13.289182,-6.206386
1002.382812,-2.131694,-10.643784,-6.953974,-7.751797
1002.386719,-8.892681,-3.750768,-8.859305,-11.541448
1002.390625,-0.216439,-3.267881,-0.843946,-8.668109
1002.394531,-10.573835,-2.995396,-2.261571,-0.578402
1002.398438,-1.365800,-6.168091,-1.201363,-0.083542
1002.402344,6.851475,-0.911204,1.435108,-1.764790
1002.406250,7.561986,11.503735,-2.390547,-2.271882
1002.410156,-1.904920,-2.711875,6.876985,1.958786
1002.414062,17.581895,4.993895,6.553429,5.521397
1002.417969,7.526855,4.600826,11.860110,6.605054
1002.421875,12.561049,10.098773,6.867533,14.642329
1002.425781,6.378263,6.243189,12.378952,6.077757
1002.429688,-0.350070,8.287724,3.919552,11.004912
1002.433594,9.421327,6.137057,9.440311,14.368761
1002.437500,4.547005,8.400858,3.784478,10.841046
1002.441406,5.746718,3.528639,0.071914,5.810087
1002.445312,-0.488329,4.728340,0.534649,5.074884
1002.449219,-1.003741,3.736226,-1.698388,-2.317103
1002.453125,-0.093862,1.464615,-0.239303,-3.300523
1002.457031,2.063714,-10.840789,-3.546656,-7.802854
1002.460938,3.605089,-1.013132,-2.785406,-11.228963
1002.464844,-14.405828,-8.137103,1.946174,-2.021059
1002.468750,-13.315627,-7.557613,-5.724859,-14.498784
1002.472656,-9.289893,-14.072162,-12.348799,-14.549040
1002.476562,-9.566649,-12.670992,-5.674782,0.639280
1002.480469,-11.472651,-11.775888,-12.085280,-8.465261
1002.484375,-12.612264,-10.269409,-9.803639,-12.341731
1002.488281,-13.441153,-2.923252,-6.729380,-7.640616
1002.492188,-2.346795,-4.449213,-1.148838,-5.974024
1002.496094,8.002089,-3.160366,-5.023056,0.914512
1002.500000,-3.273904,-6.615636,5.239039,-2.093117
1002.503906,4.077233,-5.288305,1.421270,-5.071350
1002.507812,5.697467,7.410052,3.114788,-0.726526
1002.511719,6.226658,7.856988,6.035591,4.638113
1002.515625,7.235087,6.682806,7.223523,10.600966
1002.519531,10.418758,9.581574,6.736723,9.616796
1002.523438,5.510391,5.501565,4.017382,5.741382
1002.527344,8.759931,11.439033,10.347943,5.638138
1002.531250,8.984028,11.307820,7.445935,12.444916
1002.535156,4.457019,9.197593,11.781239,10.968886
1002.539062,4.452568,13.536648,12.431977,1.596010
1002.542969,1.699064,9.731824,5.947713,13.330570
1002.546875,-2.221351,8.781841,12.560500,-0.964303
1002.550781,-0.522743,-4.888067,0.728023,-0.824375
1002.554688,-3.544259,0.438421,-5.326556,-13.453812
1002.558594,3.882269,-0.632057,-5.170036,-2.302858
1002.562500,-1.240464,-8.900228,-8.999254,-4.932301
1002.566406,-9.475197,-0.763202,-6.702549,-9.161972
1002.570312,-9.317934,-14.871815,-8.894891,-13.101059
1002.574219,-4.850620,-9.945881,-9.606231,-6.445255
1002.578125,-5.294476,-10.319456,-4.330490,-9.580384
1002.582031,-12.143493,-11.443905,-11.462004,-9.463758
1002.585938,-10.790959,-11.552028,-4.373380,-10.427577
1002.589844,-10.478600,-3.623744,2.467100,-4.932356
1002.593750,-1.923197,-7.722143,-2.214451,-6.049995
1002.597656,-9.359029,-7.159138,4.498996,-2.849542
1002.601562,-2.374662,0.732696,1.498872,-5.643522
1002.605469,-1.353589,7.505826,4.527404,6.797547
1002.609375,3.800047,8.583665,14.130644,7.797398
1002.613281,5.449617,10.441745,7.676536,9.212635
1002.617188,11.320700,8.952060,8.832142,9.665437
1002.621094,7.553037,7.767225,9.215453,8.267458
1002.625000,8.002101,12.154975,16.215854,16.235585
1002.628906,21.507280,8.905337,9.705134,10.273373
1002.632812,18.540604,8.736873,7.167362,9.832375
1002.636719,11.235735,9.782070,3.264686,6.499710
1002.640625,7.622349,5.089418,6.735718,13.226915
1002.644531,2.512022,5.064654,3.895726,-6.291237
1002.648438,-1.758362,6.741973,2.608025,1.977080
1002.652344,-4.020917,-5.867808,-0.884690,-0.540470
1002.656250,-4.206026,-5.053786,3.404610,-7.362715
1002.660156,-5.701322,-4.351603,-6.383627,-4.978873
1002.664062,-8.338250,-4.716035,-1.876580,-5.361531
1002.667969,-12.130778,-7.956428,-9.786536,-8.744883
1002.671875,-11.705479,-8.341773,-10.170694,-2.454782
1002.675781,-9.566049,-9.046322,-5.950418,-11.722751
1002.679688,-6.441950,-8.066779,-16.610968,-7.937320
1002.683594,-10.022614,-4.334088,-16.077967,-5.430812
1002.687500,-13.737934,-1.938529,-5.789222,-9.152972
1002.691406,-3.973419,-9.659934,-3.836168,-7.806545
1002.695312,-9.752084,1.605343,-4.213881,-1.471667
1002.699219,3.849805,5.114074,0.011740,6.770976
1002.703125,1.306605,5.166656,2.867969,9.502183
1002.707031,8.614301,4.038798,5.761637,6.132434
1002.710938,-3.104545,9.250595,13.632127,5.767808
1002.714844,14.786564,6.230086,3.395343,6.826193
1002.718750,6.582700,11.980251,7.946844,10.705865
1002.722656,16.690085,9.570027,13.879064,9.577459
1002.726562,11.886278,10.233528,8.628960,5.240288
1002.730469,13.287256,6.959141,12.055404,11.137362
1002.734375,13.839776,8.330699,7.462887,5.956673
1002.738281,7.508371,3.946886,-0.565223,6.136582
1002.742188,7.840314,4.242610,-0.616617,6.859350
1002.746094,-2.296978,3.637653,2.298964,4.932844
1002.750000,-13.082794,2.917258,0.080887,-1.417044
1002.753906,-0.194889,-4.495937,-6.178462,-5.679601
1002.757812,-4.082040,-4.418175,-3.356467,-6.142331
1002.761719,-6.686726,-12.135135,-8.588318,-0.490948
1002.765625,-5.327872,-13.011547,-9.977445,-2.513746
1002.769531,-10.058715,-13.742311,-13.936218,-13.055242
1002.773438,-7.931663,-12.219865,-10.187091,-8.258369
1002.777344,-13.943595,-10.585782,-13.353445,-9.311302
1002.781250,-7.857919,-13.570519,-13.741325,-13.928549
1002.785156,-4.848712,-9.930630,-7.961684,-8.381343
1002.789062,-3.706921,-5.255019,-8.427596,0.100729
1002.792969,-3.850101,-3.478666,-13.978265,-4.560334
1002.796875,-8.307457,-2.819280,-9.796282,6.540615
1002.800781,-2.523601,-6.711617,-1.202673,4.166024
1002.804688,10.395068,7.329355,4.958602,-2.816126
1002.808594,3.145923,2.376189,3.349286,8.556525
1002.812500,3.553862,7.854532,8.278097,9.634682
1002.816406,6.032303,10.403028,6.115512,4.503028
1002.820312,11.786098,15.644241,11.309680,7.948047
1002.824219,15.853308,12.614910,8.905455,9.303185
1002.828125,10.458623,17.558363,14.691345,7.978066
1002.832031,7.418915,9.140903,9.053481,13.862510
1002.835938,9.894249,-0.790432,8.672266,8.299171
1002.839844,-0.083835,0.052138,2.443658,6.742235
1002.843750,8.807473,9.062011,-0.129504,4.469436
1002.847656,-3.750900,2.974338,5.016929,-3.372096
1002.851562,-5.886101,-3.056205,2.251902,-1.508605
1002.855469,-8.537570,-3.105891,-2.488444,-0.632358
1002.859375,-6.409019,-7.554974,-1.925363,-4.351710
1002.863281,-16.964427,-7.230791,-3.533516,-9.898983
1002.867188,-14.616936,-12.602406,-10.678665,-9.779534
1002.871094,-8.480160,-9.325884,-9.441340,-7.022253
1002.875000,-10.783559,-8.908767,-11.691193,-9.234307
1002.878906,-8.747779,-5.329440,-5.646237,-7.836677
1002.882812,-13.566374,-2.009481,-11.661486,-16.898207
1002.886719,-6.173722,-10.663788,-7.201270,-9.499001
1002.890625,-15.254874,-2.689913,-3.842431,-6.282059
1002.894531,-1.700085,1.923653,4.091482,-2.642705
1002.898438,-4.194492,-8.006893,-3.699439,-4.716313
1002.902344,1.076741,-6.684471,2.514423,8.881425
1002.906250,6.163924,7.791964,1.696881,1.019658
1002.910156,9.313131,2.137399,-0.700466,9.408162
1002.914062,4.417608,6.860974,-0.827202,6.169083
1002.917969,11.426235,12.970036,14.288842,-1.775581
1002.921875,1.366852,14.784885,8.070695,10.750676
1002.925781,9.365217,4.592409,8.238483,10.602154
1002.929688,7.568350,7.649191,3.246530,8.571525
1002.933594,10.276256,2.203101,15.851032,9.607020
1002.937500,4.349295,3.964177,11.334211,6.380063
1002.941406,1.764610,4.683011,5.578180,5.200814
1002.945312,5.987754,3.828809,3.307919,6.923093
1002.949219,-6.897330,6.806254,-2.796992,11.875666
1002.953125,-7.621736,-4.915708,5.528070,-10.272930
1002.957031,1.217864,-2.409365,-5.567644,-1.069608
1002.960938,-7.909339,-14.880088,-6.015760,-4.949889
1002.964844,-6.823818,-6.185109,-14.136480,-10.807318
1002.968750,-4.821140,-12.016310,-0.889550,-12.201565
1002.972656,-10.000077,-11.793215,-12.065701,-11.881156
1002.976562,-9.495290,-11.530388,-2.553660,-3.320887
1002.980469,-6.449827,-2.434592,-10.944353,-8.446423
1002.984375,-5.213877,-4.807671,-7.847259,-8.490197
1002.988281,-8.748662,-7.845172,-3.191717,-6.795790
1002.992188,-3.847226,-5.391252,-2.036122,-2.528643
1002.996094,-6.025944,-2.049416,4.794846,-7.239207
1003.000000,-3.836435,2.736770,-0.862974,-4.193611
1003.003906,0.960393,2.635641,3.996068,13.191875
1003.007812,3.482512,4.936363,-0.287989,1.332971
1003.011719,3.088576,7.929056,4.679756,7.074216
1003.015625,9.477128,14.858714,6.175280,6.046243
1003.019531,6.974843,13.049003,14.095586,16.324316
1003.023438,13.695624,10.140441,11.378543,9.383987
1003.027344,7.248759,3.831237,10.163241,12.222966
1003.031250,8.338684,14.464537,11.920347,7.959897
1003.035156,12.348178,3.486436,-0.327557,2.339995
1003.039062,5.455737,10.673525,8.494607,9.412715
1003.042969,8.688013,0.676725,-1.014466,-2.398250
1003.046875,2.351774,-2.146889,4.035292,1.805922
1003.050781,-8.989592,0.612282,-3.016322,-2.461723
1003.054688,1.872080,-4.844498,-2.499545,-7.604909
1003.058594,2.023614,-8.429251,-6.072137,-6.155332
1003.062500,-5.113619,-8.484658,-12.377868,-10.140841
1003.066406,-4.491580,-11.700599,-5.553586,-9.474228
1003.070312,-6.542619,-2.533661,-16.440452,-11.608048
1003.074219,-3.231647,-11.008028,-21.424825,-9.760858
1003.078125,-4.922244,-10.714444,-21.561117,-9.623094
1003.082031,-3.755157,-7.249727,-8.400602,-6.492108
1003.085938,-8.064968,-2.751918,-11.175621,-7.958017
1003.089844,-4.799199,-10.086796,-3.028972,-3.390520
1003.093750,-4.737129,-9.786908,-8.534849,-5.251967
1003.097656,0.315165,3.702300,-4.396798,-1.898806
1003.101562,-1.507158,-1.790645,-0.876540,0.694629
1003.105469,8.694589,-0.240431,0.993513,-0.367215
1003.109375,3.509256,10.713210,-2.201922,3.029264
1003.113281,7.050125,2.094538,6.033614,7.245200
1003.117188,13.303079,11.036530,10.177849,7.707917
1003.121094,11.663189,1.239641,10.594637,6.467928
1003.125000,9.233911,14.754106,12.415996,9.070349
1003.128906,15.261115,5.916984,8.771256,11.644966
1003.132812,12.086424,6.123186,13.247236,8.370969
1003.136719,5.928999,5.352416,-1.880576,6.181896
1003.140625,10.568591,6.315351,4.799712,8.139345
1003.144531,11.079017,3.945466,2.977681,3.812811
1003.148438,5.847499,-1.358513,-4.144298,4.078955
1003.152344,-7.594458,-6.418716,-3.487781,1.755103
1003.156250,-3.230749,-9.083759,-1.065439,-2.713708
1003.160156,-8.188169,-10.220403,-4.297557,-6.830031
1003.164062,-13.068543,-3.809576,-12.003589,-5.836707
1003.167969,-16.281445,-7.341141,-10.453697,-10.569407
1003.171875,-5.759675,-6.911032,-9.967920,-4.406587
1003.175781,-16.930695,-8.721008,-17.057835,-4.058369
1003.179688,-13.181253,-7.655982,-7.880714,-8.858365
1003.183594,-5.287853,-1.581388,-1.671160,-9.747687
1003.187500,-2.873691,-8.041555,1.951089,-7.538541
1003.191406,-9.629130,-1.086689,-6.112064,-1.717347
1003.195312,-2.036665,0.630378,-8.006511,-4.607406
1003.199219,4.224695,-5.011037,0.950804,3.111745
1003.203125,-1.650345,-2.034538,0.995190,-5.786785
1003.207031,-1.012299,8.835990,1.692117,8.289638
1003.210938,1.014065,6.218924,3.097177,8.132608
1003.214844,9.050120,7.467921,7.212986,8.197750
1003.218750,5.227576,7.608000,13.936329,7.550290
1003.222656,11.103702,11.631816,6.255468,9.142085
1003.226562,11.893176,6.119071,11.141285,10.321570
1003.230469,11.132846,2.654379,2.768828,11.957223
1003.234375,8.510877,10.641745,11.150280,5.594127
1003.238281,17.767123,2.575965,11.120885,17.213849
1003.242188,3.839310,3.846311,5.324641,0.291615
1003.246094,4.912156,4.811582,6.054595,-6.946984
1003.250000,3.184471,-0.491101,-7.112309,-2.708930
1003.253906,5.191274,0.962130,3.624149,-9.144148
1003.257812,-1.050259,-3.968631,-5.021593,-5.195157
1003.261719,-6.362851,-5.638807,-5.600435,3.176203
1003.265625,-2.726720,-5.323858,-11.805033,-0.432279
1003.269531,-13.486427,-10.013370,-10.523813,-4.168345
1003.273438,-14.980220,-8.902071,-12.841923,-11.116311
1003.277344,-10.279660,-5.434260,-9.052815,-11.600956
1003.281250,-6.667916,-12.277484,-4.939267,-13.395857
1003.285156,-15.363790,-8.812866,-9.258037,-9.092794
1003.289062,-11.191239,-2.566003,0.737208,-9.307449
1003.292969,-6.203379,-3.479656,-0.581325,-1.502901
1003.296875,-4.576521,-10.266882,-0.359901,-7.964427
1003.300781,2.269174,1.161188,-2.317199,0.951093
1003.304688,1.219283,6.909239,-7.133314,2.652669
1003.308594,11.386794,1.838507,5.843094,11.198540
1003.312500,12.405441,5.604333,7.938271,13.780129
1003.316406,11.622735,2.360415,10.804933,10.762205
1003.320312,9.565354,9.796492,10.502438,13.406688
1003.324219,15.372766,9.314233,6.385014,0.174508
1003.328125,12.166028,10.295246,2.534634,15.726650
1003.332031,17.586747,10.324628,10.918753,10.885188
1003.335938,3.720282,8.587055,13.019326,6.984754
1003.339844,6.774114,13.339970,7.435507,2.642776
1003.343750,4.085822,4.494089,-0.648503,4.195155
1003.347656,-5.611359,3.967707,-2.229444,-1.480284
1003.351562,3.062298,0.885497,0.811783,3.360897
1003.355469,-3.343892,-3.694763,-5.908264,-4.453153
1003.359375,-3.775435,-4.908932,-1.214969,-12.153719
1003.363281,-12.847988,-10.975873,-15.063904,-9.340724
1003.367188,-9.047892,-16.699554,-14.627057,-8.711697
1003.371094,-15.007623,-2.929888,-13.567404,-14.191032
1003.375000,-9.768480,-9.321286,-4.848788,-22.244961
1003.378906,-3.939072,-10.674473,-16.472878,-11.036796
1003.382812,-10.464440,-1.612057,-12.662063,-6.569735
1003.386719,-7.416378,-6.431172,-10.862233,-1.591823
1003.390625,-5.537816,-7.957829,-4.698459,-11.822267
1003.394531,0.585267,-3.384902,-0.368393,-8.513803
1003.398438,1.117719,-1.824909,-1.927050,-1.658237
1003.402344,-1.679721,0.078105,2.608453,-2.689451
1003.406250,7.693439,-1.415529,-0.214543,-2.559632
1003.410156,8.164257,13.188616,13.563055,-1.312226
1003.414062,4.108228,4.110158,10.722115,7.863884
1003.417969,7.501190,10.361676,7.019843,7.847524
1003.421875,8.114779,9.265683,4.137772,17.876639
1003.425781,8.405704,6.342724,10.130146,11.700393
1003.429688,14.172695,5.099990,10.573217,14.283220
1003.433594,7.210956,11.172887,13.075985,7.866154
1003.437500,7.489372,4.061276,9.898525,1.973831
1003.441406,4.303918,5.630614,2.086584,2.463871
1003.445312,-0.048783,1.349645,2.630196,-3.789194
1003.449219,9.063641,-2.717053,0.289559,3.857271
1003.453125,-1.343616,-5.668666,-1.691690,-5.034234
1003.457031,-2.898424,-3.669982,-3.459756,-3.720174
1003.460938,-2.137091,-9.747495,1.785986,-13.026634
1003.464844,-5.085018,-11.156022,-10.902237,-12.330422
1003.468750,-16.149364,-10.828016,-9.425175,-1.527832
1003.472656,-7.567229,-15.362280,-9.721000,-6.476678
1003.476562,-8.221796,-6.085056,-0.934837,-7.803445
1003.480469,-14.788811,-4.364382,-9.191345,-7.975179
1003.484375,-14.499787,-13.645639,-6.408053,-6.789054
1003.488281,-2.568956,-6.425155,-13.742385,2.805417
1003.492188,-0.661932,-5.882909,-0.489558,-5.072733
1003.496094,5.230342,1.246176,-1.571482,5.498832
1003.500000,-2.118013,0.678849,7.975818,-2.109481
1003.503906,-2.998218,2.494642,2.404085,1.361547
1003.507812,9.037779,0.445581,1.340185,18.273927
1003.511719,3.876092,4.223279,10.928635,7.016736
1003.515625,16.633021,1.561219,10.270866,6.082783
1003.519531,14.021561,6.260792,6.865503,7.981825
1003.523438,11.234171,8.327209,17.186096,11.913613
1003.527344,8.422948,7.605360,10.683978,13.306928
1003.531250,1.822156,8.423196,1.445889,8.163786
1003.535156,3.708907,2.171520,4.648456,8.415312
1003.539062,8.303610,3.468557,10.503318,6.118425
1003.542969,-1.000349,6.353372,1.361833,-0.344352
1003.546875,0.000983,0.166646,0.808486,2.928811
1003.550781,-4.207210,-0.335541,-1.325707,2.017515
1003.554688,-6.670822,-3.638288,-7.480516,-1.853226
1003.558594,-1.530701,-2.630587,-8.456432,-3.937570
1003.562500,-14.729517,-5.036636,1.951357,-13.495242
1003.566406,-3.781756,-8.148737,-9.980112,-7.965558
1003.570312,-13.785550,-6.537084,-9.798962,-8.487865
1003.574219,-10.612507,-10.334867,-11.403481,-12.105044
1003.578125,-2.116786,-8.405696,-12.032872,-11.082962
1003.582031,-8.459889,-4.286361,-14.479731,-1.789217
1003.585938,-5.210958,-10.497659,-5.469159,-2.896403
1003.589844,-5.808271,-6.904155,-9.524685,-2.079926
1003.593750,0.754909,-6.567731,-3.534127,-6.603745
1003.597656,-4.710431,-0.334529,-7.590012,1.935170
1003.601562,4.081508,8.391050,0.858134,2.009166
1003.605469,0.017779,8.895192,1.294555,7.048390
1003.609375,11.858189,11.812816,7.452757,1.646447
1003.613281,11.042878,10.173255,7.389508,6.813244
1003.617188,5.468001,0.387614,10.405512,7.336745
1003.621094,12.328992,6.767933,7.819333,9.052363
1003.625000,15.068438,7.019038,11.423809,8.728552
1003.628906,12.564432,9.520381,15.398765,10.649803
1003.632812,1.990557,5.546572,9.135308,1.362104
1003.636719,8.513321,6.172968,7.132634,7.138928
1003.640625,12.647373,14.287571,0.767466,0.963837
1003.644531,2.904467,4.027547,2.498305,8.764987
1003.648438,0.063290,-4.783389,5.198408,2.597658
1003.652344,-1.752608,-4.250363,3.132060,-4.852933
1003.656250,0.737117,-3.079572,-2.683501,-3.625458
1003.660156,-3.455191,-1.476680,-0.925057,-3.527243
1003.664062,-9.476484,-14.372368,-4.462242,-5.091917
1003.667969,-6.358777,-2.114030,-12.591908,-11.680198
1003.671875,-6.454143,-10.342254,-10.112308,-2.175315
1003.675781,-8.962900,-5.283230,-6.288391,-10.774985
1003.679688,-9.554173,-12.240622,-4.708387,-11.924500
1003.683594,-2.513952,-6.353027,-2.191754,-7.267255
1003.687500,-0.431082,-3.751533,-4.819095,-10.079760
1003.691406,-8.730219,-8.999695,-5.997826,-11.174580
1003.695312,-2.705597,-3.382272,-2.177969,-3.252257
1003.699219,-1.686387,-5.054657,3.397181,-4.146446
1003.703125,-1.889644,-2.459193,3.082737,0.704438
1003.707031,-3.924921,4.554173,7.713141,3.957530
1003.710938,5.519088,4.905467,6.890978,3.947657
1003.714844,1.967350,8.933725,10.320906,9.933690
1003.718750,9.573009,3.301188,9.959330,13.464687
1003.722656,5.507373,8.068816,11.067076,13.758878
1003.726562,5.994425,12.529953,13.161120,10.299403
1003.730469,6.270079,9.585042,13.298489,2.752138
1003.734375,-3.790589,7.848753,9.434543,1.665708
1003.738281,9.643196,11.060736,8.963434,7.199786
1003.742188,7.710921,1.346186,-2.946910,6.998090
1003.746094,2.650474,-3.000334,0.710845,0.415380
1003.750000,4.233702,-1.662767,0.461450,0.829305
1003.753906,1.969620,0.956519,-10.456112,0.268955
1003.757812,-10.744790,-9.321583,-9.016672,-4.396633
1003.761719,-15.134873,-7.997688,-6.044978,-0.259604
1003.765625,-12.001237,-3.405315,-9.341316,-12.520944
1003.769531,-13.180076,-12.667907,-11.635601,-13.205265
1003.773438,-6.151317,-9.256754,-10.406270,-9.258712
1003.777344,-9.246737,-10.171349,-12.487945,-7.699913
1003.781250,-8.918763,-1.184505,-7.447772,-17.414813
1003.785156,-4.419241,-14.371457,-12.826780,-2.480343
1003.789062,-6.744129,-10.488969,-13.704475,-5.238834
1003.792969,0.678918,-5.737608,-1.475594,-2.163364
1003.796875,-1.432045,0.017515,-6.745968,3.044833
1003.800781,0.872870,0.430745,-0.828726,-2.537047
1003.804688,-4.417825,-0.911314,1.515085,0.129925
1003.808594,10.574517,1.412264,2.665758,-3.117987
1003.812500,-0.499598,0.122990,7.057938,11.875549
1003.816406,6.826038,10.697397,13.166435,5.489675
1003.820312,16.016610,9.031979,6.787429,9.378149
1003.824219,9.822170,6.968154,8.675774,5.886214
1003.828125,13.675691,13.815289,8.092061,7.075374
1003.832031,4.062156,6.837397,11.415669,7.937042
1003.835938,0.772645,10.189946,8.659608,7.108506
1003.839844,7.182575,10.738234,11.155509,13.378873
1003.843750,7.570589,1.037131,7.444254,5.663705
1003.847656,1.263157,0.994220,3.403710,0.238584
1003.851562,-1.004765,1.523032,-4.672342,-0.856192
1003.855469,-5.920844,-3.298746,-3.680819,-1.185507
1003.859375,-11.261242,-4.737478,-10.875142,-17.396215
1003.863281,-9.958666,-13.135532,-14.478277,-2.404938
1003.867188,-10.797000,-6.879010,-5.629043,-9.542527
1003.871094,-9.046335,-5.996304,-9.187133,-8.679505
1003.875000,-7.700851,-6.319204,-15.186266,-6.911421
1003.878906,-11.424983,-8.049154,-16.896652,-9.463904
1003.882812,-12.894307,-11.995124,-15.361962,-5.608835
1003.886719,-15.216560,-5.720264,-5.037835,-7.047454
1003.890625,-7.087476,-2.045657,-9.413320,-1.421770
1003.894531,-14.467755,-1.019265,-4.301925,-2.797030
1003.898438,5.150214,5.390068,-1.415225,1.894977
1003.902344,-4.505594,4.005223,1.085936,0.924750
1003.906250,1.937019,4.584759,1.798538,10.442711
1003.910156,7.437864,3.506550,6.198836,5.095517
1003.914062,8.879113,9.259160,3.545195,7.990632
1003.917969,10.731957,12.843240,1.269057,8.547258
1003.921875,6.916449,6.036387,14.814328,11.871320
1003.925781,11.921013,3.450272,11.357655,6.345869
1003.929688,6.353559,7.035647,12.212584,6.798183
1003.933594,11.021477,9.129603,12.636810,6.969175
1003.937500,2.217952,6.719903,14.823911,12.915637
1003.941406,1.638786,5.309697,5.987661,6.128293
1003.945312,2.996463,3.936473,2.470126,-0.827728
1003.949219,1.568933,-4.062252,-1.341454,3.964338
1003.953125,2.044373,-2.080147,-6.230285,0.217420
1003.957031,-3.465190,-4.029665,-6.235675,-6.482245
1003.960938,-10.565970,-15.638697,-0.858435,-2.230798
1003.964844,-9.444190,-10.369648,-2.604252,-5.130836
1003.968750,-14.199023,-10.533621,-6.479335,-11.897696
1003.972656,-7.580691,-8.992475,-16.646015,-16.372269
1003.976562,-2.817058,-11.604943,-9.485646,-6.568670
1003.980469,-8.363445,-18.930051,-3.249711,-11.847699
1003.984375,-17.335303,-6.864919,-9.608060,-8.130925
1003.988281,-6.918173,-7.366712,-15.997401,-7.820333
1003.992188,-7.218334,-0.467471,-4.706199,-5.434502
1003.996094,-9.940035,4.548018,-4.106348,-3.050535
1004.000000,6.386782,-1.337409,1.931991,0.361851
1004.003906,0.202148,6.269853,7.036975,5.174641
1004.007812,5.814948,9.844966,14.671272,1.548837
1004.011719,2.165430,7.467380,5.869253,0.703216
1004.015625,15.742521,15.051209,5.174381,4.497591
1004.019531,7.843269,12.035401,9.093894,11.983738
1004.023438,7.560569,5.428340,3.678791,10.917397
1004.027344,8.608648,6.324876,11.435979,5.988193
1004.031250,11.426971,8.259946,7.882869,3.140528
1004.035156,10.648231,5.716857,5.193107,17.534592
1004.039062,5.675750,1.822150,7.063934,5.177952
1004.042969,1.554931,5.027302,3.902253,7.005589
1004.046875,-1.270262,-3.436511,8.931337,5.662230
1004.050781,-0.150725,5.344827,-6.371529,-1.644053
1004.054688,-0.450359,-0.208715,-9.954926,-1.875233
1004.058594,-13.514383,-3.078712,-8.833033,-4.410227
1004.062500,-2.466633,-4.895826,-8.040444,-6.886386
1004.066406,-5.291662,-8.983917,-6.733498,-7.940260
1004.070312,-9.508399,-12.517315,-11.959331,-5.090882
1004.074219,-4.334024,-15.935610,-9.136748,-9.869774
1004.078125,-4.857339,-10.111292,-7.966060,-11.995040
1004.082031,-2.243669,-10.006487,-6.772559,-1.975577
1004.085938,-8.816292,-7.888551,-4.942728,0.493620
1004.089844,-5.856294,-8.740262,2.210438,-5.189745
1004.093750,-2.945277,-2.489657,-4.105599,2.345011
1004.097656,1.409595,0.767917,-3.667315,-5.290039
1004.101562,2.267917,1.331054,3.330445,0.297256
1004.105469,5.792885,-1.251369,1.751482,5.765496
1004.109375,2.229854,7.508186,-3.968858,4.790246
1004.113281,5.044030,11.488612,2.657588,10.235098
1004.117188,7.340901,7.645678,12.634389,10.130233
1004.121094,10.467331,6.921194,10.292268,7.708699
1004.125000,7.294009,13.638293,4.588479,15.338545
1004.128906,8.824703,9.802915,6.290631,12.596193
1004.132812,16.778798,13.613954,11.364930,8.790950
1004.136719,-1.630650,7.038942,-0.407683,8.651820
1004.140625,9.283315,4.045586,1.612193,5.880001
1004.144531,-0.013598,-3.312410,-4.008040,3.278068
1004.148438,-5.171813,3.978587,-2.608198,0.706000
1004.152344,1.827150,-9.015793,-4.665656,-1.636327
1004.156250,-2.749490,-4.291914,-9.321405,-4.840945
1004.160156,-18.254022,-8.355572,-9.837416,-0.066209
1004.164062,-8.354605,-10.913981,-11.631218,-4.308214
1004.167969,-0.567686,-9.501124,-7.419710,-9.779439
1004.171875,-18.038718,-2.231123,-9.556156,-12.479391
1004.175781,-12.024077,-12.905416,-12.737006,-11.616500
1004.179688,-16.950133,-7.804474,-11.679530,-11.269168
1004.183594,-9.718740,-4.233901,-2.629868,-11.093647
1004.187500,-8.620332,-5.009238,-9.664528,-8.188961
1004.191406,-3.007689,-6.036516,-1.369675,-10.827764
1004.195312,5.215384,-10.130135,-8.292762,-2.542938
1004.199219,-0.039303,-0.213024,3.329744,4.113367
1004.203125,1.761363,0.936192,-7.683558,0.750314
1004.207031,3.038193,2.039781,11.195621,11.523648
1004.210938,11.805588,6.032421,7.076994,0.922430
1004.214844,6.733337,7.222924,11.620474,5.236454
1004.218750,9.684712,10.199904,8.675728,11.220061
1004.222656,4.637086,11.977626,7.335956,12.485549
1004.226562,19.542083,5.408124,9.370394,20.071523
1004.230469,14.033949,7.812837,5.402583,9.361958
1004.234375,7.584889,9.573944,12.090921,6.200637
1004.238281,4.209469,8.571324,2.165231,7.361523
1004.242188,5.023621,-3.376987,-0.176713,5.114328
1004.246094,4.307166,-1.119911,9.372166,1.372699
1004.250000,-4.597721,-1.526149,-7.757104,5.891090
1004.253906,-1.303141,-5.745371,-0.994429,-0.490163
1004.257812,0.692970,4.453593,-1.388576,-0.143992
1004.261719,-10.000854,-9.394978,-7.670342,-10.552243
1004.265625,-15.938472,-11.533848,-11.059791,-3.395755
1004.269531,-9.235369,-16.468380,-16.627533,-11.835458
1004.273438,-9.170896,-9.790964,-11.357453,-8.112943
1004.277344,-8.514278,-7.501600,-4.006903,-11.827974
1004.281250,-13.101539,-15.924667,-5.771284,-12.025261
1004.285156,-9.837729,-13.658370,-9.514087,-6.384482
1004.289062,-7.478802,-1.885896,-4.273458,-9.211809
1004.292969,-8.152828,-5.526663,-5.472734,-6.349250
1004.296875,-2.079016,-3.827118,4.095197,-2.507254
1004.300781,0.532822,2.685203,-0.353321,0.089351
1004.304688,0.296235,4.321627,3.245964,2.427955
1004.308594,11.035253,2.347083,1.655698,1.440911
1004.312500,1.940606,8.705107,12.559890,14.948325
1004.316406,9.561301,15.195265,2.972784,-1.863857
1004.320312,12.378517,15.682808,14.264380,10.050582
1004.324219,13.886046,11.263181,11.108153,7.303806
1004.328125,8.716622,5.575764,13.904650,17.481010
1004.332031,8.527256,13.352105,11.256259,4.010012
1004.335938,6.405276,13.156303,9.565415,7.471912
1004.339844,6.948773,3.005718,7.250137,5.333855
1004.343750,3.295782,5.158115,6.441656,7.444968
1004.347656,5.165898,-0.649792,1.013212,6.393880
1004.351562,-7.361522,-4.386728,4.342949,-2.448449
1004.355469,-3.560779,-6.247261,-4.088035,-2.974221
1004.359375,-5.263152,-9.208545,0.511149,-8.590970
1004.363281,-0.307728,-7.322581,-6.221477,-6.592254
1004.367188,-8.129258,-5.457893,-6.825810,-5.217016
1004.371094,-7.911610,-3.165549,-9.639177,-11.669183
1004.375000,-14.878157,-10.386766,-15.312909,-8.430453
1004.378906,-4.923885,-14.647065,-8.025870,-6.127552
1004.382812,-3.359906,-14.852171,-7.946711,-0.382977
1004.386719,-8.314239,-2.006505,-9.699737,-9.772299
1004.390625,-0.272039,-4.287387,-6.814056,-4.537487
1004.394531,-8.805285,2.582323,-2.288835,0.764615
1004.398438,-1.379992,-0.487134,-0.158866,-4.805102
1004.402344,1.738443,0.550434,4.247797,1.542591
1004.406250,4.161195,9.651342,3.544754,2.450529
1004.410156,1.504016,4.841621,5.756115,1.099384
1004.414062,10.891322,8.400229,9.359104,12.116363
1004.417969,10.386956,3.739637,8.404431,12.015840
1004.421875,5.128436,13.386751,7.430964,11.982638
1004.425781,9.366939,13.542871,7.006810,9.692806
1004.429688,2.628428,5.963527,13.347718,15.878630
1004.433594,9.887433,9.041503,10.750472,9.654934
1004.437500,3.989830,1.115536,7.264796,11.421594
1004.441406,-3.703846,-0.462629,0.313753,1.749351
1004.445312,-2.185623,4.082699,4.925695,8.231493
1004.449219,0.535988,-2.121751,-4.781247,-0.305792
1004.453125,2.823341,3.875408,-1.081310,-2.942202
1004.457031,-5.564439,-7.148003,-0.399965,-7.518401
1004.460938,-10.150187,-3.750289,-0.022877,-5.071751
1004.464844,-11.543246,-7.350947,-8.455129,-9.950700
1004.468750,-8.991986,-9.824105,-8.742706,-8.852349
1004.472656,-12.479710,-9.251731,-10.459312,-9.174616
1004.476562,-9.201989,-6.984377,-14.591233,-9.903009
1004.480469,-9.496468,-6.862844,0.038167,-7.654093
1004.484375,-14.117010,-8.444750,-6.511613,-6.907385
1004.488281,-1.731598,-5.442796,-3.858094,-6.886077
1004.492188,-5.997010,-2.353557,-1.715738,4.887128
1004.496094,-6.554610,3.478989,-0.667759,-2.243748
1004.500000,2.573073,-2.134213,7.825717,-6.650710
1004.503906,-8.023788,-2.771635,1.220969,-3.303366
1004.507812,3.828269,1.545721,9.304736,11.049391
1004.511719,16.135095,4.967398,5.451322,6.655317
1004.515625,17.879828,8.268914,9.129929,7.650186
1004.519531,1.817361,12.132231,3.207830,11.085968
1004.523438,7.684632,14.518274,16.051317,17.470370
1004.527344,13.307524,7.224449,15.768467,15.453546
1004.531250,6.970819,10.022161,10.799893,4.737851
1004.535156,15.477381,10.580250,1.646321,10.295021
1004.539062,4.631726,9.389876,-0.213782,7.304752
1004.542969,7.253822,6.528547,4.982751,-1.119352
1004.546875,-2.485190,-2.788157,-2.746076,3.525351
1004.550781,-2.824037,0.453201,-5.229835,6.567600
1004.554688,-1.572597,-1.989936,-1.249135,-5.356929
1004.558594,-7.808668,-9.340816,-7.794034,-8.505452
1004.562500,-5.382826,-9.445509,-8.731763,-6.612256
1004.566406,-15.025908,-12.898413,-9.856643,-8.256488
1004.570312,-5.358667,-11.209439,-9.072396,-12.263682
1004.574219,-12.717418,-8.216665,-9.394768,-13.805373
1004.578125,-12.886580,-12.220999,-10.448451,-12.287667
1004.582031,-18.558014,-10.705909,-12.568973,-6.424785
1004.585938,-3.465953,-7.317619,-9.023649,-10.268763
1004.589844,-7.504511,-2.480047,-4.702204,-1.005849
1004.593750,-10.338630,-4.730860,-3.626722,-7.038528
1004.597656,-1.047193,-0.610870,2.075547,-7.252849
1004.601562,0.450434,0.524849,-1.905647,0.426154
1004.605469,-6.026245,-2.669010,5.468209,3.412498
1004.609375,0.443308,8.955513,-0.235897,9.905515
1004.613281,4.121560,4.080763,7.052165,8.751568
1004.617188,6.131017,7.107161,5.300830,14.879652
1004.621094,5.124414,5.094117,12.622097,6.938447
1004.625000,6.866994,7.092437,11.042133,11.005730
1004.628906,13.218768,12.274243,5.340943,8.402222
1004.632812,14.335698,8.558864,8.518339,6.607021
1004.636719,0.951587,2.715836,7.614230,3.679663
1004.640625,0.305752,0.284279,7.826474,9.309367
1004.644531,3.884557,2.946128,5.667280,6.460568
1004.648438,4.681994,-2.966710,-0.689032,2.232479
1004.652344,-8.305620,-3.679251,7.751377,-3.065743
1004.656250,-4.088014,-7.369311,0.472775,-10.230415
1004.660156,-5.983409,-2.046738,-0.362539,-9.017648
1004.664062,-10.209558,-0.496593,4.134131,-6.224440
1004.667969,-11.671915,-10.986833,-7.406050,-9.913181
1004.671875,-9.158639,-11.908685,-3.751471,-3.526452
1004.675781,-8.477837,-9.063440,-9.244701,-14.832127
1004.679688,-15.323801,-7.615190,-13.126765,-8.407195
1004.683594,-9.579141,-5.958236,-6.085711,-4.879704
1004.687500,-13.215005,-13.751543,-8.153013,-5.172550
1004.691406,-5.997139,-2.448518,-11.315583,-7.772226
1004.695312,-2.094009,-0.628458,-5.518815,-2.480582
1004.699219,-0.568648,-0.992515,-1.247325,2.231013
1004.703125,2.729872,4.444674,5.385307,1.456738
1004.707031,14.964759,-7.036839,3.839460,5.370585
1004.710938,5.393365,1.501596,4.792227,8.614820
1004.714844,6.899135,2.848847,0.963922,4.588214
1004.718750,10.705058,8.264112,7.296225,4.067701
1004.722656,8.417211,10.208287,13.559660,7.312450
1004.726562,8.661544,5.655080,8.508397,4.223109
1004.730469,6.284998,6.296203,6.319754,15.386339
1004.734375,18.888544,14.196232,10.683576,7.817966
1004.738281,9.853798,10.908906,8.371201,7.430223
1004.742188,-2.783994,6.116397,2.888449,7.569026
1004.746094,1.640297,2.762394,3.943118,-3.024102
1004.750000,0.786899,-2.763763,-7.145641,0.491233
1004.753906,-7.693379,-0.984260,-1.128472,3.650846
1004.757812,-5.239811,4.853458,-3.486365,1.656476
1004.761719,-14.170605,-7.714724,-7.339353,-2.611253
1004.765625,-14.010906,-3.425235,-9.552483,-15.894819
1004.769531,-18.267100,-9.481860,-13.297678,-1.897660
1004.773438,-8.118126,-5.282945,-15.615168,-12.923034
1004.777344,-8.118829,-6.791823,-7.311701,-5.022199
1004.781250,-10.792025,-15.225923,-4.993263,-10.553022
1004.785156,-9.866266,-9.658685,-4.784517,-7.547423
1004.789062,-7.749518,-10.269237,-2.109726,-2.672055
1004.792969,-7.125550,-7.758692,0.990402,-7.467604
1004.796875,0.809164,-1.204823,-4.457490,-2.802049
1004.800781,-2.373497,-4.371573,-7.425737,-0.414423
1004.804688,6.365699,7.750324,1.987493,0.972757
1004.808594,9.636666,5.625791,12.351464,10.328731
1004.812500,11.323395,1.185399,7.442463,1.558875
1004.816406,7.482839,-1.001290,7.329328,4.813132
1004.820312,9.627646,6.093056,3.925299,7.986560
1004.824219,14.393590,6.839168,1.721355,9.468415
1004.828125,11.979277,10.856912,10.823470,11.140160
1004.832031,6.804776,9.035134,8.424161,9.198108
1004.835938,5.215487,8.274342,18.228858,8.233357
1004.839844,11.010734,11.365993,2.662007,5.118312
1004.843750,-1.361153,3.818489,11.961966,-1.180809
1004.847656,-1.506035,0.366227,5.348721,7.972434
1004.851562,3.238241,0.028964,2.015547,-2.888757
1004.855469,0.084397,-0.937799,-3.262390,-4.796067
1004.859375,-14.113940,-1.855708,-11.319247,-6.664679
1004.863281,-11.927357,-4.797043,-4.678003,-3.719767
1004.867188,-12.102715,-4.951389,-5.874966,-11.154394
1004.871094,-4.422051,-6.946849,-3.750441,-20.559160
1004.875000,-2.847850,-7.761943,-7.951846,-10.849280
1004.878906,-8.591036,-11.132264,-11.031284,-8.066465
1004.882812,-4.963616,-6.496385,-8.648956,-10.036879
1004.886719,-11.209524,-7.316179,-10.567750,-7.926165
1004.890625,-12.933932,-4.910531,-2.653660,-7.409382
1004.894531,-1.284137,-2.858713,-7.777348,-10.404604
1004.898438,-1.515842,-3.690742,-3.417848,-5.366014
1004.902344,4.688405,0.556467,7.600679,4.405573
1004.906250,-8.634643,0.924703,10.278458,-1.163452
1004.910156,6.574214,4.636366,6.480901,3.998993
1004.914062,2.607646,8.844103,12.411338,4.686480
1004.917969,11.454098,3.172178,6.491653,5.021820
1004.921875,6.870884,8.427811,10.161914,7.577577
1004.925781,13.587572,2.696979,15.393811,14.077967
1004.929688,12.839639,5.750360,15.124499,14.405924
1004.933594,2.160760,7.559998,9.686551,11.634952
1004.937500,2.421726,5.220374,2.295842,7.861872
1004.941406,4.560411,16.517315,5.351740,4.427305
1004.945312,3.951236,2.498278,3.171323,3.048577
1004.949219,1.951621,4.618714,-2.668111,4.834077
1004.953125,5.646908,-4.010509,-1.316350,-4.252306
1004.957031,-0.526356,-11.209015,-0.217574,-0.113821
1004.960938,-6.506590,-12.418046,-12.745168,0.227301
1004.964844,-12.328791,-7.362611,-7.806747,-6.060438
1004.968750,-7.424018,-6.021785,-7.324787,-9.076958
1004.972656,-4.373699,-6.297298,-10.909908,-15.416529
1004.976562,-7.314552,-5.735575,-3.985915,-8.450696
1004.980469,-15.338690,-15.445466,-8.236105,-10.621087
1004.984375,-12.227404,-7.790589,-13.249328,-12.538904
1004.988281,-6.786628,-3.106539,-2.662804,-6.436143
1004.992188,-6.358916,-5.952471,-9.904887,-10.189793
1004.996094,6.790455,-2.954478,-0.243080,-7.084342
1005.000000,2.109994,0.864499,-1.788328,3.557314
1005.003906,-0.267580,-1.555806,1.278399,1.221703
1005.007812,2.598456,10.152389,7.761842,3.250585
1005.011719,11.106495,2.729847,4.907956,7.341483
1005.015625,9.163824,9.068522,6.470357,9.774433
1005.019531,7.026408,10.589313,3.027957,-1.126747
1005.023438,13.171405,-3.189437,4.520795,10.816058
1005.027344,6.959444,9.748900,10.627041,5.339173
1005.031250,8.029481,7.128476,3.430952,12.447850
1005.035156,10.074484,10.622210,5.379122,7.205270
1005.039062,6.575745,10.402703,7.446130,8.094035
1005.042969,8.830672,6.938109,4.441051,5.634777
1005.046875,-3.110876,-2.148929,-1.048123,3.893157
1005.050781,5.345914,-0.288402,0.070322,-1.908086
1005.054688,1.464051,-6.155252,-6.076077,-3.287047
1005.058594,-3.351049,-1.027764,-2.343284,-2.831730
1005.062500,-5.202956,-7.501772,0.809758,-8.168676
1005.066406,-10.099928,-2.956278,-2.962616,-5.308454
1005.070312,-3.138019,-1.017545,-6.938841,-15.192076
1005.074219,-15.880052,-5.926220,-7.131713,-9.870903
1005.078125,-12.640690,-10.718052,-13.491512,-8.145040
1005.082031,-6.955374,-14.740962,-9.845386,-13.639017
1005.085938,-6.826466,-5.215543,-7.865771,-18.212710
1005.089844,-9.686569,0.504695,-6.580024,-6.734736
1005.093750,-3.417491,1.882629,-8.761720,-1.155501
1005.097656,-9.181553,1.137617,8.237397,-6.279796
1005.101562,-0.412330,0.489241,-3.099986,-0.205255
1005.105469,5.270377,-0.255669,2.524012,4.660062
1005.109375,2.754511,3.377833,11.104571,7.193275
1005.113281,8.405649,11.524313,5.551162,11.492621
1005.117188,11.996988,1.979363,11.706808,8.506218
1005.121094,12.109680,14.410928,6.661879,6.898701
1005.125000,9.047819,12.854637,15.106489,17.591906
1005.128906,9.919253,5.534320,17.549189,5.224734
1005.132812,11.408367,12.375473,3.609103,10.525053
1005.136719,8.515836,11.123595,12.527688,11.739198
1005.140625,1.090846,8.864234,5.435434,10.034922
1005.144531,6.752292,1.608969,10.621191,-3.173769
1005.148438,-1.031154,-4.872690,4.730016,2.176924
1005.152344,-6.103391,1.450742,-1.581176,1.534908
1005.156250,-1.151785,-4.192918,-3.907668,-3.324992
1005.160156,-8.525627,-3.724429,-4.282499,-0.744923
1005.164062,-8.206051,-10.221221,-10.044320,-1.219519
1005.167969,-15.993579,-11.602780,-14.879139,-15.527809
1005.171875,-10.464696,-14.893234,-13.216481,-9.231190
1005.175781,-12.356377,-5.729197,-13.900139,-9.691477
1005.179688,-10.126088,-5.748403,-15.451372,-13.923979
1005.183594,-1.791677,-9.615746,-7.053494,-15.134756
1005.187500,-0.186796,-6.934792,-6.100662,-12.969444
1005.191406,-5.430608,-3.128565,-4.911721,-6.535550
1005.195312,4.241038,-5.904204,-10.666739,-3.689528
1005.199219,0.862315,-0.659767,5.897208,0.956846
1005.203125,1.793233,-0.908765,8.545150,-9.686481
1005.207031,11.696646,8.408686,6.028375,-4.358999
1005.210938,7.401695,5.973530,-0.511728,5.006397
1005.214844,15.984075,9.269989,11.330012,8.131373
1005.218750,11.502093,7.226897,7.335019,9.917241
1005.222656,14.194619,12.770459,8.075262,10.772208
1005.226562,13.343260,7.795500,11.748701,0.061330
1005.230469,10.315909,13.711624,9.478734,18.373506
1005.234375,11.137742,10.830186,13.062253,3.362859
1005.238281,6.480023,5.939719,9.292686,8.467656
1005.242188,0.129447,3.639833,7.896278,1.853815
1005.246094,9.801020,2.323255,0.954701,3.032013
1005.250000,-0.908244,-7.734120,-4.845456,-2.168550
1005.253906,-2.267554,1.066531,-1.394035,5.559764
1005.257812,-6.326715,-7.547410,-5.523410,-7.138601
1005.261719,-10.249130,-8.350574,-2.121025,-3.868370
1005.265625,-9.763609,-5.017904,-4.300273,-8.800019
1005.269531,-11.394247,-10.593364,-2.400086,-10.747647
1005.273438,-13.601668,-10.651221,-11.573535,-12.951187
1005.277344,-8.749527,-2.582837,-7.411709,-13.690250
1005.281250,-10.132821,-12.296243,-14.025275,-4.104032
1005.285156,-11.810451,-11.116042,-8.679087,-12.191298
1005.289062,-10.934228,1.727124,-7.268242,-5.073831
1005.292969,-6.481224,-4.664032,-0.316649,-0.509512
1005.296875,-3.993455,2.547687,-0.222775,-0.903101
1005.300781,-1.143991,1.357470,2.018936,-2.374798
1005.304688,6.199463,2.188425,1.763588,6.735197
1005.308594,12.977919,8.120115,1.938834,7.050564
1005.312500,8.054107,9.429135,7.307816,8.063121
1005.316406,6.523223,14.425709,4.258277,6.820623
1005.320312,14.069719,13.963748,15.139872,4.350316
1005.324219,10.941463,6.461011,12.579079,8.157426
1005.328125,7.615702,11.603801,13.805095,11.281294
1005.332031,6.307330,7.565411,7.863530,17.541282
1005.335938,6.728641,5.108552,7.748997,7.148594
1005.339844,9.305225,8.497252,3.152682,10.377356
1005.343750,4.654872,2.738643,0.248107,4.261081
1005.347656,-0.442840,-1.480615,5.557939,8.262411
1005.351562,0.490496,-1.091485,-4.460606,-6.516638
1005.355469,-0.510101,2.423808,-11.303142,-8.840863
1005.359375,-4.278125,-3.783299,-2.566056,-5.715207
1005.363281,-19.379507,-6.227579,-1.714149,-4.140548
1005.367188,-6.324978,-8.121154,-9.293592,-8.205120
1005.371094,-3.398146,-10.284614,-14.967107,-9.249909
1005.375000,-13.526052,-1.184499,-11.490460,-10.286221
1005.378906,-11.634342,-10.656823,-8.612937,-13.280332
1005.382812,-5.486802,-1.894574,-9.907111,-5.794477
1005.386719,-7.168354,-2.898956,-0.878843,-3.915975
1005.390625,-5.159008,-9.698492,0.475792,-3.642788
1005.394531,-4.289807,-4.536044,-6.491223,-9.623639
1005.398438,-0.942207,8.264531,-2.833222,-3.915338
1005.402344,3.657247,0.245479,-0.695562,5.268012
1005.406250,5.170367,-0.853380,6.663463,-0.946048
1005.410156,6.828000,-0.017974,3.439328,7.706597
1005.414062,3.416286,13.331159,4.189223,9.806959
1005.417969,7.316052,11.167630,7.131980,3.025428
1005.421875,9.265904,14.685667,4.098505,6.714433
1005.425781,15.217101,10.330184,10.923851,10.309117
1005.429688,8.947248,10.295573,10.908211,10.300599
1005.433594,10.839282,5.294961,8.182719,8.389027
1005.437500,10.220713,9.785595,8.841719,5.003539
1005.441406,2.604154,-3.955040,4.625278,2.553811
1005.445312,-0.611877,-1.659013,4.095876,-0.521459
1005.449219,1.152987,5.661035,3.849737,3.179509
1005.453125,2.755365,-3.016046,-5.764312,-1.276960
1005.457031,-4.925333,-5.714234,-2.813976,-7.625372
1005.460938,-4.429705,-15.172372,-6.301112,-3.144849
1005.464844,-9.831381,-6.878399,-8.025499,-4.662105
1005.468750,-11.119726,-10.885281,-15.682503,-8.771651
1005.472656,-10.618992,-5.584518,-4.860480,-1.712009
1005.476562,-10.933014,-7.492508,-14.010700,-11.683029
1005.480469,-6.271874,-4.874598,-12.583086,-13.715678
1005.484375,-17.523276,-10.995003,-14.552604,-2.704823
1005.488281,-14.016688,-2.886759,-3.826633,-4.911977
1005.492188,-1.986311,-7.228232,-14.376635,-0.069067
1005.496094,-3.928251,-4.363330,0.823933,-1.519061
1005.500000,6.871928,5.543269,-0.959896,9.884177
1005.503906,-3.414764,3.375647,8.573314,2.747172
1005.507812,4.907286,8.913490,5.847110,10.169756
1005.511719,2.113911,3.289972,6.664330,2.478612
1005.515625,4.149904,6.975111,8.208742,8.282798
1005.519531,12.568009,11.457342,10.664184,9.487160
1005.523438,12.577388,7.827930,12.959844,13.299932
1005.527344,7.147304,13.908346,8.400996,6.790721
1005.531250,8.183077,12.508148,11.467515,8.780565
1005.535156,5.706703,12.381612,11.425385,6.006111
1005.539062,6.883807,5.338047,-0.448195,10.590241
1005.542969,2.951139,7.554228,5.535018,4.361723
1005.546875,5.134380,1.843682,-2.459683,0.062582
1005.550781,0.557169,-5.001776,3.177714,-4.399739
1005.554688,4.864258,-4.365926,-2.120775,-2.353456
1005.558594,-6.294741,-2.093182,-2.905762,-0.826058
1005.562500,-5.163381,1.344462,-5.786169,-3.027628
1005.566406,-9.383201,-14.415119,-14.229424,-9.275942
1005.570312,-9.561074,-14.051890,-13.297946,6.390009
1005.574219,-9.644056,-0.656199,-10.077891,-7.072424
1005.578125,-5.053572,-16.988310,-7.713982,-9.819477
1005.582031,-10.788734,-9.062809,-7.252162,-4.716926
1005.585938,-15.391607,-12.434187,-16.326963,-5.029343
1005.589844,-9.145466,-4.747228,-8.537426,-7.714000
1005.593750,0.726645,-0.269483,-5.815850,-10.201599
1005.597656,-1.227578,-6.701702,4.147129,4.351005
1005.601562,2.160954,3.936872,-4.694687,3.414289
1005.605469,10.519076,8.170262,2.284580,12.808312
1005.609375,10.338166,2.771221,4.358861,5.828357
1005.613281,8.610479,1.354421,4.047806,7.350750
1005.617188,20.680034,7.833701,6.425904,15.426610
1005.621094,12.195054,6.621287,2.108129,5.743016
1005.625000,9.750116,8.115136,9.036287,11.049945
1005.628906,8.766294,11.357547,12.434987,6.912605
1005.632812,1.699253,-2.920214,3.776356,8.006531
1005.636719,7.680087,1.682950,6.519206,4.870905
1005.640625,2.400119,5.124991,4.841093,8.663889
1005.644531,-9.726333,2.789547,6.526614,3.607280
1005.648438,0.249380,0.507890,-0.190968,7.117528
1005.652344,2.788499,1.712243,-4.590163,1.183859
1005.656250,-8.661071,0.717038,-10.179585,-8.046555
1005.660156,-11.383360,-4.983956,-7.479907,-8.798063
1005.664062,-2.769985,-10.166207,-3.365045,-4.376573
1005.667969,-13.897094,-3.816527,-15.030403,-11.390126
1005.671875,-5.700351,-19.160838,-18.012709,-12.138224
1005.675781,-12.374343,-3.425441,-9.360031,-8.503758
1005.679688,-5.666190,-5.987232,-8.623028,-6.672557
1005.683594,-4.097695,-7.721237,-3.521368,-8.737539
1005.687500,-10.035558,-2.210463,-3.121647,-6.440456
1005.691406,-6.915553,-3.250017,-5.963766,-3.789469
1005.695312,-4.042350,-8.716153,1.771046,-2.630425
1005.699219,-3.963929,-0.592660,-3.294077,3.746249
1005.703125,-0.148562,-2.669784,4.523347,3.343791
1005.707031,4.327420,4.971590,5.437201,-1.757504
1005.710938,4.972349,4.525415,2.691781,7.704979
1005.714844,10.551933,13.409267,5.716192,10.260729
1005.718750,9.092689,-1.133892,15.867461,5.468112
1005.722656,10.467741,8.413485,5.275673,7.829789
1005.726562,3.826436,11.881011,10.031521,17.211581
1005.730469,4.729166,9.959676,7.341437,15.865510
1005.734375,17.055650,15.559411,8.018747,10.190261
1005.738281,9.489724,3.592863,-0.557727,12.172356
1005.742188,-1.438798,2.472114,-1.459207,4.653693
1005.746094,-2.818693,-0.919934,1.159734,0.373851
1005.750000,-6.952398,-0.799198,-6.147238,-4.349131
1005.753906,3.231107,-7.072203,4.231029,-2.622162
1005.757812,-3.569368,-0.131605,-8.670729,-3.776590
1005.761719,-4.920646,-2.216073,-5.381902,-4.881659
1005.765625,-7.097226,-5.566224,-7.726913,-8.912530
1005.769531,-7.961153,-6.367783,-9.218138,-13.659669
1005.773438,-13.077062,-10.225353,-11.170861,-8.746011
1005.777344,-5.389596,-10.441434,-7.975463,-8.888805
1005.781250,-6.172518,-13.442020,-5.621616,-6.638391
1005.785156,-3.269135,-3.936252,-4.403502,-1.808352
1005.789062,-6.381988,-5.291994,-4.345552,-5.278688
1005.792969,3.550920,-6.916362,-5.003375,-1.325763
1005.796875,0.708992,-2.938487,-1.359160,0.895360
1005.800781,3.156166,0.259361,-2.337184,6.866780
1005.804688,2.280730,7.020670,6.788188,-4.382462
1005.808594,11.126361,2.359458,1.928418,7.265668
1005.812500,9.344041,11.223129,8.736466,12.510124
1005.816406,12.317735,0.091245,11.401203,8.181513
1005.820312,7.293167,9.785884,6.861034,8.608588
1005.824219,15.446950,11.407410,9.565823,6.236025
1005.828125,7.830616,12.767317,5.853037,13.028043
1005.832031,8.996997,9.814103,-3.914379,8.008306
1005.835938,5.387479,12.429181,9.031763,14.045273
1005.839844,4.753734,7.139097,3.150180,3.930357
1005.843750,7.639060,12.845541,5.117219,2.076924
1005.847656,-0.681009,-3.073135,2.916735,-2.363775
1005.851562,-2.511760,-3.487494,-7.222367,-1.607300
1005.855469,-3.787163,-3.463126,-2.700210,0.093712
1005.859375,-6.830515,-10.561357,-1.543005,-8.383702
1005.863281,2.240775,-11.807566,-7.368841,-10.893750
1005.867188,-17.432853,-10.231785,-5.000057,-8.882181
1005.871094,-11.238887,-10.376990,-15.327415,-2.954297
1005.875000,-12.464382,-10.353103,-7.275656,-12.961469
1005.878906,-11.388968,-13.258716,-6.567147,-7.425130
1005.882812,-11.413201,-10.929882,-11.969875,-11.373664
1005.886719,-6.535630,-8.021790,-3.838183,-3.991114
1005.890625,-3.229296,-8.419993,-3.873940,-2.002221
1005.894531,-2.721345,2.735628,-3.631618,-5.986850
1005.898438,-2.964210,-4.036058,-8.356457,3.881561
1005.902344,-7.615876,-2.386781,-5.230316,4.706263
1005.906250,-0.676669,5.811000,8.909877,1.711517
1005.910156,10.157027,6.541571,9.419527,2.302779
1005.914062,9.413751,8.228906,16.756092,9.201330
1005.917969,13.125386,6.609125,13.410247,12.229539
1005.921875,11.820742,10.046184,11.195621,14.333969
1005.925781,7.162107,8.054259,14.345115,7.505431
1005.929688,11.158278,14.011822,5.078994,5.982730
1005.933594,7.609594,3.865916,8.758543,13.932766
1005.937500,8.396841,5.260654,8.016688,8.966320
1005.941406,3.060996,6.964757,1.948093,4.361658
1005.945312,3.757028,0.138683,1.894342,3.825536
1005.949219,0.883555,2.281910,-8.371378,-0.273819
1005.953125,-2.202910,-0.873657,0.682869,-0.036933
1005.957031,-5.345563,-4.508740,1.778247,0.458885
1005.960938,-1.654188,-7.422576,-6.195220,-6.475138
1005.964844,-8.277044,-14.378619,-11.489257,-1.586152
1005.968750,-12.940826,-9.576126,-13.711990,0.467305
1005.972656,-9.093341,-4.708125,-7.500106,-16.114784
1005.976562,-3.336314,-12.298603,-4.083119,-9.632326
1005.980469,-5.719555,-8.630392,-6.980704,-11.786908
1005.984375,-12.715744,-11.689182,-7.151330,-10.324278
1005.988281,-5.755790,-5.247218,-16.389642,-5.521080
1005.992188,-5.559101,-11.914575,-3.173252,-8.157116
1005.996094,-1.747929,-6.530070,7.675796,-3.268452
1006.000000,0.368522,-0.731525,-6.698560,3.218768
1006.003906,5.500606,4.965707,4.869541,-0.493684
1006.007812,2.603581,8.211314,11.345292,0.963172
1006.011719,13.681297,2.719303,9.883626,3.615362
1006.015625,6.665906,5.301460,14.293838,0.016953
1006.019531,9.578423,10.888492,3.325415,10.791100
1006.023438,18.380864,13.116669,8.501211,7.737129
1006.027344,11.301811,13.599234,8.988724,6.285228
1006.031250,16.286832,13.201542,14.449193,14.337347
1006.035156,9.793486,8.097193,5.904006,9.895120
1006.039062,11.170122,6.072633,-3.184656,15.304373
1006.042969,8.380488,2.423738,10.250321,0.296702
1006.046875,2.882467,2.397463,5.330712,1.896629
1006.050781,-4.934794,-3.536871,8.949979,4.788577
1006.054688,-2.260381,-9.296645,-3.300136,-0.982787
1006.058594,-6.836337,-5.965778,-4.337296,-6.409613
1006.062500,-4.092169,-4.270165,-15.262909,-6.656549
1006.066406,-8.056206,-6.195663,-11.618234,-7.384197
1006.070312,-8.781929,-7.856116,-9.011586,-3.157015
1006.074219,-15.015098,-11.591953,-16.612380,-12.175546
1006.078125,-11.965661,-13.454709,-1.676166,-6.198055
1006.082031,-9.463120,-12.586213,-4.004068,-3.272647
1006.085938,-4.776551,-7.389955,-6.838041,-6.097761
1006.089844,-11.393967,1.161552,-8.095249,-5.611435
1006.093750,-8.275972,-9.213562,4.864262,-4.882478
1006.097656,1.645985,-7.178510,3.648154,-8.731013
1006.101562,4.494418,0.144954,4.184598,1.169580
1006.105469,7.840460,1.493006,0.653992,-2.632881
1006.109375,-3.722858,5.101551,10.754373,5.963763
1006.113281,7.104154,14.548545,6.525965,-0.322605
1006.117188,12.786683,6.290729,12.916602,12.109867
1006.121094,5.413283,15.389793,8.476343,8.321806
1006.125000,9.983945,9.612930,4.754667,8.900744
1006.128906,17.323046,8.871302,7.945957,6.855983
1006.132812,8.442496,7.852308,15.447474,3.752288
1006.136719,6.631551,9.398448,1.619439,7.400850
1006.140625,10.886513,8.301755,3.485603,6.029602
1006.144531,1.716027,9.021857,3.802547,1.392939
1006.148438,3.060962,-0.534533,-0.929904,-2.538879
1006.152344,7.939598,2.824792,-4.078966,4.400906
1006.156250,4.186396,-17.001407,-0.225826,-8.878919
1006.160156,-10.481664,-1.213321,-10.799606,-9.223726
1006.164062,-11.802626,-2.651552,-4.946857,-8.675447
1006.167969,-13.532620,-8.784226,-8.581844,-9.844830
1006.171875,-0.131692,-5.221677,-15.593392,-5.917510
1006.175781,-1.963464,-7.496615,-1.253071,-12.232594
1006.179688,-6.281142,-8.050173,-4.995155,-7.747741
1006.183594,-14.229958,-5.956941,-8.965688,-4.918854
1006.187500,-5.124962,-7.675558,-2.748491,-4.478479
1006.191406,-8.048902,0.193311,-11.552200,0.385767
1006.195312,4.008391,-3.362163,-7.884892,2.458621
1006.199219,3.107842,-2.050967,8.570125,-2.057393
1006.203125,0.802129,7.803515,-0.005281,1.884151
1006.207031,7.576946,2.906948,4.529841,1.396342
1006.210938,5.780729,10.814483,8.150220,0.924825
1006.214844,6.440940,1.091809,9.751333,3.961606
1006.218750,3.601971,10.506714,12.860241,10.636669
1006.222656,7.780586,16.270025,9.211605,13.667610
1006.226562,6.311344,9.191980,14.030627,15.366491
1006.230469,12.466203,12.125433,7.651267,17.038876
1006.234375,14.524976,8.170837,13.756445,8.926998
1006.238281,6.422083,7.340374,4.690741,5.788352
1006.242188,10.377527,2.589212,2.041147,10.688483
1006.246094,4.088272,1.034534,-4.696277,2.311033
1006.250000,-3.575119,4.127950,7.287467,-2.589669
1006.253906,-1.362456,-0.289307,-4.393080,-3.764985
1006.257812,-7.215142,-0.069097,-9.264161,-5.933037
1006.261719,-7.252674,-7.225860,-3.802180,-8.714297
1006.265625,-9.846590,-10.633941,-3.822863,-10.844682
1006.269531,-9.230293,-8.686381,-7.946579,-10.291055
1006.273438,-13.665726,-6.953572,-15.661709,-9.657972
1006.277344,-9.181386,-13.587779,-8.685682,-5.389235
1006.281250,-11.383652,-11.430076,-6.270157,-7.813258
1006.285156,-6.100558,-9.994222,-2.172084,-12.752825
1006.289062,-6.480940,-4.851385,0.819769,-7.662618
1006.292969,-4.514546,-9.657784,-0.665307,-6.969309
1006.296875,-0.550418,-1.727365,0.662255,-3.610881
1006.300781,-6.924236,1.112492,-7.305670,-0.708334
1006.304688,1.313469,4.066695,5.949516,0.964993
1006.308594,5.331029,5.470009,1.984086,0.328092
1006.312500,9.685457,11.382661,8.361505,3.297241
1006.316406,1.184529,8.750745,12.408009,5.685376
1006.320312,8.687034,10.949154,10.710013,9.853810
1006.324219,13.234114,7.781736,4.084835,12.624431
1006.328125,10.191465,6.792312,15.248431,7.859691
1006.332031,8.361309,10.288159,6.048537,12.308344
1006.335938,9.449753,6.913437,-0.510366,9.646711
1006.339844,3.366241,8.620066,6.469037,10.137298
1006.343750,-2.236056,5.486560,2.163608,8.837826
1006.347656,-2.877363,-2.230598,6.145487,4.250045
1006.351562,2.725321,1.437864,-6.964410,-3.634859
1006.355469,-2.039641,-10.767080,-9.870283,3.207543
1006.359375,-3.469624,-1.221326,-1.523391,-2.765924
1006.363281,-4.755849,-2.466450,-6.438118,-14.186519
1006.367188,-8.151519,-6.825148,-6.295476,-14.514950
1006.371094,-15.433620,-11.301727,-7.433175,-9.646385
1006.375000,-11.529164,-12.136256,-6.257068,-12.770880
1006.378906,-4.140477,-15.121833,-7.506104,-11.553372
1006.382812,-12.676841,-14.848058,-13.369651,-10.575873
1006.386719,-11.277937,-16.060249,-10.473099,-7.385475
1006.390625,-2.847104,-5.086419,3.389201,-9.485042
1006.394531,-6.557452,-0.317480,-5.381912,-6.623967
1006.398438,-0.673749,-9.253292,-6.688006,0.455556
1006.402344,-2.850759,5.007335,2.501877,2.196694
1006.406250,4.340125,4.904668,7.775058,1.014817
1006.410156,5.737086,3.251981,4.180556,9.975593
1006.414062,8.563279,4.900058,16.622698,12.667127
1006.417969,5.413820,11.705977,7.466790,16.613836
1006.421875,14.591180,14.288345,10.549925,8.420397
1006.425781,7.949562,6.643386,12.962895,13.437010
1006.429688,11.675385,8.986702,13.124397,12.207034
1006.433594,4.956414,0.083142,6.446971,9.277947
1006.437500,4.203006,17.203982,10.261569,9.016569
1006.441406,6.697547,1.125598,-2.828826,0.762258
1006.445312,6.308757,-0.902282,-2.054101,11.760023
1006.449219,-2.969927,3.068666,1.530970,1.787974
1006.453125,1.673014,-8.195085,-5.444326,0.152645
1006.457031,-3.903073,-3.459994,0.932602,5.848042
1006.460938,-5.927132,-4.785781,-3.819085,-5.717915
1006.464844,-5.490173,-10.356261,-6.846009,-9.880564
1006.468750,-8.607700,-10.686781,-8.243826,-19.033095
1006.472656,-6.088711,-8.225598,-4.185053,-6.452587
1006.476562,-7.566773,-6.909580,-11.000794,-14.313648
1006.480469,-14.703494,-8.292971,-8.221878,-10.360871
1006.484375,-9.696004,-8.718524,-9.051704,-2.392565
1006.488281,-5.397252,-13.125816,-6.961785,-8.569500
1006.492188,-8.973949,-2.471250,-4.778986,1.944754
1006.496094,-2.363920,-7.494731,-3.658986,3.426630
1006.500000,-2.561698,3.261916,-5.294022,-0.002380
1006.503906,3.708195,0.930593,3.121757,3.262353
1006.507812,12.743307,2.158370,0.309648,2.342301
1006.511719,3.801183,3.198269,3.613792,2.269673
1006.515625,7.275862,12.292062,8.277486,12.340459
1006.519531,13.359979,9.287825,7.468353,0.687286
1006.523438,12.639036,12.992918,6.061872,10.601587
1006.527344,14.259393,15.119608,7.396383,7.113669
1006.531250,13.641519,4.997958,4.108918,4.725281
1006.535156,9.635204,4.877367,9.658225,9.873348
1006.539062,6.199925,11.374073,7.534584,6.861347
1006.542969,7.601259,3.990607,3.703082,5.312510
1006.546875,10.928495,3.626814,-1.393497,2.294227
1006.550781,3.777044,-3.069815,1.901897,-0.656220
1006.554688,-1.310093,-5.225000,2.624629,4.911029
1006.558594,-8.407605,-2.300311,-5.037493,-8.518210
1006.562500,-3.489027,-8.516078,-5.958586,-12.311254
1006.566406,-9.995173,-7.112672,-12.524958,-11.215191
1006.570312,-10.075808,-6.765551,-8.777517,-13.211269
1006.574219,-10.672121,-9.898019,-14.197645,-7.252659
1006.578125,-19.108183,-9.007878,-0.111715,-7.944675
1006.582031,-11.431303,-6.835751,-10.786406,-4.633807
1006.585938,-8.982124,-13.778428,0.076540,-5.962413
1006.589844,-6.794824,-10.520191,-5.462762,-6.130363
1006.593750,-2.801917,0.039393,-3.456767,0.857718
1006.597656,1.418381,-3.058196,0.999044,-2.289453
1006.601562,-1.119555,3.122040,4.396083,3.963555
1006.605469,4.224127,4.244186,1.763789,4.583807
1006.609375,2.799076,5.811908,-1.537483,5.656799
1006.613281,7.552191,9.171956,4.085952,1.198622
1006.617188,4.769810,10.478494,9.421092,10.931353
1006.621094,6.011792,0.618391,9.366042,12.975806
1006.625000,4.331689,11.510040,8.937503,16.673560
1006.628906,11.043081,11.303101,11.236600,12.554140
1006.632812,12.035284,9.173217,9.150941,6.220128
1006.636719,9.583409,0.031475,4.819216,5.274664
1006.640625,3.871150,4.182301,3.686448,7.293007
1006.644531,3.301302,2.907181,2.252282,-1.797330
1006.648438,3.038349,-3.527136,4.543619,-3.108957
1006.652344,-3.375271,5.975897,1.333306,-0.874318
1006.656250,-6.764659,-6.304808,-5.676534,-3.564792
1006.660156,-1.424688,1.406531,-1.759457,-6.546290
1006.664062,-11.656632,-5.929228,-7.893684,-7.832917
1006.667969,2.142077,-4.289824,-10.222160,-3.919138
1006.671875,-8.004779,-14.113853,-15.103972,-11.235924
1006.675781,-12.505943,-5.858484,-11.737042,-4.024884
1006.679688,-20.341710,-9.480238,-10.417026,-11.735487
1006.683594,-11.215087,-10.253927,-14.305751,-7.508888
1006.687500,-9.188486,-9.442559,0.234958,0.040027
1006.691406,-5.059211,2.258497,-3.804631,-5.752888
1006.695312,-3.502513,0.025406,-3.877013,-7.479848
1006.699219,1.034163,1.315226,7.791108,-3.663905
1006.703125,7.346862,5.115307,2.766602,4.793253
1006.707031,5.820123,-0.689204,3.249544,2.949481
1006.710938,13.843260,7.045275,6.235318,8.738265
1006.714844,8.865158,7.155865,6.990372,7.532741
1006.718750,9.848544,8.766845,8.464902,10.107702
1006.722656,5.439049,8.102191,10.895497,12.663022
1006.726562,12.826910,1.926173,9.166396,13.420338
1006.730469,13.037959,2.758327,8.711775,13.200972
1006.734375,12.988798,1.549531,10.800435,8.463756
1006.738281,-1.489809,0.412900,8.618498,6.800615
1006.742188,10.591146,2.515596,6.915838,1.006793
1006.746094,-3.053156,5.320966,0.553325,1.464017
1006.750000,-0.734339,6.973432,-5.262222,0.358600
1006.753906,-4.839011,0.247368,-1.768527,-1.404887
1006.757812,-6.103140,-11.134486,0.549522,3.797563
1006.761719,-8.866538,2.566551,-4.335228,-2.275648
1006.765625,-14.987841,-16.615752,-1.735817,-10.536598
1006.769531,-7.880918,-10.220936,-7.366817,-12.273270
1006.773438,-13.049493,-6.349977,-6.729553,-7.619303
1006.777344,-7.824848,0.986509,-11.112365,-0.108869
1006.781250,-5.011715,-11.117125,-10.648979,-11.726792
1006.785156,-9.300120,-9.478296,-5.575729,-4.256582
1006.789062,3.771193,-4.594516,0.098184,-8.087323
1006.792969,0.766467,1.281601,-9.987318,-13.966618
1006.796875,-1.683475,3.707431,-7.076613,3.523827
1006.800781,-0.491840,0.328972,-5.696984,0.047614
1006.804688,3.014964,4.959167,-3.853633,11.620210
1006.808594,4.026850,-1.937565,2.852439,3.391783
1006.812500,10.436165,4.942636,11.912905,-0.514194
1006.816406,4.314595,4.607382,5.594109,6.679419
1006.820312,7.037243,10.144616,10.095570,6.484401
1006.824219,9.921095,17.110390,5.914670,6.732428
1006.828125,9.358068,5.582065,20.820361,7.366590
1006.832031,6.085114,0.330667,17.274473,6.804957
1006.835938,1.137595,9.735544,6.954321,12.625400
1006.839844,2.929289,11.385606,12.075347,2.996887
1006.843750,8.758786,-1.448655,0.360444,9.961189
1006.847656,10.358958,-0.092612,1.705723,3.157904
1006.851562,-1.763899,-1.357381,-4.368911,-2.033758
1006.855469,1.368107,-5.314433,-6.187768,-5.752144
1006.859375,-4.118042,-2.065261,-1.436332,-10.983033
1006.863281,-12.375697,-18.083140,-2.342025,-6.508594
1006.867188,-5.152267,-2.521482,-7.559069,-11.368284
1006.871094,-11.568828,-11.479735,-5.500501,-11.265543
1006.875000,-13.174461,-7.191733,-7.650007,-8.346706
1006.878906,-10.316925,-2.258165,-16.663206,-5.554726
1006.882812,-5.343739,-10.665240,-8.120205,-10.735478
1006.886719,-9.694889,-7.647665,-5.772998,-9.245858
1006.890625,-1.827696,2.318498,-7.399978,-3.111192
1006.894531,-9.033606,2.172661,-4.744229,-7.482733
1006.898438,2.820841,2.476788,-5.067200,-0.256844
1006.902344,-1.302170,-2.633808,0.281274,4.669034
1006.906250,0.321161,6.279898,2.148940,-1.166413
1006.910156,8.611202,12.891845,10.834505,10.204117
1006.914062,13.435352,7.272447,5.385964,2.376812
1006.917969,8.625140,9.851112,0.127515,10.137801
1006.921875,8.552581,13.970456,8.606637,10.137155
1006.925781,10.324450,13.185545,13.399358,13.096515
1006.929688,11.401320,19.699079,2.301369,9.517790
1006.933594,8.862486,3.072129,9.756726,5.130411
1006.937500,8.740123,10.669011,11.121524,10.216870
1006.941406,7.847458,8.178271,10.211165,11.343087
1006.945312,6.223237,7.803268,9.048004,2.809729
1006.949219,4.033618,2.217316,4.433786,-1.893710
1006.953125,-3.010657,-3.855966,-5.585834,-2.757445
1006.957031,-2.173364,-10.361525,-5.355120,-6.610077
1006.960938,-10.650751,-8.600762,-2.592388,-8.329644
1006.964844,-10.320980,-3.537049,-9.834100,-17.149972
1006.968750,-8.879128,-14.566475,-4.363001,-6.986987
1006.972656,-12.657782,-13.779319,-7.539139,-8.420910
1006.976562,-10.388011,-16.910835,-6.618339,-13.996204
1006.980469,-4.265510,-10.854033,-7.642209,-6.683749
1006.984375,-10.692994,-7.070035,-0.864910,-14.645199
1006.988281,-6.290203,-2.888336,-7.208589,-6.248062
1006.992188,-8.101276,-2.072284,-2.697815,-2.659552
1006.996094,-2.165657,-6.243794,-1.203260,-1.069243
1007.000000,-1.756917,-1.104865,-0.489398,-0.199103
1007.003906,2.184475,2.863996,5.431090,2.680840
1007.007812,-1.275789,-1.975639,1.215510,6.748450
1007.011719,6.971512,7.803250,9.466580,9.137223
1007.015625,9.689688,6.868012,6.717581,13.313062
1007.019531,8.490532,11.732766,5.460095,11.922776
1007.023438,4.932272,12.060155,7.961827,3.009390
1007.027344,10.077830,8.303075,2.258501,11.662928
1007.031250,19.078533,6.722792,9.412730,14.384190
1007.035156,4.242699,6.242368,4.099762,3.809527
1007.039062,7.458469,5.042563,5.948268,7.455668
1007.042969,7.557164,10.609280,0.815532,4.143322
1007.046875,1.918413,3.879660,1.792818,0.974580
1007.050781,-5.276191,8.304863,-4.910365,1.643039
1007.054688,-9.039319,-1.936709,-4.847442,2.460861
1007.058594,-9.838342,-8.260557,0.506121,-5.599944
1007.062500,-7.890248,-10.768377,-2.508486,-9.514846
1007.066406,-0.298607,-9.652801,-9.394427,-9.583770
1007.070312,-5.628491,-8.748102,-12.091999,-9.563441
1007.074219,-7.507695,-10.191559,-9.884427,-12.404433
1007.078125,-6.819926,-10.692526,-19.775118,-20.031796
1007.082031,-0.823050,-11.225523,-11.428951,-6.535087
1007.085938,-5.601538,-8.680322,-4.088678,-6.588342
1007.089844,-13.588374,-1.459355,-2.056538,-2.311102
1007.093750,-6.700032,-2.703546,-8.659597,-1.217371
1007.097656,-2.030998,2.058218,2.433930,-6.602415
1007.101562,-4.550362,0.243411,-1.631608,-0.109993
1007.105469,7.377327,4.169530,7.520644,4.987219
1007.109375,7.291760,4.182276,9.436203,8.182289
1007.113281,4.006342,9.654395,1.074254,8.416674
1007.117188,3.476042,5.584581,14.220413,4.992689
1007.121094,10.367659,4.437993,6.639172,10.515990
1007.125000,11.415675,5.924779,7.801577,8.768469
1007.128906,14.897575,9.587988,7.760493,13.016968
1007.132812,14.701387,15.180444,12.302014,2.919967
1007.136719,8.477157,0.098342,6.808836,8.533640
1007.140625,1.131466,4.542907,0.794405,2.001442
1007.144531,1.058432,0.758353,6.049478,-0.580748
1007.148438,3.018715,9.365114,-9.319073,7.005318
1007.152344,-1.864465,1.098661,0.588185,3.031180
1007.156250,-4.869002,-9.944844,0.759889,-8.927458
1007.160156,-7.363982,-4.579018,-7.791594,-8.746037
1007.164062,-8.013150,-9.266524,-3.475951,-4.114273
1007.167969,-7.678187,-7.583095,-8.667788,-11.617858
1007.171875,-15.666050,-6.250118,-5.279772,-13.790483
1007.175781,-17.223319,-10.699675,-8.596220,-16.459767
1007.179688,-11.194460,-12.292919,-14.231278,-12.356762
1007.183594,-9.920348,-10.937196,-6.293797,-10.801562
1007.187500,-11.322560,-5.539500,-9.207159,-4.314605
1007.191406,-6.232049,-6.388862,-5.566960,-13.906617
1007.195312,-0.666072,-4.114501,-0.898440,-1.224963
1007.199219,-3.920250,1.048415,0.631914,-1.167776
1007.203125,7.455806,1.340284,-0.145639,7.788759
1007.207031,7.528838,0.983309,3.004616,5.337079
1007.210938,10.385610,7.616306,10.721166,7.047048
1007.214844,0.648947,5.941658,15.535749,3.229267
1007.218750,9.368127,12.345900,11.215000,10.345519
1007.222656,9.770794,13.237168,11.762919,4.305713
1007.226562,12.605381,17.300431,13.380986,15.841300
1007.230469,8.032296,7.463185,17.288269,10.942349
1007.234375,8.667759,11.846840,8.202346,2.516844
1007.238281,4.822744,0.882460,9.153631,2.242229
1007.242188,5.021820,6.599082,6.123828,1.498266
1007.246094,3.455236,0.414905,3.232293,-2.725402
1007.250000,-0.075191,6.565849,2.476560,-4.366463
1007.253906,-3.157087,-1.306267,-7.838762,0.424591
1007.257812,-0.788658,-3.317924,-2.791291,-3.013970
1007.261719,-4.830676,-8.436959,-14.339503,-12.882074
1007.265625,-6.807312,-10.126611,-12.286923,-5.261253
1007.269531,-7.427645,-12.141566,-10.746464,-10.259351
1007.273438,-8.079298,-15.462872,-12.082442,-8.237100
1007.277344,-15.524434,-14.032148,-16.613298,-13.599095
1007.281250,-13.071871,-7.230561,-15.209113,-5.864512
1007.285156,-7.548897,-7.623870,-0.450399,-3.397631
1007.289062,-8.373896,-16.742551,-12.608209,0.481197
1007.292969,-3.098225,-5.565521,0.512637,-3.155495
1007.296875,-1.462159,-0.523084,-0.644036,2.842929
1007.300781,11.166154,-0.067168,2.054083,-0.983098
1007.304688,0.790743,0.997061,7.332944,7.405080
1007.308594,7.448382,10.983054,3.765818,3.012550
1007.312500,6.440765,14.499768,9.291909,7.403865
1007.316406,11.814019,10.371462,11.121497,0.032671
1007.320312,8.564740,2.596097,8.926762,12.266498
1007.324219,15.487697,13.782417,11.919205,14.834741
1007.328125,9.091338,10.032747,14.665242,9.072107
1007.332031,9.971452,10.277294,3.953594,9.502936
1007.335938,0.766042,9.331872,4.432172,11.152716
1007.339844,3.153550,9.911320,-0.214091,3.594039
1007.343750,5.158549,2.418143,6.743307,7.040542
1007.347656,-1.376804,-2.940955,0.227622,-1.147047
1007.351562,-0.808595,-5.600015,-1.798973,1.375532
1007.355469,-5.699951,-2.771145,-14.700159,0.140488
1007.359375,-0.610089,-1.579919,-1.138051,-1.517516
1007.363281,-12.023449,-5.977401,-4.574574,-5.052978
1007.367188,-5.640534,-11.414514,-13.802157,-7.699769
1007.371094,-9.974891,-9.754663,-4.232571,-19.961244
1007.375000,-7.475801,-10.365906,-5.358374,-14.420310
1007.378906,-14.116916,-14.112670,-6.343201,-18.096771
1007.382812,-7.501288,-8.180920,-14.430080,-6.393255
1007.386719,-4.996045,-13.063083,-10.268779,-5.468091
1007.390625,-14.858570,-8.684442,-12.344109,-5.017603
1007.394531,-7.910698,-4.191529,1.205074,4.555581
1007.398438,-3.023047,-3.906556,0.072830,-0.188719
1007.402344,1.148344,-0.297092,-1.494901,0.452846
1007.406250,5.629311,2.298696,4.491867,1.700078
1007.410156,2.976257,5.949170,5.554913,5.342064
1007.414062,5.989693,7.827725,7.515143,3.656543
1007.417969,3.244225,0.574763,6.189764,9.516495
1007.421875,9.905790,10.634473,10.341041,7.618721
1007.425781,15.169355,9.161541,11.945408,3.959818
1007.429688,9.449831,5.685664,11.574376,6.495344
1007.433594,13.641460,9.653844,3.865437,10.519029
1007.437500,4.577320,7.007881,14.220337,7.968647
1007.441406,13.991047,2.173536,10.153172,12.383549
1007.445312,6.440643,4.613338,4.736553,4.202236
1007.449219,3.337589,8.303909,-4.019997,-1.855745
1007.453125,0.007429,2.621379,0.451700,0.605723
1007.457031,-0.465418,0.407979,-10.149587,-7.047428
1007.460938,-8.664764,-7.010862,-3.306291,-4.374798
1007.464844,-3.433634,-13.498966,-5.524653,-6.950446
1007.468750,-10.238278,-14.774158,-0.990866,-11.783708
1007.472656,-8.431125,-6.743735,-13.836135,-10.226131
1007.476562,-9.267217,-8.608557,-2.669250,-4.828767
1007.480469,-8.882432,-12.269927,-11.665507,-12.134230
1007.484375,-6.584889,-9.918242,-10.549333,-8.489422
1007.488281,-4.669866,-6.641436,-11.744621,-8.675349
1007.492188,-2.510252,-3.497022,-5.722990,-8.535983
1007.496094,0.525459,2.081233,2.686401,3.969711
1007.500000,-0.158181,-5.003046,1.475071,0.578226
1007.503906,4.395114,6.540481,9.832361,5.552805
1007.507812,4.590036,11.330210,6.066806,0.084564
1007.511719,5.630446,8.988463,10.323583,13.357547
1007.515625,9.301424,-0.949728,8.133827,7.360732
1007.519531,2.493384,12.064234,7.552849,9.520133
1007.523438,7.659180,10.586256,7.843118,4.887049
1007.527344,1.924194,9.635755,1.987936,6.095947
1007.531250,13.201158,1.027125,12.765593,12.891003
1007.535156,4.458309,6.769300,5.893854,5.107008
1007.539062,18.749491,16.503829,5.734280,2.865696
1007.542969,13.966402,8.394876,5.980706,9.001208
1007.546875,0.571409,3.637084,-0.473058,3.427800
1007.550781,-1.526240,-6.351356,9.549037,1.395161
1007.554688,1.027323,2.477274,1.746780,-2.243989
1007.558594,1.494395,-7.654895,-3.395580,-6.430803
1007.562500,-12.077424,-7.158428,-5.630713,-8.058238
1007.566406,-8.177944,-6.137927,-11.889020,-12.977803
1007.570312,4.859485,-15.621067,-5.519423,-10.083670
1007.574219,-5.141399,-14.773065,-6.197446,-13.182224
1007.578125,-10.085010,-14.935587,-12.190137,-8.141293
1007.582031,-10.963116,-3.808168,-6.062151,-23.160920
1007.585938,-2.507645,-8.123014,-11.882757,-10.070738
1007.589844,-2.761437,-8.013838,-4.761488,-2.220035
1007.593750,-6.817757,2.813728,-5.203457,-1.844323
1007.597656,0.701953,-7.603740,-2.749489,2.084257
1007.601562,2.846229,0.265542,-1.111048,0.022513
1007.605469,5.635665,3.190254,4.105721,6.086438
1007.609375,3.037627,1.868664,1.998586,5.267297
1007.613281,3.959036,9.268333,8.996233,6.611224
1007.617188,6.044124,6.838424,12.827242,6.168431
1007.621094,6.741879,2.293335,8.625883,5.781734
1007.625000,13.172412,4.323755,15.358499,15.708394
1007.628906,13.153851,10.142586,7.674571,9.418922
1007.632812,12.397792,11.593825,5.176907,5.336890
1007.636719,9.319178,8.080300,5.376071,10.262856
1007.640625,2.487427,14.314379,4.792220,7.461761
1007.644531,2.913412,4.127925,8.062458,2.466687
1007.648438,1.182077,-0.661284,-0.928087,-0.941791
1007.652344,-4.838080,-9.759702,0.651552,-10.376908
1007.656250,0.605598,-8.733040,-4.240584,-7.468785
1007.660156,-2.076745,-12.127321,-7.270506,-1.197356
1007.664062,-5.922560,-4.448165,0.499399,-1.417588
1007.667969,-2.898279,-13.383656,-5.668016,-9.577748
1007.671875,-8.121662,-14.573470,-12.603446,-6.171528
1007.675781,1.438968,-15.215247,-15.841336,-9.725354
1007.679688,-8.358344,-8.098685,-12.583124,0.723696
1007.683594,-6.151135,-6.210151,-7.578708,-3.573635
1007.687500,-4.926918,-6.687311,-9.243382,-13.859129
1007.691406,-0.817819,-3.404506,1.273606,-7.366729
1007.695312,-6.182693,-7.985352,-2.233388,1.809354
1007.699219,3.184305,-2.407766,3.249495,-8.741936
1007.703125,-1.591826,3.196523,-0.122922,6.258059
1007.707031,1.862237,5.419092,-2.416239,8.546587
1007.710938,5.619109,5.828846,11.252984,10.380069
1007.714844,10.431796,14.859540,8.478377,2.374194
1007.718750,11.622027,7.576812,10.057445,5.641924
1007.722656,8.439867,14.195444,9.159962,3.843517
1007.726562,10.964012,10.916263,7.592611,14.644434
1007.730469,13.283536,5.578322,14.732742,13.857719
1007.734375,4.580275,5.102228,7.889261,4.746282
1007.738281,6.545256,-1.393317,2.379813,6.151654
1007.742188,-0.203689,4.727456,2.716577,12.196659
1007.746094,-3.571781,4.807127,9.404270,4.384885
1007.750000,1.588847,9.536762,8.951409,1.263708
1007.753906,-3.465110,1.891339,1.330757,0.748775
1007.757812,-12.899170,-4.213510,-10.205918,-9.455090
1007.761719,-3.120798,-4.374900,-9.511274,-8.508885
1007.765625,-7.188192,-8.569789,-5.595485,-10.128577
1007.769531,-7.600300,-9.161581,-10.959075,-5.221501
1007.773438,-9.374895,-14.826639,-10.417027,-10.556967
1007.777344,-0.999238,-9.975081,-5.318906,-9.997007
1007.781250,-10.372509,-15.141813,-7.025666,-8.250462
1007.785156,-6.484041,-6.702713,-4.600519,-4.478079
1007.789062,-11.573023,-6.046955,-10.786644,-4.622469
1007.792969,-10.697502,-3.662842,-4.429519,-8.025130
1007.796875,-0.090446,-7.576390,-4.501771,0.668598
1007.800781,-3.242802,4.494380,2.620255,2.588755
1007.804688,5.228743,7.892189,3.161822,2.615755
1007.808594,-1.127878,6.549209,7.026996,3.934764
1007.812500,8.578218,8.935636,7.823680,6.901839
1007.816406,7.714652,5.542293,11.743869,9.048935
1007.820312,6.260179,2.157510,-0.807236,9.142903
1007.824219,2.764515,3.855207,8.431700,10.780417
1007.828125,9.912370,10.881517,10.949881,9.458161
1007.832031,7.895342,5.517636,11.958762,12.776387
1007.835938,9.876319,10.426057,4.885805,5.113673
1007.839844,5.528956,1.259211,10.372263,-3.773623
1007.843750,9.023164,8.757640,3.000491,8.631861
1007.847656,1.587839,-1.392453,3.236777,1.178614
1007.851562,1.123597,3.239772,-6.171015,-0.864995
1007.855469,-0.730106,-5.961986,-6.958633,-1.723387
1007.859375,-9.787572,-1.634233,-4.412991,-3.117511
1007.863281,-9.305696,-9.461336,-8.787685,-9.118135
1007.867188,-3.949580,-3.572440,-6.265421,-5.679429
1007.871094,-15.613804,-8.206233,-10.114066,-10.107868
1007.875000,-5.157316,-9.508171,-10.499198,-6.221882
1007.878906,-13.835715,-11.136113,-9.128219,-6.351741
1007.882812,-6.884873,-11.187015,-10.768859,-11.480868
1007.886719,-3.230051,-7.689498,-3.035904,-9.252560
1007.890625,-6.812607,-6.862548,-9.913394,-6.242147
1007.894531,-1.276523,-6.186507,-5.748387,2.854139
1007.898438,3.028888,3.037258,1.314170,-1.490911
1007.902344,-1.803615,-0.804399,6.912517,1.735997
1007.906250,3.016398,5.212547,9.001005,8.496859
1007.910156,8.599890,3.049772,11.968022,8.868291
1007.914062,5.564163,1.193176,6.157616,3.545784
1007.917969,12.262840,10.122258,6.170690,4.236228
1007.921875,15.120031,5.121187,11.726568,5.224656
1007.925781,7.285664,6.452179,14.544782,18.925462
1007.929688,9.225029,4.711073,14.027451,12.889760
1007.933594,12.898876,9.992929,8.705206,3.978525
1007.937500,5.579355,-0.053649,0.587417,12.782981
1007.941406,5.659933,3.888665,4.609985,3.791545
1007.945312,0.409095,0.655579,5.489010,1.443870
1007.949219,0.017589,-2.206576,1.873210,2.616702
1007.953125,0.889025,-3.594224,-5.983545,-1.471990
1007.957031,0.762350,-5.579207,-6.011221,-4.751831
1007.960938,-0.219038,-0.197920,-5.364853,-9.391153
1007.964844,-8.376229,-10.273925,-4.541502,-10.475914
1007.968750,-5.991412,-5.818630,-15.088584,-12.735502
1007.972656,-8.676527,-11.240748,-9.942012,-12.416449
1007.976562,-10.017648,-6.049636,-10.777969,-3.033515
1007.980469,-15.200488,-6.257544,-7.204273,-9.701578
1007.984375,-2.235940,-5.028052,-13.023274,-7.109780
1007.988281,-4.802843,-4.735958,-9.705308,-13.441346
1007.992188,-12.277708,-9.949574,-3.729417,1.058024
1007.996094,-7.156547,1.517891,3.053577,-0.925402
1008.000000,-1.205706,-6.331129,-2.122533,-1.423559
1008.003906,-0.455594,1.845394,2.303647,-2.054639
1008.007812,6.025958,6.001695,5.379656,11.227051
1008.011719,1.821422,7.191055,4.373978,2.572402
1008.015625,12.536568,3.653022,7.165856,11.757092
1008.019531,11.515117,15.244732,10.870492,11.976465
1008.023438,3.972749,4.664270,9.088535,1.772166
1008.027344,10.297793,13.775461,10.507117,7.788718
1008.031250,11.787045,12.356818,8.852481,18.145424
1008.035156,15.175376,7.148674,4.920525,4.799460
1008.039062,-1.351643,2.931766,5.251482,8.933518
1008.042969,4.785064,5.269090,5.204648,3.194020
1008.046875,1.019009,-0.646548,4.707871,1.745369
1008.050781,-0.031954,-0.810948,0.345804,-12.786888
1008.054688,-3.385829,-4.665810,-0.573096,-1.075320
1008.058594,-10.727570,-7.321307,-3.846514,-13.635356
1008.062500,-4.615027,-7.717644,-5.184791,-6.181715
1008.066406,-13.226292,-0.903670,-9.086000,-12.777551
1008.070312,-9.700496,-17.302638,-10.287251,-8.549548
1008.074219,-7.863343,-8.048832,-6.414550,-16.212183
1008.078125,-2.166986,-10.442062,1.013304,-7.359441
1008.082031,-2.454073,-5.823819,-4.261811,-9.671700
1008.085938,-7.258640,-8.782031,-7.027779,-4.860162
1008.089844,0.929773,-5.933059,-7.773651,-3.807323
1008.093750,-9.014382,0.855763,-1.298639,3.820356
1008.097656,-7.111948,9.965915,1.875763,-8.838271
1008.101562,-0.051648,-3.846302,3.841990,-3.658232
1008.105469,2.889275,6.438224,9.275665,5.614503
1008.109375,14.713968,1.677350,2.311256,7.028697
1008.113281,6.555420,11.251474,6.119177,3.233710
1008.117188,8.381818,9.610068,4.547087,6.968531
1008.121094,8.169088,17.208068,7.705662,16.778107
1008.125000,8.865530,11.977040,14.060190,9.963838
1008.128906,14.561623,6.308098,9.075910,11.958586
1008.132812,10.112275,15.021718,1.769954,8.110778
1008.136719,0.262876,-2.916380,9.691883,2.863275
1008.140625,3.964920,7.940440,2.649144,9.364227
1008.144531,2.444643,4.596272,7.408588,1.524796
1008.148438,3.014197,-0.540275,3.500678,0.256564
1008.152344,-4.896706,-0.905233,-3.359473,-6.156973
1008.156250,-2.175103,-1.283809,-14.463032,3.273443
1008.160156,-10.680593,-0.555744,-6.197716,-4.824523
1008.164062,-3.892496,-8.197704,-10.376117,-8.094338
1008.167969,-13.099297,-10.642477,-10.833930,-11.059869
1008.171875,-5.900007,-11.848006,-9.426420,-10.434766
1008.175781,-12.566471,-8.843452,-6.339394,-12.719732
1008.179688,-9.977993,-8.311935,-15.239912,-12.927581
1008.183594,-11.955635,-12.353500,-6.156852,-4.915120
1008.187500,-9.723585,-6.357951,-10.273120,-12.725263
1008.191406,1.796575,-9.586563,-8.251704,-4.933732
1008.195312,1.212463,1.096829,-5.612389,-1.922768
1008.199219,-1.494257,-2.598038,2.778325,1.958240
1008.203125,4.462314,-0.165611,1.489305,1.879126
1008.207031,5.705740,-0.481390,3.092351,2.927600
1008.210938,3.144493,4.621767,10.635789,8.567458
1008.214844,4.276145,10.209480,7.191842,10.166799
1008.218750,16.656863,15.627169,4.058951,10.219753
1008.222656,17.618741,9.332687,14.843994,8.286705
1008.226562,14.160614,7.409608,8.111767,4.256488
1008.230469,7.605338,8.766731,11.810612,9.564990
1008.234375,8.334576,9.782440,6.425019,8.901405
1008.238281,0.668518,10.321191,7.224896,10.570395
1008.242188,5.306438,5.329753,4.180875,7.140840
1008.246094,0.170277,3.353362,4.770320,5.983882
1008.250000,2.320178,-5.795226,-0.442608,-3.981244
1008.253906,-3.022152,-2.798227,-10.020577,-4.615964
1008.257812,-3.901993,-5.027573,-13.930232,-5.924203
1008.261719,-13.091824,-8.569449,-10.924672,0.110774
1008.265625,-7.703166,-8.586472,-6.160978,-10.176709
1008.269531,-11.495649,-8.339058,-15.653932,-13.135003
1008.273438,-11.709331,-15.426684,-13.948613,-9.762053
1008.277344,-13.313287,-6.894927,-13.016897,-5.322353
1008.281250,-8.043196,-15.912496,-11.772968,-7.064856
1008.285156,-6.566315,-17.569926,-7.207336,-10.900955
1008.289062,-4.247830,-3.795400,-10.307942,-2.715685
1008.292969,-2.329347,-4.520388,-4.886116,-1.393606
1008.296875,-5.055694,-4.585885,1.741020,-3.943657
1008.300781,3.048161,0.045570,5.288519,5.521326
1008.304688,4.866085,1.384285,4.225317,2.330660
1008.308594,6.153240,0.739672,3.968114,4.663345
1008.312500,5.166352,7.377083,9.072866,15.559908
1008.316406,8.975717,19.429739,8.623881,12.481938
1008.320312,12.670766,10.266260,19.531672,6.872080
1008.324219,13.175605,4.499477,10.424954,17.136236
1008.328125,7.773682,13.913175,12.876216,14.347069
1008.332031,7.205383,8.320864,5.602631,9.061542
1008.335938,16.364332,10.983913,4.442799,2.356896
1008.339844,6.106593,1.830740,12.303367,6.828834
1008.343750,6.565070,-0.896654,13.904815,10.387749
1008.347656,-1.868905,3.864313,-1.650422,-1.067940
1008.351562,-1.138658,1.873990,-4.625753,0.359941
1008.355469,-3.498581,0.673528,-5.921805,-1.293974
1008.359375,-10.683045,-4.697063,-9.054433,1.258506
1008.363281,-7.321205,-5.350963,-5.527506,-8.022049
1008.367188,-4.114313,-11.508541,-12.019198,-0.198997
1008.371094,-7.470934,-11.570167,-21.435715,-14.331184
1008.375000,-9.929793,-10.051855,-12.881605,-6.015984
1008.378906,-6.481765,-12.416586,-22.254724,-7.067112
1008.382812,-6.525259,-8.045489,-9.819194,-14.204162
1008.386719,-4.690431,-12.802550,-2.676285,-6.679869
1008.390625,1.485782,-1.065775,-6.489926,-5.321835
1008.394531,-4.932706,-3.323783,-2.050944,-10.399856
1008.398438,-4.156945,1.963629,-3.255328,-3.060740
1008.402344,3.531178,-0.035659,3.435955,-2.994457
1008.406250,0.068486,7.037063,10.663086,6.192858
1008.410156,6.841496,4.560712,4.949351,11.197957
1008.414062,11.463181,10.248949,10.238904,6.833629
1008.417969,9.124401,4.888921,7.376559,4.232515
1008.421875,10.822805,-1.728254,13.293208,6.468864
1008.425781,13.167049,1.838954,10.777695,11.210140
1008.429688,9.761461,14.009990,5.273098,5.738002
1008.433594,9.322739,14.533964,5.774432,7.215940
1008.437500,1.273324,6.823742,3.768001,16.124576
1008.441406,1.924545,5.940680,9.639400,2.261268
1008.445312,2.260583,5.485481,3.427700,4.471160
1008.449219,11.689912,1.208953,-0.459301,8.187508
1008.453125,6.684975,-1.475789,2.019383,4.604298
1008.457031,2.024895,-5.328374,-6.183085,-3.697425
1008.460938,-10.951151,-6.516809,-10.828467,-1.924665
1008.464844,-5.550727,-13.864708,-7.710704,-17.341122
1008.468750,-9.221272,-8.384247,-12.224571,-8.952342
1008.472656,-11.325321,-8.583555,-13.108174,-13.150564
1008.476562,-15.103240,-11.049533,-9.971607,-10.559182
1008.480469,-10.236833,-7.997937,-6.779806,-4.096274
1008.484375,-9.938888,-7.774109,-8.101085,-6.402695
1008.488281,-4.946628,-6.371392,-6.525824,-1.442913
1008.492188,-3.844988,-9.362902,-12.453559,-8.448785
1008.496094,-4.573620,4.864110,-10.236691,-4.199898
1008.500000,-1.260839,-0.973819,1.532009,2.820978
1008.503906,5.215261,2.942100,10.245173,2.266481
1008.507812,5.817595,2.934492,4.521855,5.169945
1008.511719,13.857135,7.751247,8.079090,11.461935
1008.515625,2.538195,3.937596,-0.482485,10.067644
1008.519531,11.359237,3.543511,8.319754,18.890152
1008.523438,12.595549,8.391555,12.076978,8.495805
1008.527344,5.621818,13.387494,8.187795,12.857566
1008.531250,8.103045,14.001590,12.604260,19.931458
1008.535156,9.411577,9.096241,8.669693,8.090867
1008.539062,6.834115,3.126806,6.929114,2.142075
1008.542969,4.532781,6.969173,9.251439,2.464156
1008.546875,-0.606106,-4.278021,2.747085,5.546023
1008.550781,-4.217366,-3.459444,11.688572,-2.717217
1008.554688,-4.880271,-5.140730,0.770405,-1.854400
1008.558594,-1.694751,-7.620306,-1.583672,-5.723267
1008.562500,-12.857526,-5.970824,-8.964804,-9.173041
1008.566406,-11.625488,-2.731155,-15.106475,-2.094792
1008.570312,-16.010691,-13.745749,-6.486680,-10.195642
1008.574219,-9.366871,-6.329366,-14.580252,-9.645344
1008.578125,-12.835092,-10.285266,-10.864004,-8.973277
1008.582031,-11.717110,-6.923175,-9.927853,-6.692012
1008.585938,-9.612719,-7.267644,-8.011319,-11.821746
1008.589844,-15.270099,-4.799270,-5.098698,-9.967438
1008.593750,-2.260243,-11.082693,-4.397622,-8.332225
1008.597656,-0.235474,-1.181355,3.466476,-0.418213
1008.601562,6.010795,3.142616,-7.855584,-0.588711
1008.605469,0.464261,5.499597,1.838132,3.071420
1008.609375,8.658359,5.867550,5.965174,1.675403
1008.613281,11.654012,10.872147,4.234249,-0.189417
1008.617188,10.019340,4.235157,13.175887,-0.972275
1008.621094,7.757657,11.648252,12.195993,17.207300
1008.625000,14.248749,15.625070,4.964731,2.607240
1008.628906,7.850677,6.046902,12.565853,14.524492
1008.632812,9.043644,2.720773,20.148728,10.134740
1008.636719,11.698232,4.431806,3.924137,11.090408
1008.640625,8.990925,1.703588,5.915614,1.310425
1008.644531,-1.161760,3.381282,5.754140,9.031295
1008.648438,-2.352660,-3.477592,1.721855,-5.777585
1008.652344,-4.569468,3.038689,2.791805,1.497247
1008.656250,6.244237,-3.336800,0.591685,-4.585531
1008.660156,-4.071714,-1.002627,-1.455833,-2.836278
1008.664062,-7.064990,-7.245565,-13.213626,-11.264623
1008.667969,-10.290139,-8.089439,-1.205895,-8.605731
1008.671875,-8.650448,-12.880772,-9.134213,-3.752232
1008.675781,-5.413288,-11.111128,-8.732348,-8.275753
1008.679688,-11.888766,-3.249556,-7.929769,-8.313120
1008.683594,-12.216720,-9.649441,-12.663000,-4.297391
1008.687500,-5.173599,-5.489324,-3.802627,-7.107589
1008.691406,-4.519823,-0.897425,1.525806,-9.828569
1008.695312,-3.042426,0.651335,4.226747,-10.141568
1008.699219,4.506746,1.483333,-0.410276,4.179455
1008.703125,-0.657895,-2.765237,6.259264,7.864311
1008.707031,6.787469,3.494030,2.583922,-2.393557
1008.710938,5.180914,5.127062,3.659829,1.604169
1008.714844,7.061018,15.998197,-2.395206,10.173088
1008.718750,8.776311,12.220525,17.602973,9.727436
1008.722656,7.405214,12.434924,12.726941,5.676440
1008.726562,14.404465,10.111885,5.343920,9.598346
1008.730469,8.931001,6.638176,11.793836,3.862879
1008.734375,6.089776,11.857826,15.300711,14.717519
1008.738281,2.995244,9.433588,3.606388,5.835543
1008.742188,-2.555164,10.402661,2.311186,5.660393
1008.746094,-0.789610,5.009633,4.033978,2.997438
1008.750000,3.359860,-0.847626,-0.337984,-2.244357
1008.753906,1.695126,-5.052632,-1.234688,-6.439353
1008.757812,0.217669,-2.625916,-3.085037,-1.032026
1008.761719,-4.946587,-11.938499,-9.981216,-3.879187
1008.765625,-4.230541,-9.521443,-8.523543,-16.824428
1008.769531,-10.034354,-6.899585,-7.475232,-11.059453
1008.773438,-9.330456,-8.674144,-6.737998,-11.018892
1008.777344,-14.513251,-10.134857,-6.349048,-8.364735
1008.781250,-3.418105,-10.775722,-12.071153,-9.035558
1008.785156,-1.629018,-8.809352,-9.182742,-2.159475
1008.789062,-3.425510,-2.915975,-5.795427,-9.985393
1008.792969,-8.947210,-4.228034,-12.016235,-4.799551
1008.796875,-5.451520,-1.645649,-12.504026,-1.265347
1008.800781,1.366986,1.053173,9.961192,-2.602539
1008.804688,0.757762,7.880348,1.122285,3.324679
1008.808594,4.919470,5.107537,-1.702293,5.583264
1008.812500,11.575026,1.409863,4.265478,8.241631
1008.816406,11.638066,7.564873,9.468542,4.214682
1008.820312,7.199012,10.836874,7.654923,7.069832
1008.824219,6.415299,12.157262,6.243002,11.366951
1008.828125,14.982731,6.830765,5.733654,13.598301
1008.832031,8.763891,8.180052,13.405544,13.958127
1008.835938,7.899589,5.653248,5.641307,0.864849
1008.839844,4.531160,5.527309,14.703403,4.347490
1008.843750,1.893112,-2.089901,6.077314,1.921264
1008.847656,-0.422758,3.166117,1.633790,-4.787114
1008.851562,8.210341,-2.199518,-2.913883,-1.877754
1008.855469,-5.626953,-0.163777,-4.779627,-3.503307
1008.859375,-1.442431,-1.483117,-6.311602,-7.787225
1008.863281,-9.123031,-13.601389,-10.484316,-6.894910
1008.867188,-12.929344,-1.728970,-10.102238,-10.373878
1008.871094,-13.654766,-2.625758,-17.017809,-8.120729
1008.875000,-3.591836,-7.281390,-15.163146,-7.305325
1008.878906,-2.163403,-16.354984,-8.987393,-11.357860
1008.882812,-3.906759,-3.656584,-6.481645,-6.024276
1008.886719,-12.895969,-3.480019,-6.342525,-2.523479
1008.890625,-6.488400,-6.434915,-3.556374,0.321124
1008.894531,-1.411609,-10.422805,1.977878,-4.946778
1008.898438,-2.271619,3.657591,0.015797,0.704794
1008.902344,6.831663,6.356732,5.682075,0.311097
1008.906250,0.667341,1.761073,2.524154,8.191976
1008.910156,0.358336,0.443888,8.712256,3.016721
1008.914062,7.096336,10.866033,8.892411,4.723469
1008.917969,9.244123,-0.123012,9.377040,6.881769
1008.921875,8.018709,2.960918,6.984328,9.110616
1008.925781,11.438216,10.963714,10.562726,9.084842
1008.929688,9.622235,12.824510,7.834261,5.401739
1008.933594,13.154308,7.173761,8.193350,9.395389
1008.937500,4.591423,4.491863,6.114718,2.049660
1008.941406,1.364841,10.678704,4.115611,2.462809
1008.945312,7.998809,-3.364039,1.606041,9.680886
1008.949219,-2.348858,-0.642698,2.352520,3.311436
1008.953125,5.420401,0.662748,-6.552920,2.510851
1008.957031,0.877516,-0.969269,-7.876283,-2.764537
1008.960938,-5.503896,-0.072659,-6.600523,-5.191391
1008.964844,-5.025405,-12.472924,-8.734407,-11.859803
1008.968750,-9.759696,-7.794890,-12.575629,-10.743175
1008.972656,-7.541583,-7.897399,-10.681260,-13.351120
1008.976562,-9.353725,-16.165031,-5.029599,-0.736516
1008.980469,-3.397295,-6.531817,-7.920671,-5.602319
1008.984375,-4.694092,-14.417448,-12.532159,-8.267649
1008.988281,-8.383145,-6.150041,-2.705236,-9.992936
1008.992188,-11.447468,-3.353707,-4.905489,0.033920
1008.996094,-5.313921,-4.391787,-3.919970,3.298846
1009.000000,0.526758,3.759401,-5.095486,-3.623864
1009.003906,-3.432328,-0.310662,7.985832,6.908928
1009.007812,1.175313,5.920747,-1.629388,9.185458
1009.011719,14.094792,10.654395,5.728488,8.160229
1009.015625,7.088079,3.923031,3.291245,8.014427
1009.019531,7.560524,7.813438,13.013219,9.440004
1009.023438,13.350184,4.441843,11.635138,10.108127
1009.027344,11.126123,6.296400,10.150128,12.370236
1009.031250,12.533092,8.979612,8.812698,13.480489
1009.035156,3.319075,6.752069,7.503125,1.883230
1009.039062,4.546279,10.491342,7.410992,10.261706
1009.042969,6.647401,5.329665,6.922731,3.749681
1009.046875,12.240678,-2.105665,2.885523,9.890121
1009.050781,3.248737,-2.540726,-0.808068,-4.443007
1009.054688,-4.225479,-1.287968,-8.577539,-5.204442
1009.058594,-10.289191,-5.573110,-1.179915,-6.740379
1009.062500,-5.051588,-5.349004,-4.089778,-2.294093
1009.066406,-6.942251,-6.325078,-9.640974,-7.725136
1009.070312,-8.784235,-12.894321,-12.522399,-2.676903
1009.074219,-17.145652,-7.035751,-11.222987,-13.095043
1009.078125,-11.684510,-12.291504,-10.944826,-10.138996
1009.082031,-9.199773,-1.911690,-9.508700,-8.463810
1009.085938,-10.616942,-5.952201,-5.958881,-11.709649
1009.089844,-9.662222,-6.294207,-12.833377,-8.314568
1009.093750,-5.715355,-7.372904,-4.428935,-4.097260
1009.097656,2.453556,-9.357306,1.754693,5.902448
1009.101562,-3.739038,-0.956210,5.166790,10.979725
1009.105469,5.268617,5.554293,10.792656,3.486295
1009.109375,2.156334,-0.464560,3.767475,7.700408
1009.113281,5.822042,7.716651,4.857583,12.850100
1009.117188,6.994646,6.677747,13.864429,8.551809
1009.121094,12.382763,8.637904,12.906680,11.797790
1009.125000,11.928220,9.702442,9.823993,4.847441
1009.128906,13.739860,2.667285,17.522595,5.819731
1009.132812,11.772997,7.628162,9.004904,13.784594
1009.136719,10.829275,7.062539,11.272058,6.982864
1009.140625,5.771503,16.876278,6.210619,-1.682971
1009.144531,0.806889,6.011575,10.655345,-1.752236
1009.148438,3.138103,6.597231,9.629328,-2.112619
1009.152344,-4.077952,3.164603,-6.537209,-7.325372
1009.156250,-1.262424,-4.892642,-7.030981,-2.934993
1009.160156,-2.950037,-5.079476,-11.476747,-9.539992
1009.164062,-6.983676,-9.456034,-13.558780,-6.037892
1009.167969,-9.691127,-3.387790,-9.334855,-13.899883
1009.171875,-7.794723,-13.230309,-7.278148,-6.180170
1009.175781,-11.549940,-5.442978,-9.140272,-16.296804
1009.179688,-2.006156,-17.020455,-0.242851,-10.576028
1009.183594,-7.658540,-9.729227,-2.092691,-10.627142
1009.187500,-5.589989,-11.603342,-14.510901,-9.299108
