timestamp,TP9,AF7,AF8,TP10
1000.000000,6.978338,-0.052707,2.924625,3.231251
1000.003906,-0.731739,1.998211,7.882679,-1.334210
1000.007812,4.516630,4.943316,10.319695,3.141623
1000.011719,4.419792,10.392112,1.415891,4.641964
1000.015625,6.441991,1.535213,19.408642,8.393055
1000.019531,15.722728,4.453320,9.717778,9.690255
1000.023438,16.397658,7.859641,12.816316,9.846748
1000.027344,8.446547,18.497214,12.746822,6.901151
1000.031250,2.852701,12.967726,19.860707,12.338514
1000.035156,0.077668,6.788342,3.801384,11.993141
1000.039062,3.459038,8.204969,3.660254,4.051213
1000.042969,6.032912,0.841998,8.968549,5.359742
1000.046875,3.423945,5.478690,-0.477949,0.937779
1000.050781,-6.911046,-4.381071,-3.185886,-8.248175
1000.054688,-2.839275,1.652226,-5.841882,-4.621677
1000.058594,1.731106,-2.862044,-1.950264,-9.287353
1000.062500,-3.821191,-7.304330,-4.948114,-6.585219
1000.066406,0.019643,-10.600559,-9.383204,-13.178111
1000.070312,-9.468220,-8.251121,-10.866167,-12.038393
1000.074219,-14.673537,-9.647024,-8.308769,-13.871276
1000.078125,-9.402945,-3.444703,-3.587756,-18.121092
1000.082031,-6.769448,-6.325902,-13.537582,-6.063583
1000.085938,-7.912347,-9.887725,-9.529176,1.362847
1000.089844,-5.013968,-10.727146,-4.189787,-3.207446
1000.093750,-2.632358,-8.600608,0.927224,-0.918091
1000.097656,-1.505581,-6.922845,-9.783695,-0.886637
1000.101562,-1.394881,3.801670,2.262695,0.540213
1000.105469,3.822252,1.864134,1.837123,0.364926
1000.109375,5.957177,8.063111,1.349359,4.958940
1000.113281,5.955838,0.868439,2.477873,7.445522
1000.117188,9.094479,5.437971,4.668499,11.735390
1000.121094,8.497434,12.619358,8.504501,6.843785
1000.125000,8.433200,4.069970,9.680717,8.253883
1000.128906,14.773470,12.229152,12.162435,11.445037
1000.132812,7.725363,15.963138,12.737140,5.896014
1000.136719,9.191706,0.903029,13.092282,10.862197
1000.140625,-2.226816,5.192592,-0.128529,3.899520
1000.144531,-2.792476,4.038349,-0.100178,4.816351
1000.148438,4.688223,-1.506530,-3.589328,-2.598944
1000.152344,-0.090257,-7.630828,-1.578809,4.162276
1000.156250,-2.261164,-3.268781,0.661476,1.715258
1000.160156,-6.044043,-7.405538,1.108379,-2.019122
1000.164062,-4.729743,-11.379439,-0.195236,-7.117879
1000.167969,-12.494732,-3.218315,-5.030277,-6.058104
1000.171875,-7.317449,-12.132531,1.801686,-10.207311
1000.175781,-4.377154,-8.340685,-12.581855,-5.145020
1000.179688,-16.443492,-9.828512,-16.989590,-10.134573
1000.183594,-4.771705,-6.328583,-6.367667,-11.469706
1000.187500,-4.272549,-0.566303,-17.976671,-11.410248
1000.191406,-3.416402,-7.481925,-5.113306,-8.924098
1000.195312,10.094146,1.923967,-0.523718,-4.568155
1000.199219,-3.977529,2.035757,-5.980494,3.201518
1000.203125,1.492836,-1.634998,8.839348,-0.850513
1000.207031,5.027293,2.466023,4.998251,3.704803
1000.210938,8.395177,2.285230,6.105650,6.065179
1000.214844,6.326598,4.870938,5.973318,-0.870707
1000.218750,9.082535,15.423961,11.034671,7.604483
1000.222656,10.251532,10.258420,9.774088,7.089239
1000.226562,9.383508,9.154154,5.637911,4.153272
1000.230469,9.016725,8.742192,11.368290,15.483978
1000.234375,-3.209575,5.873319,5.063843,4.079770
1000.238281,9.282729,13.750143,11.446069,5.375658
1000.242188,7.875367,12.307920,6.333733,11.566345
1000.246094,-5.384216,6.946416,-0.628034,4.296921
1000.250000,0.209346,2.461207,-4.310535,-2.069563
1000.253906,-7.313369,1.856527,-5.992383,-8.822165
1000.257812,-3.392833,1.324924,-8.521430,-11.418472
1000.261719,-4.384141,-13.222214,-9.306779,-12.942450
1000.265625,-4.981631,-4.245935,-13.595198,-7.035138
1000.269531,-10.795382,-2.877805,-7.756606,-10.454029
1000.273438,-11.835748,-7.804141,-6.408635,-9.482977
1000.277344,-4.148798,-6.027377,-6.120999,-9.218363
1000.281250,-6.498894,-6.767084,-16.270564,-4.536664
1000.285156,-11.825718,-7.722377,-8.536784,-9.476190
1000.289062,1.261319,-12.014154,-8.204243,-10.768062
1000.292969,-2.761302,-1.422614,-4.910446,-5.846752
1000.296875,-6.358175,-0.822257,-5.507918,0.331764
1000.300781,-7.198083,-0.284606,1.017894,7.484827
1000.304688,1.791567,6.826437,5.942111,8.935704
1000.308594,13.255366,5.938618,5.054571,7.095412
1000.312500,6.479869,9.193494,13.846952,12.598490
1000.316406,3.135794,8.829500,10.817749,8.556135
1000.320312,8.811517,12.473267,11.171579,9.181009
1000.324219,17.935521,12.438729,20.375517,9.963520
1000.328125,9.776246,6.513449,3.570139,14.140795
1000.332031,4.438571,10.803892,3.556747,11.994304
1000.335938,10.960179,7.707684,5.108843,6.772983
1000.339844,3.822215,7.892137,0.583102,-0.103031
1000.343750,6.499964,-0.010506,3.288345,4.131348
1000.347656,3.366085,-5.084751,-3.884200,7.615041
1000.351562,0.770340,-1.149682,0.626694,0.273544
1000.355469,-2.202189,-4.983027,-0.446767,-5.541230
1000.359375,0.480906,-9.471844,-5.508297,-2.449554
1000.363281,-8.928354,-0.838463,-8.622632,-9.083496
1000.367188,-14.368199,-13.306052,-9.359249,-11.184062
1000.371094,-7.672971,-10.440975,-10.912111,-15.763969
1000.375000,-5.760095,-14.070833,-21.364803,-7.848996
1000.378906,-6.768213,-9.919107,-4.157826,-5.054148
1000.382812,-7.315259,-3.811848,-6.840949,-14.031902
1000.386719,-6.193323,-13.976026,-6.966192,-4.785765
1000.390625,-0.867520,-11.764222,-7.852187,-6.629200
1000.394531,-9.094818,-7.276134,-4.006719,0.179778
1000.398438,3.656740,2.887070,0.531254,-5.921883
1000.402344,-5.295055,3.143492,2.412801,0.846614
1000.406250,3.353669,8.938524,1.863833,11.448805
1000.410156,0.472520,11.489735,8.669795,1.471925
1000.414062,5.462985,8.696370,7.637386,4.593223
1000.417969,13.804430,-3.303878,11.590773,12.447336
1000.421875,14.399634,9.354306,7.533550,14.509246
1000.425781,10.527454,7.829282,12.558427,-0.809321
1000.429688,11.723630,17.967747,8.460711,12.048258
1000.433594,12.754750,9.268626,6.716541,10.825499
1000.437500,12.732248,3.128842,14.483866,12.731298
1000.441406,1.004242,0.764168,3.596550,0.270064
1000.445312,2.365138,3.349671,1.934736,8.323590
1000.449219,4.129256,-1.776887,2.041514,9.982110
1000.453125,-1.437973,-6.354269,-0.583980,9.544806
1000.457031,-4.248365,-1.409551,-5.477439,-8.175629
1000.460938,-2.631008,-13.321320,-7.622875,-6.045495
1000.464844,-6.295359,-5.797874,-7.511415,-11.088809
1000.468750,-11.218181,-12.130482,-13.389049,-5.216627
1000.472656,0.083356,-7.028822,-4.031051,-12.812398
1000.476562,-8.836231,-15.296400,-13.624961,-13.905818
1000.480469,-15.648129,-13.962543,-13.429956,-12.883812
1000.484375,-5.060963,-19.498064,-8.217750,-9.920918
1000.488281,-6.422627,2.539634,1.053226,-5.458397
1000.492188,-5.596330,-2.915380,-11.025143,-5.662902
1000.496094,-5.916226,2.832845,1.276240,-1.006248
1000.500000,-3.160032,0.212010,6.999296,-5.235908
1000.503906,-8.462028,2.353081,2.407379,0.816793
1000.507812,1.808093,3.396421,12.722623,4.292216
1000.511719,11.167496,9.454684,3.802973,4.671399
1000.515625,5.873364,3.255139,12.902325,6.103977
1000.519531,8.103343,7.146264,9.993236,4.675493
1000.523438,7.278510,7.102083,11.229830,8.255504
1000.527344,15.071692,13.970321,13.766283,11.651894
1000.531250,13.253013,6.314253,-0.990162,13.151401
1000.535156,12.646071,4.816559,9.166410,-4.034371
1000.539062,8.099091,4.860297,6.447897,3.727467
1000.542969,14.563688,6.453908,4.018650,4.206427
1000.546875,-11.152348,9.863554,8.384700,-0.545307
1000.550781,-4.882092,1.054935,6.315259,-2.674378
1000.554688,-2.760535,-2.616239,2.432263,2.651115
1000.558594,-2.167071,-11.060737,-5.715853,-7.468505
1000.562500,-1.702825,0.406858,-7.870319,-7.081423
1000.566406,-15.104585,-5.951247,-13.685482,-6.895599
1000.570312,-19.293641,-12.004882,-10.064044,-4.797410
1000.574219,-13.294311,-10.203265,-14.295262,-5.096161
1000.578125,-10.683836,-9.790291,-14.663594,-10.230395
1000.582031,-10.629365,-10.963145,-15.806787,-12.857119
1000.585938,-10.901098,-9.068855,-4.605673,-6.996253
1000.589844,-7.081535,-2.035662,-5.048681,-7.107602
1000.593750,-6.615992,-8.348146,-5.966547,0.493793
1000.597656,4.211004,-0.368007,2.913766,-1.641872
1000.601562,-1.163843,4.245085,-3.835316,-4.520092
1000.605469,2.691224,8.906097,4.126009,-3.199160
1000.609375,1.625334,8.275904,10.768419,7.272552
1000.613281,6.935408,11.202539,3.338236,10.223087
1000.617188,16.243652,5.340460,5.656294,9.872433
1000.621094,16.382713,11.060558,7.049638,11.695089
1000.625000,3.423101,17.328967,12.667301,15.904951
1000.628906,12.401199,2.248453,9.177107,6.973080
1000.632812,11.237435,11.510739,10.699347,8.476007
1000.636719,10.779666,8.780427,13.053656,8.450584
1000.640625,1.879469,10.841944,6.310288,5.694916
1000.644531,2.511393,2.151688,-1.176105,1.316898
1000.648438,6.343962,-4.646253,3.193872,-2.880575
1000.652344,-2.616073,-2.516463,-1.876845,1.709512
1000.656250,-14.539862,-3.851026,-0.039305,-4.280489
1000.660156,-4.564110,-4.012245,-5.962010,-7.661431
1000.664062,-12.400768,-1.596596,-7.256954,-11.676889
1000.667969,-10.468323,-8.454377,-16.469266,-4.156348
1000.671875,-6.622755,-13.696394,-12.606155,-12.869193
1000.675781,-13.505308,-4.982876,-4.633121,-2.497298
1000.679688,-3.342891,-17.812101,-9.085673,-7.752916
1000.683594,-16.849936,-12.134682,-8.851537,-15.406163
1000.687500,-13.822134,-6.420363,-10.172603,-10.922920
1000.691406,-3.239939,2.440079,-6.028278,-6.918361
1000.695312,-2.864934,-7.701477,-9.694849,2.044264
1000.699219,-2.494769,-3.038802,1.507140,-2.085971
1000.703125,2.823619,6.658718,-0.668003,-2.017063
1000.707031,2.955210,4.809390,0.583610,3.360024
1000.710938,5.383895,8.220589,4.111488,5.686131
1000.714844,9.115128,4.027844,5.042813,2.081185
1000.718750,5.070283,11.145658,13.688705,15.250708
1000.722656,9.364537,11.108690,10.026601,11.335543
1000.726562,4.900910,14.197115,10.254538,12.690504
1000.730469,7.154676,10.743509,8.156175,8.908979
1000.734375,11.912815,11.064250,7.718337,11.056008
1000.738281,5.172905,0.047900,-0.323816,3.961257
1000.742188,8.236898,6.163798,3.468056,1.377247
1000.746094,6.212656,4.472186,5.608004,-0.228926
1000.750000,3.969139,1.287570,-4.544763,7.206436
1000.753906,-1.296797,-7.519022,4.787654,-11.251048
1000.757812,-0.035297,-6.534956,-10.222816,-12.395305
1000.761719,-7.052111,-1.620434,-14.604601,-8.055049
1000.765625,-4.359556,-10.002129,-11.871193,-7.858990
1000.769531,-8.447694,-9.064123,-16.370777,-13.242880
1000.773438,-14.082143,-3.356447,-6.621144,-6.261159
1000.777344,-12.988212,-7.852536,-11.750764,-13.638614
1000.781250,-9.910537,-11.849214,-5.728264,-8.941717
1000.785156,-6.246917,-6.784790,-11.545217,-12.544905
1000.789062,-4.811172,-9.267282,-7.631488,-4.092167
1000.792969,-9.505023,-6.887030,-1.326999,-5.799319
1000.796875,-1.865167,-6.531315,-4.885656,-3.442085
1000.800781,-0.294229,-3.175258,-4.416228,2.630486
1000.804688,2.208380,1.210809,2.726224,3.861323
1000.808594,3.619336,5.332875,5.446343,7.367585
1000.812500,0.193003,8.612236,9.976057,-0.013153
1000.816406,5.299207,7.952513,8.192602,5.719959
1000.820312,9.769222,5.604579,11.534562,12.490407
1000.824219,11.355624,7.118848,10.907395,2.941245
1000.828125,7.425926,11.741175,5.050394,5.379947
1000.832031,6.018043,11.035349,12.118498,2.815550
1000.835938,0.144247,4.339343,12.660208,11.630311
1000.839844,4.699907,7.493486,12.811381,6.523849
1000.843750,4.686203,1.834682,0.806402,0.208593
1000.847656,2.638720,6.348819,-2.553629,2.692389
1000.851562,0.229796,-0.515049,0.039325,2.298949
1000.855469,-2.325477,-5.409694,-5.031921,0.061183
1000.859375,-2.185333,-7.043345,-6.758669,-7.337602
1000.863281,-6.178619,-11.722339,-12.558428,-10.416437
1000.867188,-9.649580,-7.306664,-6.041232,-13.124837
1000.871094,-9.137043,-11.914612,-11.701561,-10.810770
1000.875000,-9.446349,-16.822954,-4.054122,-9.008316
1000.878906,-9.328950,-11.088763,-10.366350,-6.909462
1000.882812,-4.124158,-12.759274,-8.036924,-14.588429
1000.886719,-13.582172,-3.685201,-11.531411,-10.113270
1000.890625,-3.762068,-10.040482,-9.044037,-1.468264
1000.894531,-1.308290,-6.310718,-4.589925,-2.276925
1000.898438,2.697982,11.008681,-0.647128,-8.434854
1000.902344,-0.111911,-3.873958,-3.342416,-3.296416
1000.906250,3.580538,0.923360,8.922527,2.580163
1000.910156,10.832796,4.174655,7.962991,11.953695
1000.914062,0.390946,5.053395,6.067873,13.219921
1000.917969,10.659902,8.562592,14.389387,6.912802
1000.921875,6.354319,4.814919,4.551172,-0.944112
1000.925781,5.721501,13.856979,9.286090,4.507036
1000.929688,10.732742,5.520424,3.798034,10.973111
1000.933594,5.994960,4.833430,12.871522,8.405087
1000.937500,11.519760,1.207367,4.881637,3.899362
1000.941406,6.128584,8.238497,-0.550397,0.125728
1000.945312,3.795892,2.602083,-4.688431,0.721510
1000.949219,1.591327,5.743375,7.168280,-1.976529
1000.953125,-4.278890,-8.524798,2.335371,-6.489752
1000.957031,-5.876231,3.315603,-3.392496,-5.836539
1000.960938,-6.678243,-10.461419,-8.651855,-7.649454
1000.964844,-4.605514,-5.976807,-9.853755,-13.455389
1000.968750,-14.272758,-11.145882,-15.802908,-10.933395
1000.972656,-20.768695,-17.879857,-11.165595,-7.252614
1000.976562,-4.632141,-6.574423,-3.031275,-4.545619
1000.980469,-15.660514,-15.352341,-15.898905,-14.141299
1000.984375,-9.067170,-1.346285,-4.879549,-7.727859
1000.988281,-5.291703,-2.915532,-16.021302,-11.868040
1000.992188,1.232520,-10.751482,-4.052191,-5.934860
1000.996094,-1.165129,1.352058,-3.825529,0.668262
1001.000000,-0.276059,-0.540552,0.150029,0.504491
1001.003906,4.336969,4.638115,4.637402,-0.352922
1001.007812,3.576647,-2.260404,7.863142,3.801398
1001.011719,4.973259,15.263383,6.180472,5.539175
1001.015625,7.419476,10.109371,9.884867,5.692515
1001.019531,13.189259,7.747261,4.281253,12.032778
1001.023438,9.523224,10.076238,11.337334,8.928723
1001.027344,3.425076,8.658493,9.482044,8.817244
1001.031250,2.302454,8.341456,5.475886,9.060269
1001.035156,1.912101,-1.688947,11.277465,10.000234
1001.039062,8.523524,3.169982,12.483296,3.120318
1001.042969,2.520964,10.828831,4.267355,5.387563
1001.046875,2.007293,-2.274253,10.836205,1.621887
1001.050781,2.440833,-7.646535,-12.050654,-2.441551
1001.054688,-8.253414,-2.840053,-2.152729,-2.856178
1001.058594,-3.873236,-8.177787,-0.150522,-9.147576
1001.062500,-6.508138,-3.640132,-11.696658,0.644770
1001.066406,-9.371663,-9.769510,-0.403625,-10.372946
1001.070312,-6.700206,-6.205214,-4.672834,-9.095638
1001.074219,-12.037161,-5.995592,-14.534842,-9.429488
1001.078125,-11.175139,-16.313588,-15.041287,-7.852861
1001.082031,-9.905556,-4.288964,-12.206523,-6.440052
1001.085938,-8.862938,-14.690142,-5.743252,-9.349300
1001.089844,-6.568286,-6.376680,-1.460745,-6.623709
1001.093750,-6.853098,0.666969,0.608630,-9.134180
1001.097656,3.820674,-5.544749,-0.036943,-7.625579
1001.101562,1.823889,-1.412064,5.778384,3.710999
1001.105469,-1.525963,8.226310,5.370015,-4.458302
1001.109375,3.862819,9.111648,2.018206,6.913180
1001.113281,8.052420,4.249757,6.285734,9.595090
1001.117188,10.859327,5.510686,9.393061,4.457199
1001.121094,11.806786,10.212669,8.220758,17.671388
1001.125000,7.964019,12.249883,10.888465,8.639896
1001.128906,-0.579733,9.477267,11.095736,7.794328
1001.132812,4.764534,13.982931,5.677106,7.183830
1001.136719,10.345533,9.676473,3.257590,4.134782
1001.140625,0.424976,6.236319,7.001660,8.581048
1001.144531,3.182239,5.724791,3.505203,3.741063
1001.148438,-0.412052,0.760520,-1.542216,-3.525072
1001.152344,-6.947835,-6.822773,11.446906,1.223400
1001.156250,0.344391,-3.877163,-9.483884,-2.288345
1001.160156,-1.665371,-1.734732,-2.536345,3.006088
1001.164062,-8.106417,-6.249288,-16.800339,-12.504593
1001.167969,1.720647,-7.386204,-7.320960,-2.331401
1001.171875,-9.206602,-11.235531,-7.243579,-13.229882
1001.175781,-18.438470,-9.656572,-7.349896,-11.237142
1001.179688,-9.454523,-5.376127,-11.349718,-7.683327
1001.183594,-8.626147,-10.462701,-6.173503,-7.112317
1001.187500,-5.296298,-3.412834,-18.909882,-14.709231
1001.191406,0.269329,-10.706037,-3.635713,-3.848323
1001.195312,4.448435,-3.784934,-3.479083,-5.904259
1001.199219,-1.810635,3.835167,2.367267,-0.805704
1001.203125,10.042100,-1.420287,2.033750,-2.108324
1001.207031,2.598540,2.558128,6.589021,5.763168
1001.210938,1.190307,7.035059,1.843694,4.322064
1001.214844,9.180612,11.422365,6.527962,11.292993
1001.218750,7.682597,9.070882,4.945560,9.736099
1001.222656,10.476339,6.719512,6.121048,1.379695
1001.226562,9.221681,4.634156,2.714863,4.902149
1001.230469,2.026044,9.179828,12.135028,7.238481
1001.234375,16.476690,10.012803,4.658866,11.479738
1001.238281,13.461829,12.485784,7.684567,-4.287482
1001.242188,4.715087,-1.866265,4.465832,-4.492008
1001.246094,1.884671,1.384641,1.826316,5.514808
1001.250000,0.887241,-8.403172,1.319729,1.598399
1001.253906,-7.995718,1.879792,-14.475835,1.820730
1001.257812,-4.160349,4.241116,-0.487847,-12.369112
1001.261719,-6.987327,-3.316061,-7.771904,-5.142908
1001.265625,-8.757517,-13.628765,-9.292360,-12.386647
1001.269531,-10.884919,-14.240585,-5.300698,-8.373083
1001.273438,-20.320575,-10.280277,-14.274006,-11.553188
1001.277344,-7.720116,-20.812086,-7.322025,-13.293519
1001.281250,-7.488356,-11.046994,-13.471878,-0.824210
1001.285156,-7.763892,-13.621265,-8.317943,-12.162322
1001.289062,-4.817357,-3.852478,-0.964168,-1.907745
1001.292969,-1.444297,0.423587,-7.598087,0.685931
1001.296875,0.206271,-0.026101,-2.259163,0.233096
1001.300781,5.532150,-3.428141,2.812602,2.407826
1001.304688,7.597392,9.380869,6.365206,4.916120
1001.308594,5.363255,6.649471,3.889219,1.758246
1001.312500,7.513672,4.470723,7.023243,4.382681
1001.316406,13.848181,3.719278,4.330606,9.404558
1001.320312,5.503854,5.368827,7.076159,7.113026
1001.324219,6.494362,4.444572,13.052389,17.436227
1001.328125,12.299413,6.441224,8.265196,7.839984
1001.332031,9.717747,7.546207,5.411662,4.946968
1001.335938,4.283498,11.453725,11.084422,5.933503
1001.339844,8.897186,6.808310,6.333232,8.630777
1001.343750,2.561625,-6.628282,5.733117,-3.333556
1001.347656,0.694737,6.358243,3.105332,1.020724
1001.351562,-6.887494,-0.480341,-0.859410,-1.178207
1001.355469,-3.340805,-7.072665,-5.684798,-9.371495
1001.359375,-2.190542,-3.531221,-6.698124,-0.003138
1001.363281,-10.567950,-9.239056,-13.395454,-7.622079
1001.367188,-6.722064,-9.705383,-12.571907,-4.731907
1001.371094,-6.234586,-12.969602,-11.963919,-11.480654
1001.375000,-7.685853,-11.463376,0.272042,-12.844753
1001.378906,-9.941251,-11.831579,-4.035608,-3.837765
1001.382812,-3.952230,-7.204952,-9.757638,-10.748450
1001.386719,-7.563579,-5.944588,-8.766363,-5.363430
1001.390625,0.629607,-1.193682,-7.452773,-7.539425
1001.394531,3.874135,-4.155616,-4.714178,-4.741942
1001.398438,1.971962,1.126351,-6.975586,-1.903064
1001.402344,3.553920,1.773393,-1.000700,-0.502552
1001.406250,-0.666850,7.090295,-0.291792,-4.120032
1001.410156,5.957879,3.807144,5.757435,12.158381
1001.414062,11.143610,1.777157,4.295996,8.173429
1001.417969,15.870982,12.555353,6.435061,8.377664
1001.421875,4.984113,9.125664,9.882589,8.523375
1001.425781,12.881979,6.536545,14.030949,12.688710
1001.429688,10.906326,17.235497,10.321861,16.468619
1001.433594,10.205664,7.524442,9.648751,9.185434
1001.437500,1.981209,14.013689,15.242484,1.164151
1001.441406,5.118320,-4.572670,4.581147,-2.263654
1001.445312,0.179427,-1.285506,4.737808,3.763463
1001.449219,-0.058727,6.320531,-6.472333,1.187342
1001.453125,-1.709617,-0.836586,-4.858525,-10.237831
1001.457031,-7.581622,-3.434768,-14.592195,-5.785115
1001.460938,-5.892865,-12.946675,-8.268355,-6.517860
1001.464844,-9.401336,-13.396596,-7.686509,-3.836709
1001.468750,-4.003651,-10.262524,-15.973892,-8.137428
1001.472656,-9.944510,-10.728407,-3.078782,-3.670075
1001.476562,-8.009373,-12.427538,-10.874462,-6.386359
1001.480469,-3.964295,-3.195420,-13.320786,-12.579835
1001.484375,-9.310480,-12.090616,-9.013354,-8.251772
1001.488281,-0.459631,-1.891850,-10.236055,-4.546185
1001.492188,-1.506033,-4.551848,-9.716792,0.368935
1001.496094,-4.469688,-8.811713,2.660514,-2.947670
1001.500000,1.644651,4.506946,0.911335,4.478524
1001.503906,6.864785,8.123793,3.282330,-0.550862
1001.507812,3.714943,9.594566,1.383912,1.539568
1001.511719,6.350477,11.779359,3.722012,14.838397
1001.515625,14.622236,14.450554,7.542507,6.963482
1001.519531,8.080539,9.448909,14.581668,9.026717
1001.523438,9.202969,14.707182,13.219037,12.978149
1001.527344,8.667207,7.222120,10.466194,10.711377
1001.531250,11.222469,11.936947,11.776131,13.169608
1001.535156,2.456637,9.044707,9.415606,10.888615
1001.539062,5.980365,6.557244,3.832685,-1.422751
1001.542969,5.599924,1.975764,1.234997,3.572442
1001.546875,-4.659914,2.344584,1.221137,3.458530
1001.550781,-5.913925,-3.693833,-9.043971,-1.480668
1001.554688,-5.215616,-6.406778,-14.663950,9.608382
1001.558594,-1.918887,-5.400987,-8.657498,-0.520892
1001.562500,-11.748823,-6.338552,-5.613775,-9.202840
1001.566406,-5.800667,-10.427420,-13.481537,-6.314174
1001.570312,-13.206856,-7.475986,-12.253487,-12.654152
1001.574219,-6.916667,-11.979012,-14.296093,-7.187869
1001.578125,-6.002137,-10.466344,-3.980433,-8.266361
1001.582031,-3.116132,-12.364290,-2.598987,-4.247562
1001.585938,-0.443143,-11.176190,-6.815433,-7.124881
1001.589844,-11.007682,-4.670397,1.624851,-15.518005
1001.593750,-1.289560,-5.586196,-10.492071,-2.600058
1001.597656,0.453205,-2.200234,-1.124856,-0.507664
1001.601562,0.694900,-2.385514,2.535082,-4.199729
1001.605469,2.125493,-2.716394,0.707157,4.691842
1001.609375,3.970057,10.749086,14.367387,2.504108
1001.613281,10.494695,10.259645,2.428704,8.594836
1001.617188,13.985519,3.501007,3.963316,18.403417
1001.621094,10.405509,13.165587,12.185497,5.180011
1001.625000,7.793085,12.158501,15.194329,7.654004
1001.628906,5.400028,9.130893,4.369795,9.600216
1001.632812,5.422954,7.387429,9.894021,15.369952
1001.636719,12.748851,16.231738,3.334289,9.370927
1001.640625,-2.644978,2.492629,7.442150,11.375770
1001.644531,1.465469,5.321831,3.885722,2.796658
1001.648438,0.549972,3.118856,0.798663,3.254056
1001.652344,-4.142354,-0.700299,6.432861,0.950191
1001.656250,-2.464254,-0.713523,-9.396306,-8.317371
1001.660156,-11.786154,-7.554725,-8.565735,-5.828298
1001.664062,-12.562242,-15.487611,-9.675204,-8.075914
1001.667969,-2.179808,-15.188626,-6.576006,-9.983142
1001.671875,4.634796,-10.849689,-9.794634,-14.307945
1001.675781,-9.995981,-17.186236,-6.364009,-20.428854
1001.679688,-6.441241,-11.208382,-5.578966,-12.505569
1001.683594,-5.732769,-5.031935,-16.387478,-10.306565
1001.687500,-13.003086,-6.923719,-11.304297,-9.128233
1001.691406,-8.091148,-5.127968,0.052557,-1.659934
1001.695312,-8.628933,-0.359812,-8.451690,-5.032388
1001.699219,3.725219,-5.547079,1.947367,1.805540
1001.703125,9.171042,5.296429,2.532052,-4.571011
1001.707031,0.512343,1.288799,4.946086,3.817045
1001.710938,10.994990,10.617915,9.115174,5.644449
1001.714844,5.518417,7.373247,8.654233,6.953735
1001.718750,9.225018,15.263364,6.578766,8.202546
1001.722656,7.531519,8.654932,16.845131,10.275095
1001.726562,14.041164,8.828674,6.961859,6.318158
1001.730469,1.937360,3.921933,11.892916,12.991409
1001.734375,4.721433,6.022846,10.815563,14.430563
1001.738281,8.881352,7.274999,11.461175,12.494417
1001.742188,8.420659,4.226703,9.890106,-0.215990
1001.746094,-1.481361,-1.045387,6.104631,-6.942187
1001.750000,1.345385,-2.193194,-4.337348,1.994160
1001.753906,-5.915808,1.850645,-2.864495,2.426547
1001.757812,-8.123315,-4.606152,-7.000328,-5.414979
1001.761719,-10.483111,-3.046126,-14.664334,-3.295905
1001.765625,-5.408830,-5.825325,-5.420629,-5.952245
1001.769531,-16.681737,-14.341217,-9.519841,-8.008673
1001.773438,-12.322163,-1.658939,-3.086872,-11.284945
1001.777344,-6.058053,-14.898832,-11.319018,-9.674155
1001.781250,-13.067436,-8.995612,-5.727078,-13.945010
1001.785156,-6.317597,-14.724505,-11.178738,-1.023407
1001.789062,-14.115005,-3.555559,-1.410778,-2.597928
1001.792969,-2.222205,-9.130452,0.925379,1.298407
1001.796875,-4.473929,-3.213970,-3.054250,-4.272842
1001.800781,-0.906762,-4.676502,4.325344,-0.246509
1001.804688,6.438380,9.293134,1.650312,7.995326
1001.808594,-1.581679,3.443491,6.940145,9.112508
1001.812500,8.266461,9.180531,9.828323,2.416765
1001.816406,11.908474,5.795367,5.961453,14.484168
1001.820312,9.856927,8.097418,5.456534,10.550207
1001.824219,5.027952,12.811099,7.151054,7.954281
1001.828125,11.952478,6.599812,13.510984,10.926087
1001.832031,13.287702,3.586044,2.848465,8.509085
1001.835938,12.417836,4.858847,6.084968,9.812210
1001.839844,9.768400,3.015386,5.633778,-0.331575
1001.843750,5.099810,0.684755,7.324352,7.239227
1001.847656,-2.248161,0.462272,7.657581,-3.389424
1001.851562,-6.725295,-1.436232,-2.772743,-4.255192
1001.855469,-5.160533,3.325611,-12.245942,-8.145178
1001.859375,-4.574232,-8.118914,-10.041603,2.457774
1001.863281,-4.010884,-9.962977,-1.957162,-2.496981
1001.867188,-10.494627,-9.433911,-10.832526,-15.492176
1001.871094,-1.927657,-8.568610,-7.721960,-6.478428
1001.875000,-4.996910,-10.743567,-8.375374,-7.145226
1001.878906,-4.931733,-9.675549,-10.226274,-1.596275
1001.882812,-1.313789,-1.807609,-8.926814,-9.035226
1001.886719,-5.422782,-4.606021,-5.899754,-5.803341
1001.890625,-1.579430,-6.328211,-3.299965,-1.201159
1001.894531,-3.610366,-6.987523,-5.274243,-7.324425
1001.898438,-6.006219,1.630930,-1.552157,-1.228136
1001.902344,0.065823,8.111553,10.788428,5.768994
1001.906250,2.724900,4.585698,4.978251,1.459070
1001.910156,13.779763,4.507987,7.969012,5.436549
1001.914062,11.424849,5.825774,5.421589,19.080751
1001.917969,10.754738,8.842512,7.043568,11.750493
1001.921875,9.272470,6.895534,10.002588,11.682895
1001.925781,8.654015,7.306435,16.184705,13.270016
1001.929688,5.871574,5.811881,11.905886,15.730654
1001.933594,5.997760,7.322424,7.962518,12.194855
1001.937500,2.276748,10.292481,14.998732,5.729902
1001.941406,12.215194,10.807823,5.018590,3.374716
1001.945312,3.268581,-4.776601,-3.752604,0.524143
1001.949219,4.189073,9.189456,-1.698760,5.026757
1001.953125,-5.330337,-4.955477,-5.849178,1.594632
1001.957031,-1.079042,-3.894288,-7.252086,0.360694
1001.960938,-10.546604,-10.699654,-2.142224,-10.076342
1001.964844,-5.574004,-3.047909,-7.537330,-5.440946
1001.968750,-9.551129,-7.358776,3.633800,-6.436152
1001.972656,-5.023485,-11.966544,-10.753614,-6.269509
1001.976562,-3.940751,-4.972908,0.515770,-12.336958
1001.980469,-16.833071,-9.458620,-15.248074,-8.622109
1001.984375,-15.231687,3.751510,-9.900637,-4.687633
1001.988281,-13.523204,-3.577144,-10.636252,-8.035393
1001.992188,-5.581121,-11.065710,-6.351116,-0.383292
1001.996094,1.906598,-1.491810,-5.885558,-0.404999
1002.000000,3.464546,0.038375,-5.540797,3.525672
1002.003906,5.185823,6.043903,6.451095,1.360647
1002.007812,3.041453,5.094033,3.372438,0.543067
1002.011719,12.539978,11.579605,1.543089,6.500283
1002.015625,0.444720,8.646649,11.183825,9.817881
1002.019531,4.704289,14.464397,12.077180,7.251031
1002.023438,8.530572,3.916502,11.271831,15.038544
1002.027344,7.718913,13.493998,8.584239,12.836476
1002.031250,9.774160,10.358617,14.210998,3.817560
1002.035156,9.484388,16.254374,7.277822,8.700441
1002.039062,3.488771,4.702507,8.278932,0.491651
1002.042969,2.898385,6.922853,8.058391,0.393555
1002.046875,0.859104,-2.268731,4.445917,-4.030861
1002.050781,-0.044409,-1.415931,1.641734,4.724408
1002.054688,-3.084705,0.883992,-6.188602,1.456267
1002.058594,-8.575902,-5.944828,-3.546505,-8.063457
1002.062500,-6.739885,-7.382425,-3.780847,-7.785217
1002.066406,-9.013868,-10.007204,-16.560845,-9.449668
1002.070312,-9.011624,-9.072493,-13.147745,-10.560412
1002.074219,-12.577994,-17.499538,-12.778422,-14.907529
1002.078125,-18.235271,-11.588223,-11.043903,-15.962524
1002.082031,-16.250283,-8.621923,-4.706639,-4.512777
1002.085938,-5.175495,-14.566714,-12.268744,-8.926825
1002.089844,-12.671699,-3.927618,0.611858,-5.953737
1002.093750,-1.603083,-5.670613,-1.813470,6.790418
1002.097656,-3.456043,-6.749429,-4.495008,0.863254
1002.101562,-5.675915,-0.914217,-2.043777,-0.000563
1002.105469,2.410317,1.525947,11.444120,6.373364
1002.109375,-2.466724,0.939883,8.134237,1.795010
1002.113281,15.200312,8.170258,10.274674,1.735120
1002.117188,6.255956,16.774498,5.660957,5.894019
1002.121094,12.677641,9.266721,4.370495,8.576344
1002.125000,13.677453,13.695580,9.993943,7.142058
1002.128906,10.547094,9.445377,9.580525,6.053786
1002.132812,9.681772,7.219070,12.353379,14.954165
1002.136719,5.167748,5.730236,7.714603,0.058870
1002.140625,2.828994,-1.883791,7.629932,7.134482
1002.144531,2.382739,4.523909,-0.842904,8.101342
1002.148438,-2.602232,-0.360268,-0.287504,4.742654
1002.152344,-0.999760,-8.374134,-4.345198,1.408574
1002.156250,-6.740341,-8.297515,-4.347851,-1.840904
1002.160156,-9.473245,-1.376637,-3.706864,-6.355862
1002.164062,-8.735171,-9.118401,-12.237704,-14.109688
1002.167969,-21.432355,-7.921103,-11.767194,-5.107251
1002.171875,-12.076635,-5.477390,-10.733790,-13.170091
1002.175781,-6.062976,-14.817839,-10.163670,-4.433789
1002.179688,-10.229411,-9.753227,-2.905786,-8.071853
1002.183594,-12.006788,-5.831428,-4.509659,-10.380278
1002.187500,-8.475072,-5.596229,-14.903790,-7.639675
1002.191406,-1.568953,-6.150177,-1.819724,0.384180
1002.195312,-6.656738,4.784414,-5.636237,-0.405806
1002.199219,2.831234,-4.653055,-6.474965,-6.323966
1002.203125,2.363338,8.029865,2.565577,-5.544762
1002.207031,-2.426936,8.544948,6.995562,4.103927
1002.210938,-1.668184,-6.048303,-0.877916,9.485013
1002.214844,4.422485,7.462253,6.466152,4.046150
1002.218750,1.646280,9.884344,1.641169,5.156223
1002.222656,6.835577,9.701502,8.118232,11.181656
1002.226562,12.318495,9.958717,6.408775,8.815479
1002.230469,8.244094,11.841208,12.698723,7.652631
1002.234375,6.354155,11.798298,8.015362,0.892544
1002.238281,9.053036,6.277515,11.071729,0.394465
1002.242188,5.849332,3.356738,6.679117,2.191100
1002.246094,2.895115,6.752473,9.418779,1.141613
1002.250000,1.274760,8.086190,2.960727,-6.932615
1002.253906,5.363420,-6.818087,1.057889,-10.219304
1002.257812,-6.562339,-3.482278,-2.459986,-1.895314
1002.261719,-12.257256,-9.696765,-10.374532,-9.137401
1002.265625,-5.698828,-6.233488,-3.089171,-11.085115
1002.269531,-12.567986,-7.254043,-8.258152,-15.472374
1002.273438,-5.548309,-1.140080,-7.183172,-15.066351
1002.277344,-10.486350,-5.522115,-6.989790,-7.074819
1002.281250,-15.704714,-5.641421,-17.327215,-8.576678
1002.285156,-4.983708,-12.370795,-7.964263,-7.876024
1002.289062,-9.502517,-8.440931,-0.872643,-9.395768
1002.292969,2.324833,-11.161043,-9.973539,-4.437913
1002.296875,-5.855186,-3.481447,4.608853,2.521076
1002.300781,0.468332,0.260245,0.073276,-2.933475
1002.304688,2.301224,2.672721,9.260244,5.219514
1002.308594,2.141626,2.543856,1.508428,-0.117094
1002.312500,5.941252,9.198465,0.921019,13.619220
1002.316406,13.341367,8.465953,10.651282,8.133055
1002.320312,11.588430,4.566466,7.982236,5.289149
1002.324219,10.980034,11.681779,10.663241,4.856765
1002.328125,12.033494,11.178084,12.320604,8.682126
1002.332031,0.251220,9.401887,11.218135,7.704784
1002.335938,9.747350,9.684915,5.210012,9.558622
1002.339844,7.780566,6.145340,4.719119,4.768846
1002.343750,8.041687,-3.376922,-1.656716,5.201696
1002.347656,2.180636,-0.202607,3.428346,5.835073
1002.351562,6.447896,2.428761,-3.341086,-2.481593
1002.355469,4.184819,4.785065,-9.912262,2.020629
1002.359375,-11.474297,-9.520386,-2.036357,-9.389027
1002.363281,-10.796629,-13.225377,-12.553340,-7.832497
1002.367188,-6.305177,-10.881254,-6.604017,-5.809401
1002.371094,-10.852642,-6.560369,-15.759247,-12.666422
1002.375000,-6.973079,-12.646542,-6.479483,-14.915426
1002.378906,-5.264660,-11.704969,-13.917603,-8.740217
1002.382812,-10.028674,-11.031794,-7.193620,-9.031010
1002.386719,-8.165938,3.267191,-10.650095,-9.796747
1002.390625,-1.299382,-3.556918,-1.317903,-5.715405
1002.394531,3.091704,-2.760890,-3.788426,-5.586606
1002.398438,-0.135755,-2.404322,-2.253161,-1.720580
1002.402344,9.280013,-2.514232,0.363771,-2.068878
1002.406250,5.216368,5.234310,1.183467,4.104846
1002.410156,6.311189,10.513749,10.477185,2.535849
1002.414062,-1.410594,10.716068,7.302093,5.745341
1002.417969,12.125243,12.201534,12.808616,4.314513
1002.421875,6.246669,12.967864,5.501203,7.058096
1002.425781,13.580641,12.160891,5.898031,9.230832
1002.429688,3.749106,8.604971,9.914038,4.226003
1002.433594,10.872561,14.858444,7.246396,10.927426
1002.437500,8.184021,7.443698,1.323794,3.168702
1002.441406,9.445319,-2.128902,0.800578,4.789720
1002.445312,10.630935,7.380192,-2.034925,0.098323
1002.449219,-2.510778,7.876335,-1.519470,1.435532
1002.453125,-2.528785,-2.040126,-2.434558,-6.339985
1002.457031,-7.600647,-8.212359,-4.899955,-10.641548
1002.460938,-8.838376,-9.196054,-6.101257,-4.836863
1002.464844,-10.306069,-10.270691,-5.475792,-4.402898
1002.468750,-12.150524,-13.653357,-7.710139,-9.471658
1002.472656,-7.357669,-13.880771,-5.946296,-8.022715
1002.476562,-11.816589,-19.739876,-9.621773,-12.937207
1002.480469,-12.924265,-6.303261,-12.924858,-5.775795
1002.484375,-5.572864,-7.687054,-12.593442,-6.500194
1002.488281,-4.692456,-4.707263,-6.957159,-1.819667
1002.492188,-5.981756,-4.262916,-5.018639,-3.841025
1002.496094,-1.885747,4.275962,5.060658,-8.859917
1002.500000,6.223311,-0.386444,-0.106426,-2.714317
1002.503906,-1.403707,0.777944,1.529194,1.633556
1002.507812,-3.105426,5.387197,2.960341,-0.045892
1002.511719,3.000070,6.083216,10.481580,3.842511
1002.515625,7.060549,5.161859,6.778654,10.581204
1002.519531,7.709197,9.563748,12.843775,9.201121
1002.523438,-1.620193,13.133165,5.776412,12.643893
1002.527344,5.628367,1.694379,6.676497,15.808850
1002.531250,6.264753,6.130961,6.333196,10.164926
1002.535156,7.003802,8.620972,2.501689,6.900061
1002.539062,7.938224,5.800918,7.948658,6.723818
1002.542969,-3.899874,5.341236,4.279947,2.791113
1002.546875,5.378331,-0.193263,4.327547,5.228089
1002.550781,-1.574896,2.842362,3.501275,-0.936820
1002.554688,5.373559,-3.724497,1.140330,-2.652807
1002.558594,-7.563318,-9.321136,-4.622881,-0.978095
1002.562500,-1.785392,-9.084751,-10.538535,-10.921332
1002.566406,-14.879367,-10.224707,-13.079508,-15.119474
1002.570312,-11.380077,-6.590018,-13.048131,-12.427508
1002.574219,-8.197179,-8.102936,-16.670005,-6.601959
1002.578125,-11.946633,-16.967227,-1.925885,-9.275935
1002.582031,-8.169436,-8.874635,-4.965221,-0.521969
1002.585938,-4.248235,-8.662154,-14.703937,-11.677334
1002.589844,-11.022892,-0.711038,-7.219067,-2.758703
1002.593750,-6.331496,-3.365722,4.049532,-4.447796
1002.597656,-5.497439,-7.018488,-1.338035,-12.376158
1002.601562,5.548053,0.504467,-0.893456,5.631259
1002.605469,5.403050,4.884188,7.256699,5.106638
1002.609375,9.426161,1.299866,4.653824,8.538259
1002.613281,3.789375,6.865235,14.059421,9.322283
1002.617188,-0.591498,9.488182,10.333084,5.609982
1002.621094,14.137343,7.778915,9.830396,14.188037
1002.625000,16.397432,6.793131,9.662360,18.139597
1002.628906,10.531508,6.188225,12.235072,10.224547
1002.632812,5.970023,9.011194,10.050788,9.069569
1002.636719,12.130761,-0.992141,9.142081,7.577274
1002.640625,9.531139,4.353056,4.068350,0.396087
1002.644531,5.441895,5.841827,5.747051,-0.634057
1002.648438,2.791659,-6.936923,0.798976,-1.175155
1002.652344,-8.588761,-4.377492,1.637808,0.957657
1002.656250,-5.055745,0.894621,-5.853641,-8.183731
1002.660156,-12.594786,-8.316474,-3.669474,-7.554759
1002.664062,-12.115614,-4.553923,-7.183303,-7.698760
1002.667969,-1.562365,-6.215636,-6.728805,-10.277739
1002.671875,-8.097253,-11.033754,-10.114142,-10.593753
1002.675781,-13.370936,-9.877033,-4.334353,-12.577519
1002.679688,-4.523796,-9.172239,-20.642420,-8.704581
1002.683594,-4.935907,-7.143813,-10.542822,-14.430193
1002.687500,-10.532232,-7.185723,-7.244953,-11.652914
1002.691406,-1.919320,1.947587,4.334650,-8.062434
1002.695312,-1.581382,2.166149,-0.891709,-7.677088
1002.699219,-1.688138,-2.322162,4.443089,-6.224674
1002.703125,9.084716,5.794228,12.850611,-0.675700
1002.707031,2.589555,1.824729,2.275131,3.435408
1002.710938,8.055294,6.478526,-0.261213,3.507618
1002.714844,6.344019,10.363926,5.660433,6.061789
1002.718750,12.386115,6.897823,10.202168,9.853729
1002.722656,9.438974,7.198493,12.062488,9.398655
1002.726562,18.325517,14.826690,15.507039,16.273682
1002.730469,3.133302,9.768218,11.281982,12.280224
1002.734375,13.502321,13.207469,8.484479,6.575058
1002.738281,-1.840560,9.044623,6.272949,5.558929
1002.742188,-0.852163,2.223213,9.811682,0.097951
1002.746094,-0.354958,4.450662,10.631591,2.043753
1002.750000,-1.367821,-1.482742,0.276374,-1.610765
1002.753906,-1.276305,1.265389,-3.488285,1.143298
1002.757812,3.028285,-11.595520,3.794941,-7.046344
1002.761719,-6.260193,-0.511646,-5.935395,0.053237
1002.765625,-10.414965,-5.589104,-2.812751,-14.551291
1002.769531,-11.763724,-9.830079,-8.477901,-5.406523
1002.773438,-9.151077,-14.659744,-6.906068,-7.389225
1002.777344,-9.379538,-11.290403,0.256587,-6.567593
1002.781250,-12.516649,-3.781414,-7.460384,-13.792359
1002.785156,-9.884375,-9.088741,-3.793529,-1.193058
1002.789062,3.453363,-8.735137,-7.147511,-4.606629
1002.792969,-2.566077,-0.542720,-4.920103,-9.889996
1002.796875,-3.471437,-6.427836,5.454079,1.120442
1002.800781,1.553841,-7.276717,4.521652,-0.897760
1002.804688,0.941921,7.812284,-0.058595,6.350508
1002.808594,8.101984,7.082428,4.613771,-0.434994
1002.812500,11.843038,9.940268,6.791838,11.750766
1002.816406,11.455684,9.080879,9.344368,3.792293
1002.820312,10.857706,6.354746,3.623581,13.053010
1002.824219,15.885599,9.386723,11.383562,12.402038
1002.828125,11.338831,5.804393,8.692755,6.547143
1002.832031,17.230072,16.201376,4.180503,5.422740
1002.835938,3.815122,5.522854,4.419799,2.991178
1002.839844,0.531625,3.572278,6.858605,2.682360
1002.843750,-0.698883,3.153436,1.939367,-0.811125
1002.847656,4.318164,0.256438,-0.603381,4.195465
1002.851562,2.371085,3.052142,-2.718863,-6.393953
1002.855469,-6.325359,-3.216500,-2.234876,-3.881329
1002.859375,-8.297302,-6.505578,-6.694926,-2.598392
1002.863281,-7.467680,1.656761,-0.572139,-11.887801
1002.867188,-11.683515,-7.653894,-7.434867,-3.275843
1002.871094,-4.907059,-7.838759,-3.691421,-11.102735
1002.875000,-5.412783,-10.303651,-8.896459,-10.857075
1002.878906,-13.140850,-11.271846,-7.813531,-5.350825
1002.882812,-0.450352,-9.329650,-1.850520,-6.949429
1002.886719,-4.779924,-11.372074,-8.387145,-6.312570
1002.890625,-4.361675,-2.367279,-3.568855,-6.440687
1002.894531,-6.233825,-3.465523,-8.200605,-3.174784
1002.898438,-8.090205,-1.674273,6.634147,6.910216
1002.902344,3.781280,2.268831,1.708872,2.108615
1002.906250,2.435016,6.051012,14.664195,2.224094
1002.910156,4.098792,7.616710,5.859433,4.049047
1002.914062,14.067902,5.669139,11.356602,5.354186
1002.917969,10.119758,12.928892,5.752908,8.476841
1002.921875,8.656685,13.371311,21.419604,7.760419
1002.925781,15.119207,3.012799,12.209590,16.077939
1002.929688,5.277033,11.071714,5.185555,6.079222
1002.933594,8.259064,4.623846,5.321659,12.973750
1002.937500,6.958027,1.972636,6.248362,13.146559
1002.941406,3.654715,4.315947,5.524810,1.649151
1002.945312,8.396400,0.176183,-0.867766,13.332283
1002.949219,-8.059731,0.812179,-1.875419,5.041680
1002.953125,-5.650584,-1.700077,-0.122506,-3.737269
1002.957031,2.281018,-5.526938,2.687235,-11.695656
1002.960938,-5.325089,-4.785185,0.871204,2.664829
1002.964844,-1.973705,-10.261456,-5.005640,-7.720016
1002.968750,-6.356999,-8.559703,-11.223489,-6.900889
1002.972656,-12.839010,-13.213050,-10.757045,-6.973905
1002.976562,-4.919699,-1.511306,-11.985268,-13.001242
1002.980469,-13.199828,-5.776629,-15.403961,-7.473832
1002.984375,-10.561598,-1.769783,-12.960966,-6.620526
1002.988281,-6.407074,-9.500755,-7.297028,-4.138916
1002.992188,-9.939277,-2.647065,-4.244508,-9.985515
1002.996094,-5.108709,-0.048949,-3.462181,1.351482
1003.000000,-3.539705,7.619063,2.655913,-3.643474
1003.003906,3.729125,0.804232,0.728320,2.264406
1003.007812,7.118226,-1.315621,6.258759,5.483264
1003.011719,7.544103,7.908951,14.282669,5.492281
1003.015625,9.799610,7.532511,4.769224,7.006662
1003.019531,13.722948,13.309129,6.451278,4.544698
1003.023438,11.186576,7.616235,11.476199,9.867064
1003.027344,3.095527,10.025072,9.228151,5.931807
1003.031250,13.380202,8.678851,5.210380,7.271953
1003.035156,9.712971,9.218253,8.032095,5.094856
1003.039062,6.070538,12.436008,-0.305165,6.263855
1003.042969,1.933294,8.429617,2.558258,0.053908
1003.046875,0.990490,3.322837,-0.942820,-0.412612
1003.050781,1.742106,7.369371,2.449074,-4.798159
1003.054688,-2.649728,4.492675,-2.969231,-5.020509
1003.058594,-8.744454,-0.584003,-3.882624,-1.088854
1003.062500,-6.425008,-6.386289,-3.881936,-11.886851
1003.066406,-5.344911,-10.535442,-3.394644,-0.056535
1003.070312,-13.651960,-8.965816,-6.706052,-10.902474
1003.074219,-10.842108,-11.222508,-13.340113,-15.224190
1003.078125,-8.919724,-6.999937,-8.686797,-12.566504
1003.082031,-16.104384,-8.903182,-8.800355,-9.886949
1003.085938,-5.538088,-12.504168,-1.896989,-6.979024
1003.089844,-6.198718,-2.154424,-1.608899,-12.559562
1003.093750,0.823443,-3.837534,2.383067,0.570963
1003.097656,-1.559903,-4.284686,-5.607616,7.296661
1003.101562,2.835608,2.366704,-1.801861,-2.931606
1003.105469,-4.039860,8.606769,5.873102,1.391446
1003.109375,11.102666,3.806494,6.734722,6.844481
1003.113281,8.260778,11.205108,6.993945,2.609948
1003.117188,11.088453,13.760769,12.099136,6.024514
1003.121094,11.431564,5.549698,18.586953,7.728631
1003.125000,12.910908,14.623050,8.828255,9.344986
1003.128906,12.310009,3.270747,2.817482,14.219918
1003.132812,5.781265,6.752133,14.152767,7.605539
1003.136719,8.577082,4.069353,2.588123,2.508553
1003.140625,-2.198533,8.443199,3.912162,6.815555
1003.144531,12.354885,11.306001,0.464857,-1.468868
1003.148438,1.741441,2.033541,-3.370963,0.529106
1003.152344,-9.832043,-6.197147,8.723630,4.441462
1003.156250,-8.252128,-10.443856,-7.693904,1.462295
1003.160156,-2.387116,-7.917666,-13.145576,-2.006085
1003.164062,-13.074512,-3.598480,-5.541394,-8.880044
1003.167969,-6.460088,-5.518081,-5.579464,-9.609777
1003.171875,-12.705258,-7.554047,-8.453231,-6.878120
1003.175781,-14.867151,-5.173144,-3.105106,-12.722493
1003.179688,-16.331626,-11.525056,-12.271300,-9.495248
1003.183594,-13.311758,-17.764477,-3.643632,-9.227432
1003.187500,-13.718600,1.717418,-7.733909,-11.800037
1003.191406,-9.551400,-6.505627,-3.874240,-6.310301
1003.195312,-0.386847,-6.131452,-11.927660,-5.591488
1003.199219,-8.205506,1.054575,-3.589776,-5.246446
1003.203125,7.934373,6.498099,-2.750475,6.537551
1003.207031,4.309626,8.984667,5.538640,0.525995
1003.210938,8.641137,4.801711,5.040425,8.200596
1003.214844,7.987867,11.258568,11.711032,3.896379
1003.218750,14.029452,6.356097,15.816960,14.549524
1003.222656,18.231878,7.915998,8.243768,9.501642
1003.226562,11.854656,17.427602,11.407302,12.664350
1003.230469,5.220187,15.449327,10.037876,10.212914
1003.234375,13.860304,8.804934,4.437560,4.875280
1003.238281,1.409807,5.847809,6.766078,3.540024
1003.242188,8.003550,-1.917372,10.337577,0.457737
1003.246094,1.795087,6.185505,4.861419,2.896830
1003.250000,2.086352,2.945626,-2.175071,1.636716
1003.253906,-4.751583,-2.146975,-0.854120,-1.252625
1003.257812,-1.048366,-6.792582,-3.822966,-4.297297
1003.261719,-7.804740,-11.935652,-7.136146,-10.550761
1003.265625,-8.053123,-14.033636,-7.771352,-9.072225
1003.269531,-6.395448,-5.806081,-7.210491,-13.827904
1003.273438,-7.469018,-11.386129,-6.528745,-16.473393
1003.277344,-18.423128,-3.320759,-18.412486,-8.396582
1003.281250,-4.736171,-8.496539,-14.658620,-3.411091
1003.285156,-13.840341,-6.876832,-13.773054,-4.907852
1003.289062,-5.230201,-7.319612,-2.794792,-8.681917
1003.292969,-6.929387,-3.046524,-12.520152,-9.436850
1003.296875,-6.211338,-3.892382,-10.137799,-7.016896
1003.300781,-2.827971,5.992965,-1.544051,-0.470896
1003.304688,2.229050,0.095972,3.781360,2.852425
1003.308594,-2.541639,7.655223,13.955626,-0.910113
1003.312500,4.122459,6.039853,3.005115,11.121183
1003.316406,11.125825,-2.660895,3.743019,6.270002
1003.320312,10.335958,4.788454,8.282983,8.811758
1003.324219,12.659998,7.377546,10.641625,14.359820
1003.328125,12.912527,7.252254,3.168354,7.394877
1003.332031,9.565047,8.998564,9.301808,12.019738
1003.335938,17.769309,11.481566,9.972399,9.551501
1003.339844,-1.624105,12.217164,1.659862,3.256190
1003.343750,1.639049,6.184600,5.160275,-0.978105
1003.347656,-2.041495,5.963438,2.054853,-5.720221
1003.351562,-4.538803,1.729376,0.693312,4.711153
1003.355469,0.454179,-5.857185,-4.508577,-0.217491
1003.359375,0.705256,-7.947553,-10.205152,-9.583700
1003.363281,-4.304906,-2.106275,-4.736649,-6.770857
1003.367188,-9.549317,-7.691444,-17.663189,-6.921565
1003.371094,-8.628623,-12.151378,-11.854167,-24.037103
1003.375000,-18.616573,-10.333803,-7.604046,-9.804873
1003.378906,-8.718085,-13.389336,-9.542446,-14.078650
1003.382812,-12.451426,-15.715188,-9.576174,-9.496507
1003.386719,-11.961066,-6.695443,-3.320129,-0.555185
1003.390625,-7.107643,-9.530247,-8.088169,1.786542
1003.394531,1.089637,-1.016593,0.549066,-4.804962
1003.398438,-0.148980,-1.108317,-9.139442,0.892851
1003.402344,5.864526,3.990981,-5.460794,2.752894
1003.406250,-4.191667,7.530403,1.820095,0.538249
1003.410156,11.003679,6.713005,-1.046717,7.959173
1003.414062,16.646161,10.191239,5.646731,4.575020
1003.417969,9.201038,14.798684,6.987639,10.549972
1003.421875,9.888938,14.284247,5.440613,9.363562
1003.425781,13.492206,4.707733,10.850081,13.163433
1003.429688,16.458637,14.222683,14.873679,6.999010
1003.433594,2.685249,11.480087,3.050596,3.113577
1003.437500,11.434686,6.896041,9.533469,6.439861
1003.441406,1.447395,2.960667,8.530420,6.970024
1003.445312,6.442176,5.411298,6.149351,7.544270
1003.449219,-0.140282,-3.821006,1.808088,-0.598185
1003.453125,-3.603555,-2.057439,-0.903003,1.927472
1003.457031,-12.279740,-7.954151,-1.246032,-4.884927
1003.460938,1.181760,-6.614790,-7.669830,-2.106991
1003.464844,-12.144323,-8.012311,-10.588841,-14.362302
1003.468750,-2.139222,-8.939790,-4.667296,-5.546306
1003.472656,-7.965116,-9.983277,-10.547499,-15.874575
1003.476562,-7.698166,-14.312273,-8.162088,-14.485237
1003.480469,-10.055260,-9.224696,-10.778658,-9.639346
1003.484375,-8.573767,-5.926491,-10.153575,-7.530675
1003.488281,-15.809481,-9.539197,-8.069150,-0.266183
1003.492188,-3.922090,-10.551064,-3.362139,-2.637632
1003.496094,-5.675645,-2.779585,-6.838200,12.015448
1003.500000,-4.389857,-2.663730,3.390518,7.479159
1003.503906,4.759489,13.518770,-8.408133,3.016930
1003.507812,8.011975,6.241166,7.811017,6.313225
1003.511719,13.792853,6.746745,4.371750,2.776757
1003.515625,4.612412,11.075589,4.667223,9.538360
1003.519531,16.274671,14.030588,12.111748,2.119990
1003.523438,9.583403,1.800334,10.137732,6.469327
1003.527344,10.268669,14.168301,12.910028,13.821595
1003.531250,6.478913,4.555467,8.476039,4.623050
1003.535156,6.301341,6.149669,12.414089,13.326231
1003.539062,9.225501,1.884178,2.442201,6.396693
1003.542969,10.499974,4.644261,3.199111,-0.516812
1003.546875,-1.635888,-0.189584,1.695651,4.506121
1003.550781,-5.244414,-5.338444,-3.603664,6.049392
1003.554688,-5.803768,-2.094787,1.138570,-3.522812
1003.558594,-7.160985,-1.502121,-10.014885,2.264870
1003.562500,-6.246415,6.045256,-4.852274,-1.904337
1003.566406,-4.766006,-13.572968,-7.701196,-12.037918
1003.570312,-10.025654,-8.117158,-14.372627,-8.173990
1003.574219,-8.595373,-10.653232,-17.624449,-8.438795
1003.578125,-4.717101,-8.900823,-7.339951,-12.005238
1003.582031,3.823935,-6.237491,-13.427429,-13.240922
1003.585938,-8.458514,-11.982364,-0.365588,-4.880486
1003.589844,-10.706281,0.722470,0.500409,-3.445136
1003.593750,-7.464109,-0.733912,-4.946362,-2.375406
1003.597656,0.113507,-3.243731,-1.874633,1.502649
1003.601562,10.651177,-2.878209,6.285075,-0.703497
1003.605469,-1.586943,3.498248,8.672431,7.464695
1003.609375,1.545788,9.210849,8.328505,7.076180
1003.613281,4.994236,9.058232,1.227493,6.977339
1003.617188,11.760445,9.787142,4.425148,11.115142
1003.621094,11.615453,11.139570,5.060786,19.286905
1003.625000,13.369469,11.178892,18.141092,11.076759
1003.628906,9.080380,6.545625,17.586133,10.072776
1003.632812,6.149857,2.656094,15.798898,9.429706
1003.636719,6.927562,6.170631,-1.899828,12.078279
1003.640625,7.043168,4.727102,2.972380,1.400756
1003.644531,-5.479021,7.333505,2.034804,1.354904
1003.648438,-6.936646,-3.958842,3.171138,2.203244
1003.652344,-2.904163,-3.887972,0.674192,-1.987868
1003.656250,1.502182,-10.471689,-1.541109,-5.023337
1003.660156,-3.474363,-5.940182,-8.192695,-7.342007
1003.664062,-8.107227,-3.848808,-9.527677,-10.909002
1003.667969,-6.436219,-4.480528,-9.805383,-6.392543
1003.671875,-5.746659,-17.770771,-9.243980,-7.208612
1003.675781,0.603147,-8.433649,-5.496213,-4.794682
1003.679688,-10.943197,-10.957976,-7.916689,-2.695355
1003.683594,-10.162643,-8.287342,-9.999708,-7.718452
1003.687500,-10.607445,-17.621142,-4.530253,-5.565354
1003.691406,2.169098,-4.315075,-8.973801,-9.401093
1003.695312,-2.515064,-5.403599,-9.581353,-4.080543
1003.699219,-2.828714,5.868715,1.717821,-9.089301
1003.703125,0.512683,-6.877846,0.519839,-2.179194
1003.707031,9.445374,5.573688,-0.067921,7.047925
1003.710938,3.403163,6.526334,8.899477,8.199516
1003.714844,8.112854,7.981043,12.320748,7.888459
1003.718750,4.657213,4.696832,6.172435,7.517508
1003.722656,16.443944,14.278611,17.310839,12.440203
1003.726562,9.723627,10.539880,13.358126,10.969039
1003.730469,8.273045,2.330235,13.007583,8.741372
1003.734375,5.288498,10.134750,11.108471,10.371543
1003.738281,9.349353,3.853125,2.178360,6.391275
1003.742188,-0.490973,0.178266,-0.830488,1.857630
1003.746094,3.697239,4.481737,5.068028,4.451590
1003.750000,-2.273791,-3.515202,-4.676404,-1.415742
1003.753906,-8.991478,-0.784891,1.984489,-0.428788
1003.757812,-5.059582,-9.006799,-2.060761,-7.252837
1003.761719,-13.140618,1.242027,-6.796449,-10.026347
1003.765625,-7.661917,-9.323887,-10.779727,-6.310699
1003.769531,-11.174653,-12.715813,-7.871757,-5.259898
1003.773438,-8.331800,-9.428487,-9.764024,-3.705818
1003.777344,-12.002338,-7.710362,-11.095937,-7.895827
1003.781250,-6.222765,-2.139623,-13.616949,-3.595459
1003.785156,-7.378736,-3.637971,-14.869104,-10.933555
1003.789062,0.046946,-6.808852,-6.955105,-7.127308
1003.792969,-3.187368,-3.299342,-1.902772,-5.901258
1003.796875,1.170157,-2.947234,1.640679,-2.405543
1003.800781,-8.448721,-3.771848,8.801541,7.356691
1003.804688,1.138445,0.932283,2.943232,3.572986
1003.808594,3.637485,7.296007,0.689075,-0.424960
1003.812500,10.396174,4.568397,4.849367,11.021563
1003.816406,15.200951,-0.928464,11.078743,10.678056
1003.820312,2.572739,11.531901,9.264525,7.813227
1003.824219,12.436632,9.108250,6.241888,11.290130
1003.828125,7.710793,10.153925,19.172884,9.509296
1003.832031,0.861724,12.088014,5.409602,9.789989
1003.835938,4.980173,3.011554,13.888587,7.593047
1003.839844,9.419412,9.440879,11.390831,11.743949
1003.843750,7.423442,2.992425,-0.825739,2.972685
1003.847656,-2.358302,-1.468332,-0.539545,3.982554
1003.851562,-0.124014,10.154646,-2.445056,-0.580584
1003.855469,-4.981178,-5.818945,-1.642405,-5.302227
1003.859375,-3.120733,-10.185969,-3.578604,-7.017587
1003.863281,-12.882193,-5.405972,-5.809263,-11.022476
1003.867188,-13.111284,-1.119718,-6.009863,-4.545303
1003.871094,-6.308592,-10.859076,-11.547840,-2.225834
1003.875000,-12.152020,-15.048449,-13.458714,-14.885599
1003.878906,-11.856438,-14.331364,-5.860476,-9.875735
1003.882812,-8.780034,-11.088591,-0.706920,-8.268058
1003.886719,-8.051060,-9.017923,-3.620292,-7.134084
1003.890625,-9.847583,-2.941331,-5.550764,-2.587753
1003.894531,2.333798,3.638325,-3.235599,-5.542002
1003.898438,-4.200868,3.901761,-2.009388,-5.008486
1003.902344,7.535734,9.292711,-1.737777,-3.172489
1003.906250,4.397153,9.204518,3.208159,9.179204
1003.910156,4.218481,2.378378,5.216101,-1.934941
1003.914062,5.794915,10.498481,5.472444,11.912246
1003.917969,5.890349,8.865923,14.786267,9.107287
1003.921875,12.519126,10.628970,15.394550,12.525713
1003.925781,12.975607,6.820815,9.732731,11.719098
1003.929688,13.647023,8.128761,10.507492,17.245996
1003.933594,3.493419,14.292193,12.054159,10.219961
1003.937500,10.845952,7.540860,4.937106,8.089389
1003.941406,4.997638,9.821030,6.055264,-3.445755
1003.945312,9.853708,1.697154,12.196462,-2.159314
1003.949219,5.539722,-5.529515,-3.387288,3.730019
1003.953125,-4.265334,4.978282,-1.331219,0.016557
1003.957031,-9.202511,-6.355415,-6.022335,-10.178039
1003.960938,-1.746488,-13.959865,-5.983098,-5.344014
1003.964844,-10.217578,-3.845006,-3.291394,-7.701217
1003.968750,-10.221379,-5.783974,-15.285645,-10.696431
1003.972656,-7.301091,-20.302055,-8.732406,-6.050841
1003.976562,-13.880649,-2.143326,-8.433851,-16.686914
1003.980469,-8.018063,-5.076321,-13.061244,-4.157548
1003.984375,-8.259932,-8.462796,-11.057823,-6.736836
1003.988281,-2.012040,-5.684873,-3.169265,-9.295259
1003.992188,0.718922,-4.698854,-6.420650,-5.373013
1003.996094,-3.836424,5.834576,-1.898061,-7.030388
1004.000000,-7.060389,0.518310,1.174463,5.611662
1004.003906,3.181407,10.017966,-4.123492,11.380465
1004.007812,5.875892,6.872226,0.389605,1.570769
1004.011719,10.864884,9.881435,6.301104,15.062998
1004.015625,9.031212,16.426857,7.355895,13.622607
1004.019531,10.722657,8.885540,8.691770,5.269092
1004.023438,11.604635,19.925921,7.510763,10.990785
1004.027344,11.756874,13.778538,9.412609,6.751628
1004.031250,9.792169,9.812770,8.850088,10.857597
1004.035156,8.150749,5.510555,10.201920,10.209334
1004.039062,5.054489,10.096668,-0.337677,7.125466
1004.042969,7.059454,9.089490,-5.600268,5.650866
1004.046875,3.614010,3.860468,-3.228503,-1.131858
1004.050781,-6.889603,-0.051453,-2.207046,-4.396297
1004.054688,-5.750193,-9.398733,-4.531303,-3.056541
1004.058594,-8.801312,-13.425363,-4.201776,-7.330508
1004.062500,-8.577303,2.201508,-8.365114,-3.023535
1004.066406,-13.589250,-2.685428,-7.983400,-7.116904
1004.070312,-11.825464,-11.065550,-8.155242,-10.639170
1004.074219,-11.542405,-9.654060,-12.668268,-10.171412
1004.078125,-4.272165,-13.322551,-6.535888,-18.540425
1004.082031,-9.953517,-7.911683,-10.833759,-12.237593
1004.085938,-9.983077,-11.911031,-7.255219,-6.342016
1004.089844,-1.895670,2.433669,-1.902577,-3.144886
1004.093750,-7.568597,-5.076747,-5.830773,-2.395643
1004.097656,1.007713,-4.018629,-2.584571,1.320155
1004.101562,5.660959,-3.246299,-1.888778,3.655256
1004.105469,-2.029943,9.929053,1.313298,-5.133155
1004.109375,0.166074,6.832757,4.993072,5.878764
1004.113281,10.252329,9.167743,5.476024,5.620500
1004.117188,9.044999,10.293948,14.738567,10.961511
1004.121094,8.383892,7.841026,9.747816,8.254967
1004.125000,13.329008,7.837152,13.506945,15.042495
1004.128906,3.523059,9.823893,9.466184,15.597236
1004.132812,10.757115,3.472602,1.767048,3.115208
1004.136719,8.616525,5.850001,7.488915,10.017526
1004.140625,8.636397,3.105611,2.105989,1.333051
1004.144531,1.559451,6.297008,0.897983,3.892748
1004.148438,2.228183,6.476370,0.612256,4.273434
1004.152344,1.295944,-1.831519,-0.613596,-1.747524
1004.156250,-4.180699,2.179484,-4.584199,-1.473246
1004.160156,-1.663234,-8.494586,-3.765679,-6.617490
1004.164062,-4.574876,-11.162492,-4.760634,-10.933809
1004.167969,-3.973923,-6.276863,-5.029354,-12.989941
1004.171875,-13.360598,-5.181544,-10.843141,-2.640088
1004.175781,-3.414709,-11.272785,-7.388720,-14.993011
1004.179688,-14.360414,-6.670072,-12.271001,-7.892132
1004.183594,2.648016,-14.843981,-2.947773,-15.462922
1004.187500,0.621422,-6.709378,-12.022837,-5.434745
1004.191406,-7.439831,-0.211843,-6.237059,-2.863952
1004.195312,-7.635827,-5.504726,-3.654063,7.413174
1004.199219,5.233089,0.569701,11.128016,6.058495
1004.203125,9.355446,-4.055901,3.792082,-2.049421
1004.207031,4.685539,-0.578611,1.796111,4.686948
1004.210938,5.649839,9.198284,0.710925,6.622947
1004.214844,8.258469,10.969277,0.111204,11.122487
1004.218750,12.254529,2.613336,6.807293,11.504316
1004.222656,14.006840,11.632402,13.068596,13.771688
1004.226562,5.491724,3.308910,3.558594,10.085054
1004.230469,2.652487,3.314506,8.424307,8.800251
1004.234375,12.012687,4.936827,10.330309,7.364920
1004.238281,8.872451,14.494037,3.680447,8.041628
1004.242188,4.931772,7.489012,1.047834,-2.022077
1004.246094,-1.581715,7.614983,-0.480992,4.159649
1004.250000,2.753299,1.345331,0.296245,-4.635744
1004.253906,1.709517,4.112513,-1.908693,-2.636059
1004.257812,-6.751499,1.308415,3.467160,-0.458328
1004.261719,-1.815507,-8.278386,-10.468789,-1.005941
1004.265625,-9.888834,-11.139787,-9.268293,-6.143952
1004.269531,-10.183313,-8.949942,-9.555073,-8.219422
1004.273438,-6.256658,-6.510379,-3.490089,-10.543469
1004.277344,-6.950656,-8.649512,-3.433859,-14.389617
1004.281250,-11.463861,-16.367843,-7.333891,-12.228887
1004.285156,-15.908289,-14.355713,-8.059082,-11.187186
1004.289062,-5.305267,3.684702,-16.381764,-1.436604
1004.292969,2.288857,-0.934532,-5.225187,-12.423346
1004.296875,3.143716,-0.712933,-4.452248,-0.738473
1004.300781,0.360594,0.225099,14.226642,4.861776
1004.304688,3.182901,11.660765,3.752052,0.970680
1004.308594,2.429362,5.091347,1.266891,3.751900
1004.312500,7.317236,10.002785,7.394121,6.091058
1004.316406,16.659456,3.544510,11.060517,7.402632
1004.320312,5.254948,3.793976,10.953182,6.534063
1004.324219,11.916533,10.292545,10.673765,12.131114
1004.328125,3.985407,14.503698,11.177615,7.570311
1004.332031,14.494229,5.901038,16.928192,4.706923
1004.335938,6.920543,5.569449,9.783602,6.854309
1004.339844,10.952944,7.194462,4.392150,11.173443
1004.343750,0.884881,5.761783,-0.102676,1.760726
1004.347656,-3.665276,2.538655,2.537776,4.482993
1004.351562,0.666504,-4.607931,0.422223,-1.548733
1004.355469,-7.223389,-6.430285,6.310401,-0.803215
1004.359375,-10.539987,-5.456490,-9.268706,-11.602315
1004.363281,-7.664321,-6.667772,2.761671,-11.345981
1004.367188,-5.318586,-4.659432,-5.092705,-9.356813
1004.371094,-9.500197,-11.900432,-10.565012,-2.699697
1004.375000,-12.800762,-10.690483,-10.577761,-7.959579
1004.378906,-10.327830,-13.077346,-11.467501,-2.142581
1004.382812,-9.575278,-9.423839,-3.238193,-6.540297
1004.386719,-9.439256,-6.425109,-5.660584,-7.762518
1004.390625,-2.993209,-7.037777,-8.171222,-7.397041
1004.394531,5.172659,-3.949304,-2.556891,-8.755010
1004.398438,1.473892,-2.313023,-5.187332,-6.817807
1004.402344,4.648336,2.402132,4.046805,-2.569019
1004.406250,1.578242,-3.640456,1.591843,-0.268313
1004.410156,6.639420,4.544760,-2.254549,7.023261
1004.414062,10.191919,7.752820,6.301830,10.916190
1004.417969,15.865520,15.898310,7.631414,5.256334
1004.421875,11.747865,9.643957,7.084686,5.832073
1004.425781,5.991473,16.912014,10.074239,9.842761
1004.429688,5.014471,12.577543,4.038640,11.243892
1004.433594,8.724189,6.409958,6.068793,15.389703
1004.437500,9.310443,2.666825,3.283282,5.079914
1004.441406,6.844090,8.276347,4.538615,7.753151
1004.445312,1.879852,1.011473,2.611986,4.623526
1004.449219,-4.535913,1.247547,4.988867,-1.891243
1004.453125,1.697842,-3.991497,4.344678,-4.902724
1004.457031,1.024068,0.677549,-8.840733,1.199861
1004.460938,-7.956237,1.617419,0.836625,-1.045979
1004.464844,0.823900,-6.579830,-6.326372,-6.867655
1004.468750,0.286409,-14.097391,-11.590839,-6.579214
1004.472656,-9.956121,-8.952411,-18.464428,-10.777765
1004.476562,-16.804895,-3.907773,-6.126325,-7.792816
1004.480469,-8.580832,2.523632,-6.287682,-6.799633
1004.484375,-8.066949,-9.911545,-2.975009,-4.461107
1004.488281,-6.339705,-6.790674,-8.025992,-5.776072
1004.492188,-6.830894,-8.290461,-9.835355,-1.768574
1004.496094,4.734915,-7.532499,-4.716725,-3.555574
1004.500000,1.089428,-0.126660,-7.130413,-2.180786
1004.503906,1.334538,4.912042,5.461696,1.639920
1004.507812,8.785755,4.423152,5.570810,3.494624
1004.511719,14.417337,10.225561,9.380968,5.628412
1004.515625,6.982414,8.717016,12.192793,9.088964
1004.519531,9.331830,10.736885,9.414554,1.320901
1004.523438,17.833113,9.058040,12.155462,13.672556
1004.527344,11.974703,6.876922,7.474432,9.987155
1004.531250,8.610484,4.614154,15.355315,7.443375
1004.535156,2.121442,11.244146,11.336685,6.669719
1004.539062,5.508108,2.776252,2.651596,2.595600
1004.542969,4.004128,-2.779018,9.115681,5.092117
1004.546875,-0.037105,-3.434634,4.302719,4.189576
1004.550781,0.425050,-4.522606,5.621273,-3.729513
1004.554688,-2.578289,-1.821348,-6.836795,5.078607
1004.558594,-10.400765,-7.947090,-6.300306,-8.891621
1004.562500,-8.377290,-4.292344,-7.942220,-2.127863
1004.566406,-8.301843,-8.777896,-12.070812,-4.319034
1004.570312,-10.385334,-13.052724,-11.324867,-7.946158
1004.574219,-10.989682,-14.791806,-5.512140,-9.309848
1004.578125,-14.264086,-0.898409,-7.774693,-12.610862
1004.582031,-1.716593,-8.917559,-15.286232,-15.455230
1004.585938,-9.924228,-10.845928,-11.175417,-7.219786
1004.589844,-14.176907,-8.183658,-8.893077,-5.680816
1004.593750,-2.506484,-7.034759,-5.347638,-0.655970
1004.597656,-2.241112,2.390742,3.131019,3.094789
1004.601562,4.059412,0.362646,-2.578712,3.510926
1004.605469,5.425135,10.348504,2.329766,0.514762
1004.609375,3.802224,2.824228,3.959087,3.351217
1004.613281,15.466912,1.861485,2.905917,3.866615
1004.617188,6.935670,7.350471,7.412015,6.969497
1004.621094,11.182420,11.771084,11.379249,12.018872
1004.625000,6.799681,13.293883,10.552266,7.868022
1004.628906,10.053207,10.980116,13.552480,11.986740
1004.632812,7.211801,7.750476,11.059256,3.984746
1004.636719,2.776780,9.690094,12.851740,8.517222
1004.640625,3.764182,12.899552,9.605951,5.542823
1004.644531,-0.236863,6.347220,8.243657,5.301469
1004.648438,-5.110768,-2.879300,-3.856699,0.037993
1004.652344,2.630883,-4.738068,-3.795016,2.155207
1004.656250,-4.416090,-0.895218,-4.325980,0.400602
1004.660156,-7.438975,-9.027448,-6.943179,-17.816632
1004.664062,-9.511574,-3.841608,-5.809442,-5.021882
1004.667969,-13.348582,-5.505746,-11.721435,-7.349804
1004.671875,-9.182071,-12.945016,-7.525088,-18.418901
1004.675781,-9.297717,-5.972124,-6.383481,-9.020306
1004.679688,-9.283929,-19.505467,-15.415861,-15.757976
1004.683594,-7.329419,-3.403363,-14.247837,-5.231664
1004.687500,-12.469874,-6.018146,-1.065480,-4.366443
1004.691406,-10.038036,-6.506751,-4.114372,4.666022
1004.695312,0.676145,-5.592595,-1.018232,-5.296820
1004.699219,-8.589969,-8.521127,-1.782496,-5.859548
1004.703125,-3.409211,2.943214,-6.580071,-0.510932
1004.707031,9.046947,13.796547,3.547630,3.972582
1004.710938,11.006330,7.088171,3.769978,4.633427
1004.714844,12.193422,4.664259,9.980801,5.473885
1004.718750,9.105674,9.505912,3.590912,8.913924
1004.722656,10.617870,13.595715,9.151427,8.017908
1004.726562,7.700127,13.292303,14.527479,13.323690
1004.730469,12.707691,12.022205,24.982266,11.440788
1004.734375,5.529288,12.708878,5.670904,5.834165
1004.738281,5.196655,5.423276,8.335370,9.266629
1004.742188,5.341626,4.695817,0.174529,5.057663
1004.746094,8.361953,2.419228,-5.353458,1.212274
1004.750000,-2.131234,1.166228,-5.723735,-5.589071
1004.753906,-4.314042,-3.398467,-5.618688,3.459371
1004.757812,-6.608073,-1.482045,-0.363666,-12.440513
1004.761719,-4.051418,-5.953948,-11.610979,-2.639864
1004.765625,-11.793010,-9.177287,-15.801148,-2.864683
1004.769531,-15.883185,-10.150485,-8.257151,-9.684904
1004.773438,-10.986152,-8.723643,-4.216439,-7.806229
1004.777344,-6.209064,-9.278251,-10.502592,-10.100750
1004.781250,-3.912628,-12.617419,-7.206811,-10.175451
1004.785156,-4.917865,-6.404314,-8.655228,-8.654006
1004.789062,-3.258234,-5.784505,-7.765998,-1.923264
1004.792969,-3.930780,-9.409443,-2.120476,0.706039
1004.796875,-1.684146,1.139135,-2.051378,4.114667
1004.800781,0.662068,-11.306375,-5.341143,1.675282
1004.804688,-0.111127,2.108423,5.767368,3.463211
1004.808594,0.680510,3.030770,8.747679,9.642976
1004.812500,6.869528,11.100533,7.456166,1.912380
1004.816406,10.959590,12.848969,6.437489,9.047013
1004.820312,7.509184,8.409665,12.415164,9.478836
1004.824219,6.742245,15.375896,8.940037,9.604493
1004.828125,10.870957,9.181558,14.530876,12.521593
1004.832031,11.148790,3.902825,7.260416,14.624734
1004.835938,8.551892,6.803791,13.066410,10.181474
1004.839844,12.138698,10.060543,4.371625,3.895823
1004.843750,3.611178,9.650053,3.021100,1.816680
1004.847656,2.887920,9.298448,-0.424492,-1.752275
1004.851562,5.835689,-8.252767,-1.709843,-3.132267
1004.855469,-0.490281,-4.923410,-4.818070,1.901049
1004.859375,-11.398125,-4.277020,-5.094558,-13.552790
1004.863281,-4.965689,-2.474997,0.310661,-10.513533
1004.867188,-14.878490,-5.570124,-4.321012,-13.670274
1004.871094,-9.495590,-9.579762,-1.415813,-8.105232
1004.875000,-7.591764,-9.220450,-11.368615,-9.156607
1004.878906,-16.532733,-11.754127,-3.551881,-6.867079
1004.882812,-7.377445,-1.124447,-5.257062,-9.683686
1004.886719,-10.858524,-4.935629,-6.728419,-17.025941
1004.890625,-10.010751,-5.439426,0.871319,-8.110047
1004.894531,-4.598941,-6.484310,-5.928879,-2.320141
1004.898438,-3.012071,6.893029,1.551633,3.992227
1004.902344,3.883388,-3.030692,-0.415610,3.306023
1004.906250,-1.435704,-6.582290,-0.126427,4.613349
1004.910156,4.511060,7.228876,3.451419,12.137434
1004.914062,2.879588,5.424818,7.889226,8.404678
1004.917969,9.142224,11.176942,7.235124,11.213308
1004.921875,6.757250,9.509420,7.614872,17.795330
1004.925781,-2.742941,5.986610,8.524218,4.780088
1004.929688,14.068456,8.268718,9.059899,9.610394
1004.933594,7.945161,9.130921,13.237730,3.636776
1004.937500,15.103116,5.761875,2.951140,6.686260
1004.941406,4.266230,5.936727,1.665682,3.387509
1004.945312,6.860472,1.109270,1.394212,1.484309
1004.949219,-4.595233,-0.684639,-0.232675,1.317437
1004.953125,-0.835507,3.485738,1.629524,2.888231
1004.957031,-5.527534,-4.906760,-7.195140,0.162560
1004.960938,-7.951603,-6.163391,-3.410155,-9.331394
1004.964844,-3.960034,-6.119901,-0.888343,-7.007225
1004.968750,-2.453290,-10.791010,-12.892782,-17.087521
1004.972656,-7.217112,-11.041465,-9.754776,-1.999017
1004.976562,-6.615904,-15.428813,-15.245753,-11.719648
1004.980469,-9.606142,-11.700845,-14.218989,-8.965546
1004.984375,-4.086564,-13.283537,1.182308,-6.449282
1004.988281,-2.976708,-0.939560,-2.765531,-7.805816
1004.992188,-1.421559,3.175820,-4.725079,-9.684295
1004.996094,-6.267477,-6.163628,-1.555756,-10.859950
1005.000000,0.631086,-3.493445,2.746927,2.599290
1005.003906,6.406868,10.733802,5.780568,7.657618
1005.007812,8.425766,4.113656,5.263213,3.425487
1005.011719,3.883059,7.493818,-0.954014,9.998367
1005.015625,10.313902,10.942124,17.054621,14.872526
1005.019531,10.965909,10.019754,9.323341,7.389151
1005.023438,13.810562,13.242748,13.886779,7.894544
1005.027344,4.892286,11.789758,6.634711,12.361782
1005.031250,8.452663,3.920595,8.228675,10.163370
1005.035156,7.657218,7.435964,2.997789,11.488942
1005.039062,8.600084,4.266888,4.605442,8.775120
1005.042969,2.182816,-0.588654,1.376416,7.110918
1005.046875,10.574271,5.454961,-1.264208,-2.885664
1005.050781,-6.260141,1.682261,2.280147,-1.307784
1005.054688,-5.751728,-1.065569,-2.223349,3.258985
1005.058594,-1.901413,-6.155668,0.664240,-2.431876
1005.062500,-7.614173,-11.072761,-3.387156,-8.503490
1005.066406,-9.216110,-18.379769,-2.036500,-9.245868
1005.070312,-12.040196,-7.110031,-5.354339,-4.994055
1005.074219,-15.839320,-11.635142,-7.228636,-11.028343
1005.078125,-12.631125,-18.055461,-8.270446,-15.575966
1005.082031,-2.615809,-8.313631,-10.276499,-7.967619
1005.085938,-5.537160,-7.973993,-11.999285,-10.098549
1005.089844,-9.411993,-9.611504,-7.646292,-4.484699
1005.093750,-5.851617,-6.624595,0.783978,5.663461
1005.097656,-0.962987,-5.412555,-2.771652,-3.257308
1005.101562,5.031951,7.611184,-0.876346,0.498702
1005.105469,6.229034,4.066142,7.642199,1.568389
1005.109375,8.139434,4.562029,9.530984,4.291654
1005.113281,8.766842,9.226699,0.965300,9.199877
1005.117188,12.680961,8.067499,7.898906,5.500354
1005.121094,14.030603,-1.120192,19.518859,8.162583
1005.125000,14.880651,14.681280,7.154417,9.645263
1005.128906,4.613574,5.928456,5.129220,21.661837
1005.132812,7.853275,9.705912,8.842449,7.633621
1005.136719,12.857104,6.197196,5.542734,4.281789
1005.140625,8.482793,11.789881,0.360119,-1.508329
1005.144531,6.488779,8.090446,1.751609,4.778384
1005.148438,4.769525,-2.853198,1.527510,2.759090
1005.152344,0.134102,-1.185217,-3.331598,-0.414556
1005.156250,-1.586192,5.141016,-1.427170,-7.095772
1005.160156,-13.630574,-0.241472,-3.870908,0.073906
1005.164062,-9.584275,-8.864908,-2.490287,-4.121717
1005.167969,-5.080839,-8.732814,-6.545120,-13.248910
1005.171875,-6.722264,-8.700909,-8.076576,-7.136888
1005.175781,-3.946615,-12.488455,-13.482594,-6.350427
1005.179688,-13.372108,-11.322198,-5.083397,-16.050763
1005.183594,-10.232090,-3.579972,-1.915005,-10.166055
1005.187500,-11.860363,-10.734544,-4.406418,-11.210539
1005.191406,-1.506585,-9.689052,-7.971555,-9.291873
1005.195312,-8.923799,-5.111096,4.179423,-0.878602
1005.199219,2.858230,0.849787,-2.143883,4.232868
1005.203125,0.218890,-0.853763,1.980757,6.677535
1005.207031,-1.394296,4.047850,10.444354,4.939768
1005.210938,3.078111,7.425694,6.308573,4.174988
1005.214844,7.917949,8.721707,10.823023,6.019936
1005.218750,11.548429,7.397039,7.657751,6.144395
1005.222656,12.758840,7.284084,16.934936,9.342927
1005.226562,10.779620,11.485294,10.571860,21.283455
1005.230469,10.322427,17.060683,7.429874,6.841721
1005.234375,11.126444,7.964087,4.634350,13.435905
1005.238281,0.096266,8.864752,11.223553,9.134795
1005.242188,1.109011,3.668203,5.073452,1.523355
1005.246094,3.300165,3.711878,1.353423,4.529442
1005.250000,7.045184,4.651890,7.689215,3.066076
1005.253906,-6.032012,-2.322222,-2.762807,-6.588537
1005.257812,-3.697515,-0.489541,-0.296211,-13.134287
1005.261719,-5.857347,-12.489648,-9.261885,-7.601111
1005.265625,-5.802196,-10.252806,-6.717765,-6.868131
1005.269531,-15.770452,-12.302449,-15.864656,-15.375551
1005.273438,-6.010800,-11.080920,-8.018870,-13.373426
1005.277344,-9.435005,-8.755249,-4.698019,-11.009089
1005.281250,-6.835657,-7.520623,-12.140748,-15.668641
1005.285156,-2.890892,-12.462588,-3.210488,3.205071
1005.289062,-5.539666,-5.445225,2.821828,-13.701986
1005.292969,-9.760145,-6.248575,-7.842949,-1.598266
1005.296875,-2.850699,-6.850523,-8.414927,3.658125
1005.300781,-4.276685,2.151408,4.133235,0.477146
1005.304688,5.700567,8.084264,2.831488,-1.631429
1005.308594,12.441236,3.401100,10.437343,0.864469
1005.312500,4.940320,5.613540,2.819085,6.678870
1005.316406,1.243040,9.696083,10.888589,14.517050
1005.320312,13.407269,14.939840,7.456425,14.491167
1005.324219,10.483203,3.326912,5.287255,11.951844
1005.328125,3.014346,15.850892,14.400720,7.292453
1005.332031,11.859747,7.538724,9.540930,15.859662
1005.335938,7.376971,7.297426,7.312677,10.413722
1005.339844,5.027636,5.881081,9.214319,10.188543
1005.343750,1.064177,-6.208323,7.585028,12.821357
1005.347656,4.162816,1.351869,-1.741205,7.361759
1005.351562,-3.730616,3.086548,-0.033257,-1.838611
1005.355469,-1.090519,-7.568358,1.541654,-3.380563
1005.359375,-3.630243,-4.562018,-2.160325,-3.024730
1005.363281,-9.928037,-3.967690,0.230517,-2.983695
1005.367188,-17.554494,-9.766284,-10.339018,-6.786639
1005.371094,-10.415763,-20.514440,-13.263244,-8.500955
1005.375000,-13.304764,-9.165556,-12.921785,-12.705698
1005.378906,-9.229996,-6.674243,-6.182914,-10.959269
1005.382812,-5.682585,-1.909824,-12.658508,-7.140103
1005.386719,-2.432128,-6.262727,-9.998996,-6.544159
1005.390625,-3.195902,-2.246798,-6.636486,-6.393761
1005.394531,0.795673,-2.581812,-4.864862,-2.256826
1005.398438,-1.980966,-0.687665,-3.571615,-1.123450
1005.402344,-0.854964,0.756496,1.304141,6.847280
1005.406250,-6.253537,5.252984,4.223027,6.443030
1005.410156,2.771978,7.221777,1.751403,7.703493
1005.414062,9.036573,5.365693,4.612268,7.419815
1005.417969,9.953413,7.764992,8.653629,4.808057
1005.421875,-0.400087,15.836471,13.271850,4.686364
1005.425781,5.556207,9.859084,13.354081,4.360300
1005.429688,2.355711,5.610071,6.558202,7.181384
1005.433594,11.413558,6.280267,4.253075,12.100882
1005.437500,6.933217,12.025702,7.028281,7.810746
1005.441406,4.403144,10.960670,4.696087,-0.372007
1005.445312,8.808568,9.648164,6.463500,2.072802
1005.449219,1.226758,10.903538,-5.636858,-2.319858
1005.453125,7.790798,-0.400259,-3.141403,-2.958356
1005.457031,-10.957039,2.103675,-9.423684,-7.966444
1005.460938,-8.971248,-6.706624,2.576341,-4.757728
1005.464844,-7.989141,-9.626949,-2.014452,-12.259791
1005.468750,-7.169822,-8.347009,-7.833980,-12.057631
1005.472656,-8.627489,-14.951586,-8.156249,-9.322202
1005.476562,-9.213900,-11.077936,-11.716615,-13.648292
1005.480469,-10.216896,-6.308848,-11.797714,-9.281044
1005.484375,-0.696434,-6.751787,-8.453294,-15.641575
1005.488281,-5.834382,-4.773337,-6.873966,-5.463023
1005.492188,-2.622366,-2.718854,-4.847144,-1.747849
1005.496094,0.485512,-3.316442,0.384679,-1.237349
1005.500000,-3.312404,0.159254,-5.809218,-1.775578
1005.503906,-2.422287,-1.676613,3.314167,-3.798530
1005.507812,-2.636648,-0.254929,4.797081,3.505099
1005.511719,3.307873,5.042591,7.516264,7.023026
1005.515625,7.057218,9.365976,13.590812,4.515889
1005.519531,8.866315,6.774629,7.284071,13.400073
1005.523438,14.915214,3.365433,12.603675,5.588640
1005.527344,3.193671,15.061485,15.382297,11.239301
1005.531250,16.868674,3.816757,10.925529,3.584866
1005.535156,7.751431,11.227023,4.499750,6.820085
1005.539062,13.253520,6.552742,0.990896,2.196654
1005.542969,2.161905,3.891157,7.900163,6.991091
1005.546875,-0.868589,-0.020168,9.026631,-3.725180
1005.550781,5.729709,2.653682,-0.108229,-5.391664
1005.554688,-2.888249,0.216198,-2.675592,-2.564221
1005.558594,-2.429184,-13.860661,-13.520516,-5.418211
1005.562500,-5.631605,-2.115466,-7.103685,-9.128733
1005.566406,-6.134493,-5.563278,-12.250181,-1.534108
1005.570312,-10.700518,-10.052338,-12.309885,-12.563460
1005.574219,-11.183842,-4.991871,-8.473956,-11.080152
1005.578125,-12.701600,-7.999737,-17.778831,-6.286877
1005.582031,-15.105087,-5.072286,-3.737279,-9.860118
1005.585938,-14.808709,-5.948231,-11.761388,-9.114467
1005.589844,-3.069385,-3.369351,-0.175152,-6.005853
1005.593750,-1.082540,-0.571483,-5.263389,-2.335461
1005.597656,-3.841744,-6.256549,-0.638593,-3.689275
1005.601562,7.333536,0.413519,5.481123,0.617116
1005.605469,5.286506,5.289288,2.976258,5.385157
1005.609375,6.660466,10.287409,0.567736,3.814840
1005.613281,9.078514,9.101860,6.505406,4.604415
1005.617188,10.613089,10.224922,13.136365,3.770937
1005.621094,17.012627,13.756702,8.196430,4.112299
1005.625000,15.035736,8.908191,10.219505,11.140148
1005.628906,-0.379336,4.474049,6.242097,15.540212
1005.632812,9.215944,10.216649,2.644911,13.804899
1005.636719,9.362656,6.281964,7.607674,7.215733
1005.640625,5.047049,4.728586,4.869275,5.192043
1005.644531,2.184033,7.008896,4.913246,3.835115
1005.648438,-5.543286,0.423372,-2.822642,2.844733
1005.652344,-7.006968,-3.335057,-1.301126,-4.121922
1005.656250,-0.831973,-2.956392,-3.270200,-0.168271
1005.660156,-6.557183,-1.160279,-7.991579,-1.409409
1005.664062,-9.624148,-6.702812,-12.548212,-14.608808
1005.667969,-10.260665,-11.423360,-6.589801,-4.520923
1005.671875,-14.349176,-11.987541,-12.206714,-12.600675
1005.675781,-11.086528,-15.474438,-14.796751,-11.425558
1005.679688,-9.966326,-3.246224,-15.925503,-17.191333
1005.683594,-11.491156,-11.648958,-3.027381,-4.126216
1005.687500,-7.010135,-7.585993,-7.420770,-10.879977
1005.691406,-7.831741,-2.889229,-12.915018,-4.974309
1005.695312,-2.975531,1.460869,-0.617277,-4.363872
1005.699219,7.147943,-5.825974,2.684064,-3.941060
1005.703125,2.746881,2.658882,1.282583,4.824093
1005.707031,-1.267886,2.756741,4.342703,2.089476
1005.710938,2.667178,5.181576,6.075283,9.917248
1005.714844,9.165500,0.542431,10.243209,17.528991
1005.718750,7.822293,6.228551,12.770305,2.077834
1005.722656,9.629958,4.491517,5.799419,6.090751
1005.726562,2.970066,7.055760,6.878891,12.962649
1005.730469,5.602458,9.666909,8.343140,4.855864
1005.734375,13.853370,11.146204,8.864274,10.287751
1005.738281,10.666399,1.580268,3.787247,5.837274
1005.742188,3.218017,12.428032,1.637653,1.529315
1005.746094,1.769981,5.023947,3.538227,8.402414
1005.750000,-3.008910,11.904625,-1.788283,3.267443
1005.753906,-3.545479,1.251501,-0.542914,-6.554252
1005.757812,-8.672300,-11.796045,-4.191672,0.489015
1005.761719,-8.030181,-2.023850,-6.732517,-7.887031
1005.765625,-5.920392,-12.667564,-3.761888,-8.168128
1005.769531,-9.946857,-7.771812,-6.530054,-7.846501
1005.773438,-11.335949,-7.446426,-7.611620,-13.151316
1005.777344,-6.996168,-7.994155,-13.833723,-7.310534
1005.781250,-13.566333,-9.400923,-10.401163,-9.375834
1005.785156,-15.193941,-5.471302,-9.054036,-2.397734
1005.789062,6.600205,-2.533640,-7.346557,-6.924243
1005.792969,-2.550466,-7.474502,-5.453382,-2.453391
1005.796875,1.862255,-3.171721,-12.231854,0.258822
1005.800781,3.777818,6.295635,0.150780,-1.666561
1005.804688,3.184972,6.050709,-1.894809,12.277092
1005.808594,11.119888,4.083123,0.911393,5.566284
1005.812500,10.576608,6.404157,5.646522,7.015388
1005.816406,17.312109,10.053979,9.852430,11.775530
1005.820312,8.608920,2.851679,9.039995,5.785111
1005.824219,11.182101,5.540604,17.074446,13.691998
1005.828125,18.332888,10.952870,12.543259,11.305625
1005.832031,9.482642,5.217189,9.208507,10.033434
1005.835938,10.716996,5.595174,6.025853,5.312023
1005.839844,-0.620116,0.089455,13.499207,2.967319
1005.843750,1.061726,10.313057,1.446096,0.567977
1005.847656,1.652958,7.048639,1.025262,3.076381
1005.851562,8.910662,3.634933,1.095580,-4.117282
1005.855469,-3.143428,-2.238359,-5.232743,0.552222
1005.859375,-4.186906,-8.863012,-5.117517,-0.286148
1005.863281,-8.767792,-6.729419,-6.235460,-15.526517
1005.867188,-11.731491,-11.500829,-10.953147,-13.462084
1005.871094,-3.774910,-9.759028,-13.767130,-16.264337
1005.875000,-11.665034,-13.333737,-14.474639,-10.199463
1005.878906,-10.238016,-14.351894,-9.071308,-5.887345
1005.882812,-8.150661,-11.419300,-7.773401,-9.330092
1005.886719,-13.210465,-4.077439,-6.288689,-5.907361
1005.890625,-9.428839,-6.296987,-11.271854,-9.042441
1005.894531,0.088124,4.459631,-3.835037,-11.347855
1005.898438,-7.655619,5.969567,2.839432,0.894496
1005.902344,3.119425,2.871566,2.669259,-3.595666
1005.906250,6.997222,9.893338,-0.771206,8.677955
1005.910156,6.669704,5.335523,7.458038,5.247520
1005.914062,10.471478,4.762911,6.659419,11.852788
1005.917969,6.746520,8.955702,9.445014,7.269837
1005.921875,9.890436,12.427384,11.623340,11.172262
1005.925781,11.587670,4.851775,14.860734,13.071087
1005.929688,11.550133,6.508189,12.905269,12.740740
1005.933594,6.811034,15.709092,6.658585,8.195885
1005.937500,8.521010,9.524940,4.992080,12.336691
1005.941406,2.658599,6.189451,10.530543,6.332918
1005.945312,-3.237096,5.619934,4.498668,2.193199
1005.949219,-3.868590,1.111884,4.932164,5.361156
1005.953125,-6.165750,0.187870,0.651799,-9.460041
1005.957031,-1.804737,-8.478076,-1.938202,-1.862566
1005.960938,-2.124176,-6.928742,-11.836566,1.141653
1005.964844,-4.620898,0.221828,-11.345118,-11.434875
1005.968750,-6.744290,-7.154925,-5.650000,-4.527659
1005.972656,-10.410425,-11.340502,-12.688950,-14.049548
1005.976562,-10.446302,-12.506512,-9.679263,-1.944821
1005.980469,-10.286051,-6.897755,-11.969002,-3.884456
1005.984375,-9.338559,-8.306072,-3.406619,-9.205422
1005.988281,-7.618956,-7.119949,-5.999571,-8.119096
1005.992188,-9.876511,-8.437584,-1.870745,-12.242161
1005.996094,-4.374770,-4.537225,-0.962111,-4.003331
1006.000000,0.321138,4.781582,-2.222037,-2.093079
1006.003906,5.557073,-1.475901,-2.024100,0.699839
1006.007812,4.224734,6.667282,5.454340,7.463653
1006.011719,0.582259,9.620835,8.817812,2.253964
1006.015625,8.277757,9.796528,0.115898,4.859885
1006.019531,7.092531,13.852377,10.477538,2.905824
1006.023438,15.218919,20.137639,11.070098,11.125045
1006.027344,12.324098,18.037423,10.188467,13.190713
1006.031250,13.159670,9.903267,9.861179,7.104262
1006.035156,5.834487,7.585114,7.763253,14.544518
1006.039062,12.871970,10.055330,4.679572,8.840901
1006.042969,5.653241,11.652601,4.591636,4.258142
1006.046875,3.772899,5.639428,8.283006,-0.832572
1006.050781,0.095934,-0.839789,4.822206,3.589152
1006.054688,-4.917410,-3.295900,2.743785,-10.126605
1006.058594,-6.055730,-4.123185,-4.603890,-6.743967
1006.062500,-13.815069,-4.250608,-8.430339,-10.432528
1006.066406,-10.485249,-2.495634,-8.311672,-11.629824
1006.070312,-14.944436,-13.549978,-6.295468,-3.923536
1006.074219,-12.044789,-6.812926,-11.138458,-3.929466
1006.078125,-7.356442,-6.817844,-6.908703,-12.115996
1006.082031,-14.789668,-8.729211,-16.193809,-2.611400
1006.085938,-6.756565,-11.223980,-10.105414,-11.661469
1006.089844,-1.292322,-6.480738,-9.907421,-4.521311
1006.093750,-7.627104,-6.055038,-1.100075,2.849070
1006.097656,-1.261018,4.183165,0.610531,-2.183707
1006.101562,4.907215,-1.848637,-1.142127,3.549560
1006.105469,1.539395,2.943248,-1.888420,7.736048
1006.109375,5.157106,8.532215,4.173065,1.730987
1006.113281,6.485884,5.960406,11.716328,11.536516
1006.117188,8.957569,4.706197,6.135815,-4.123363
1006.121094,19.036281,10.754811,-0.744182,7.848060
1006.125000,13.735765,14.712429,12.829846,10.591521
1006.128906,14.297242,4.848826,6.641711,6.719163
1006.132812,5.630879,12.241638,9.019642,3.521737
1006.136719,13.217734,4.750455,-3.341172,9.525252
1006.140625,15.335426,0.512802,0.669221,8.256951
1006.144531,3.657750,10.610983,-3.968954,0.228492
1006.148438,-4.972167,4.026620,0.196441,8.410374
1006.152344,-1.717099,-3.062288,-4.460499,-5.299148
1006.156250,1.982888,0.546323,-6.095024,0.627896
1006.160156,-8.748320,-5.374269,-6.664091,-12.006438
1006.164062,-4.318117,2.240111,-15.173729,-6.115932
1006.167969,-8.109266,-9.699770,-4.864655,-11.507275
1006.171875,-3.270527,-11.306146,-7.012916,-11.868231
1006.175781,-7.723297,-11.276457,-10.503550,-6.334954
1006.179688,-6.492338,-7.079766,-7.377866,-7.665467
1006.183594,-3.704480,-6.417440,-9.353102,-1.399397
1006.187500,-6.925806,-6.580026,-5.336513,-7.886848
1006.191406,-12.166668,-2.617461,-4.175919,-2.673566
1006.195312,-5.485483,-5.101362,-6.699371,-0.517382
1006.199219,-0.128518,-0.342835,-4.562205,-5.215012
1006.203125,3.576239,3.774333,-4.155371,5.258126
1006.207031,5.772952,4.016324,8.174888,4.512114
1006.210938,3.695245,6.689571,6.821000,5.819597
1006.214844,11.077934,6.217690,8.003687,13.018821
1006.218750,15.942118,5.108332,8.845098,7.411147
1006.222656,3.985260,3.871567,6.916618,12.691065
1006.226562,16.208256,11.806929,8.158018,8.971414
1006.230469,-1.367429,12.266081,4.290263,8.523916
1006.234375,5.344141,18.263064,12.990955,15.457050
1006.238281,5.830992,6.580864,7.985871,11.526493
1006.242188,-0.109754,6.349603,-2.583271,4.935402
1006.246094,0.236840,-1.401549,1.718487,3.709875
1006.250000,-7.437275,3.123341,-0.552450,-2.532416
1006.253906,-6.284121,-10.159032,-4.815432,-5.064343
1006.257812,-11.073190,-5.281987,1.659762,1.459657
1006.261719,-8.786544,-1.782385,-5.957977,-8.718048
1006.265625,-8.863723,-14.153150,-10.627027,-13.354472
1006.269531,-9.564157,0.541791,-9.838812,-7.589752
1006.273438,-13.770327,-5.596418,-18.021549,-15.264185
1006.277344,-14.189695,-11.447571,-13.233963,-12.316822
1006.281250,-5.041863,-13.095652,-7.501577,-0.688012
1006.285156,-3.082494,-1.659927,-2.509984,-9.897334
1006.289062,-7.337652,-7.515355,-9.628790,-12.268059
1006.292969,1.849780,-1.536552,-1.727443,-4.654699
1006.296875,1.288950,-2.973886,-4.803797,-5.237356
1006.300781,1.149156,-0.733419,-4.858255,0.959180
1006.304688,-1.906750,3.250846,5.427740,1.880060
1006.308594,5.765791,-2.451750,4.821662,10.094705
1006.312500,6.538068,3.595554,8.397145,7.550366
1006.316406,10.028660,2.962845,11.543070,6.169180
1006.320312,12.969435,13.407501,13.698731,1.092440
1006.324219,16.654498,10.652235,12.357371,13.193564
1006.328125,6.560422,6.085954,8.318597,16.295089
1006.332031,1.717398,11.880025,0.968457,10.776183
1006.335938,9.867137,10.537534,-1.600306,10.739859
1006.339844,11.103312,6.213192,7.564176,5.773208
1006.343750,1.793474,-0.366649,2.161705,3.565690
1006.347656,4.876755,-2.078410,4.554987,-1.033567
1006.351562,3.112569,2.404291,-0.592112,5.749317
1006.355469,2.308241,3.772418,-3.911374,-8.577084
1006.359375,-4.625174,-1.183003,-0.079740,-7.853178
1006.363281,-6.620639,-4.720652,-0.493482,-6.542657
1006.367188,-8.641176,-6.381649,-3.495487,-9.881352
1006.371094,-5.663167,-11.188658,-9.898415,-10.234105
1006.375000,-6.781986,-10.741201,-6.957751,-8.657882
1006.378906,-6.294641,-8.913776,-12.467072,-16.547775
1006.382812,-7.542962,-4.218256,-19.845216,-16.936064
1006.386719,-5.021732,-6.161620,-2.473157,-9.349749
1006.390625,-10.798042,-3.419129,-4.397380,-1.332594
1006.394531,-8.707092,-0.771790,-9.101371,-3.309154
1006.398438,-7.488369,-3.249460,-3.569557,-3.035336
1006.402344,0.097755,2.781282,3.960170,-0.486456
1006.406250,9.837036,7.786115,-1.416627,2.201426
1006.410156,13.312283,1.244519,8.779974,8.562234
1006.414062,7.703504,4.070648,7.342509,13.883018
1006.417969,18.766642,5.296577,7.977812,6.415427
1006.421875,13.267788,13.578384,15.713752,12.314375
1006.425781,4.676909,11.741619,6.180401,9.136914
1006.429688,2.770498,4.189540,7.387063,11.350575
1006.433594,7.541188,4.898342,14.898755,18.026617
1006.437500,10.141987,5.993437,13.176043,7.365258
1006.441406,5.708266,7.675075,11.302082,1.183246
1006.445312,6.315555,3.272880,-3.360446,4.734227
1006.449219,-7.538732,-3.264121,-1.009446,1.503195
1006.453125,-6.085305,-1.085396,3.043547,-2.335364
1006.457031,-2.964277,-6.857754,1.276235,-8.185241
1006.460938,-9.596410,-4.664197,-7.349090,-1.463544
1006.464844,-8.283742,-0.834558,-11.330298,-2.448245
1006.468750,-11.066533,-9.878490,-12.357189,-6.630384
1006.472656,-0.732622,-3.333108,-7.553246,-0.618264
1006.476562,-11.406111,-9.245945,-17.729385,-13.272417
1006.480469,-7.047044,-6.892225,-6.147578,-8.594344
1006.484375,-22.030557,-6.927269,-6.991127,-10.850138
1006.488281,-8.204201,-9.004716,3.001924,-3.034941
1006.492188,-3.370553,-0.228793,-9.953396,-9.785555
1006.496094,-2.624823,-1.489844,3.282899,2.393442
1006.500000,-2.178391,0.011770,1.551562,8.472913
1006.503906,-1.437346,8.261357,3.743834,8.635726
1006.507812,-1.324424,1.988530,12.481246,4.713974
1006.511719,1.742820,11.302540,14.112314,9.213470
1006.515625,15.659397,7.196804,7.949989,11.184712
1006.519531,8.930886,3.935281,16.982937,6.234619
1006.523438,5.745422,10.806714,4.974377,11.625997
1006.527344,3.752423,15.768358,8.727248,12.726999
1006.531250,9.844169,11.774180,8.999031,7.704823
1006.535156,4.789530,17.015018,1.494345,7.625473
1006.539062,1.464514,10.227589,6.044890,10.926581
1006.542969,5.271497,6.779848,7.289611,12.938624
1006.546875,0.122880,-0.941421,-3.217967,6.926798
1006.550781,3.919649,1.164634,-3.108142,3.245119
1006.554688,3.204089,-1.289898,-1.515869,-2.608501
1006.558594,-11.786717,-2.845905,-10.005448,-3.450044
1006.562500,-4.002718,-16.553623,-8.953468,-4.867843
1006.566406,-11.407683,-7.809571,-7.486719,-6.517484
1006.570312,4.136547,-14.997322,-10.689115,-5.994876
1006.574219,-8.496673,-13.687124,-9.572246,-2.794794
1006.578125,-15.631208,-18.971192,-11.954316,-16.125079
1006.582031,-17.060485,-5.532922,-14.535480,-11.729812
1006.585938,-14.075287,-5.921140,-15.460093,-10.938674
1006.589844,-0.550575,-7.597880,1.981614,-8.724377
1006.593750,-0.072919,-7.154344,0.458313,-3.488917
1006.597656,2.977852,-2.701292,1.950224,-0.486382
1006.601562,5.155990,-0.341719,1.095422,2.151329
1006.605469,1.592025,2.890754,4.889227,3.198385
1006.609375,8.185798,2.636893,5.723924,7.774815
1006.613281,10.513581,9.164217,1.046750,11.559892
1006.617188,6.792121,11.654799,4.287550,12.793565
1006.621094,13.545262,10.920386,13.273777,-0.032820
1006.625000,3.962799,3.088142,8.702798,8.498726
1006.628906,9.846141,9.231909,11.374044,9.138392
1006.632812,11.452155,13.430886,6.614414,14.931013
1006.636719,5.240204,7.641964,0.459495,10.607825
1006.640625,3.978107,2.418921,7.097483,6.045416
1006.644531,6.903533,0.602753,6.194888,-1.241918
1006.648438,4.149893,5.435972,-0.678703,-1.574338
1006.652344,-2.861895,-6.721104,-2.567728,1.506052
1006.656250,-4.904671,2.622417,1.492845,-3.926481
1006.660156,-3.276654,-3.990180,-11.869918,-13.023631
1006.664062,-10.386732,-5.481302,-2.777840,-13.374098
1006.667969,-12.643401,-9.044706,-9.710982,-6.867751
1006.671875,-10.814464,-9.859693,-10.911342,-9.348180
1006.675781,-4.671575,-8.393790,-8.526897,-13.991237
1006.679688,-12.696851,-0.853940,-15.406130,-12.688631
1006.683594,-14.489589,-15.860493,-10.754932,-6.000142
1006.687500,-7.553310,-14.304035,-6.858649,-0.998068
1006.691406,1.279709,-2.426977,-8.820843,-2.665329
1006.695312,-0.779416,-3.269305,-1.985625,-10.136100
1006.699219,-3.573856,2.200949,-0.255292,-5.265275
1006.703125,0.306126,2.346422,5.106897,8.464664
1006.707031,10.025826,-1.039438,4.617928,5.006490
1006.710938,4.046607,7.900246,4.758651,6.060066
1006.714844,15.250249,2.271870,4.144529,13.762373
1006.718750,13.980098,12.401029,11.888613,17.040087
1006.722656,6.492378,7.224181,9.614099,10.894483
1006.726562,11.316213,12.642195,11.760308,11.856135
1006.730469,6.171412,7.443738,8.998935,14.772807
1006.734375,9.108585,12.453002,4.631686,6.178150
1006.738281,4.938328,3.697772,4.851338,6.431891
1006.742188,8.457973,2.831254,9.346082,2.135855
1006.746094,5.415887,3.951440,4.485022,-0.416615
1006.750000,-1.411326,2.618679,-3.380772,-8.133066
1006.753906,-0.755840,-1.105917,-10.472134,-6.472875
1006.757812,-5.252085,-5.844333,-1.743057,-2.948934
1006.761719,-10.287181,-12.327173,-8.621875,-5.591388
1006.765625,-10.671580,-3.689417,-12.640524,-9.897459
1006.769531,-6.827443,-10.189095,-5.574249,-9.867060
1006.773438,-6.655038,-3.773347,-15.644591,-12.637861
1006.777344,-14.755957,-12.554683,-13.504802,-8.942960
1006.781250,-2.099666,-9.540998,-7.561645,-6.412974
1006.785156,-6.094437,-11.835662,-3.965120,-11.241317
1006.789062,-6.091759,-11.496754,-0.393193,-8.159978
1006.792969,1.260511,-13.130404,-6.831553,-5.372532
1006.796875,-6.844504,-4.326553,-4.647943,-6.569770
1006.800781,-3.424188,5.517130,-0.045233,2.464106
1006.804688,1.662416,5.408667,-1.938978,2.231963
1006.808594,-0.413543,9.990321,8.783333,9.342085
1006.812500,8.254864,3.319609,8.416219,4.904789
1006.816406,9.031943,2.565974,4.414892,10.418250
1006.820312,18.281178,11.207061,18.353112,17.144855
1006.824219,2.471659,12.097333,11.419200,9.129281
1006.828125,8.367517,12.275998,5.641688,11.279417
1006.832031,8.421827,1.646768,11.772472,8.657799
1006.835938,3.975969,4.804290,10.320796,3.797253
1006.839844,6.848487,14.467453,3.866232,9.182784
1006.843750,-1.171503,4.907011,1.043710,9.215886
1006.847656,4.907151,2.563554,3.737814,3.443343
1006.851562,-4.111759,-0.910834,-1.028806,-1.697835
1006.855469,3.203709,-7.209386,1.524097,2.660537
1006.859375,1.243775,-8.523476,-6.268775,-8.091474
1006.863281,-1.945995,-9.573395,-8.494490,-8.220970
1006.867188,-11.069682,-3.335332,-6.492856,-7.871545
1006.871094,-12.660956,-8.824114,-12.826454,-13.100275
1006.875000,-4.748435,-12.718111,-15.792716,-10.897290
1006.878906,-6.703753,-6.475022,-11.253232,-5.078490
1006.882812,-16.752284,-5.993186,-17.539373,-2.047082
1006.886719,-5.636143,-4.378088,-7.112908,-9.709988
1006.890625,-4.206681,-2.623841,-8.356440,-8.222885
1006.894531,-0.186825,-2.558613,-1.350342,-1.085980
1006.898438,-2.183040,0.533013,-3.780603,1.716419
1006.902344,1.642262,1.270933,1.143032,-0.766463
1006.906250,-2.288832,3.719110,9.158965,7.072240
1006.910156,8.620339,4.522244,3.192400,5.388692
1006.914062,9.386773,4.930915,6.812549,10.713392
1006.917969,12.335893,9.513849,7.605315,9.270031
1006.921875,7.217534,12.763807,10.369331,10.099450
1006.925781,9.820385,19.792187,6.676712,6.706564
1006.929688,11.187188,8.203384,14.247916,9.084180
1006.933594,1.385695,12.903770,8.635555,7.663309
1006.937500,4.472040,4.855882,0.477467,13.771717
1006.941406,5.966146,2.542537,9.395218,5.766908
1006.945312,7.678302,5.501742,4.465388,5.904314
1006.949219,4.510545,1.267715,1.126467,-2.231622
1006.953125,-5.450604,-0.803248,-3.815089,0.712970
1006.957031,-0.600927,-9.732410,-9.306522,-7.482618
1006.960938,-0.711312,-11.634834,-8.154930,-5.917365
1006.964844,-11.425586,-7.294407,-8.852966,-10.398598
1006.968750,-7.949000,-6.091196,-15.373156,-5.856313
1006.972656,-15.320296,-14.158667,-11.720099,-9.998823
1006.976562,-9.327572,-9.507422,-8.111547,-4.623193
1006.980469,-6.903930,-4.413106,-16.684045,-5.991471
1006.984375,-7.037485,-16.326503,-4.690260,-9.575000
1006.988281,-2.471170,-5.811993,-9.623591,-2.864597
1006.992188,-8.489967,-1.904938,-4.065881,-10.630658
1006.996094,-5.440332,-3.499190,-6.000482,0.456186
1007.000000,0.638272,6.744421,-0.056342,-2.804343
1007.003906,0.023029,6.450609,9.365915,0.636849
1007.007812,14.771113,0.972898,2.476660,-0.607466
1007.011719,9.548143,-0.227869,2.745800,2.099597
1007.015625,9.029452,9.404674,15.330693,7.697554
1007.019531,6.430303,6.246699,9.719488,13.867481
1007.023438,6.668003,16.332403,7.227199,7.271383
1007.027344,8.856759,10.862678,8.586490,8.146349
1007.031250,4.683562,-3.080799,14.496730,6.813845
1007.035156,4.681930,6.092745,3.994210,13.434393
1007.039062,8.006180,8.490041,4.487801,9.144807
1007.042969,10.103795,6.361058,-0.224766,-5.518554
1007.046875,1.860092,2.692282,1.426540,-2.255966
1007.050781,-2.306165,-0.901288,-5.393721,1.865368
1007.054688,-3.079778,-4.085353,1.177370,-2.295860
1007.058594,-4.085842,-3.911926,-2.900819,-6.619043
1007.062500,-14.034540,-2.936243,-12.226514,-5.467493
1007.066406,-16.616767,-9.057802,-9.009232,-9.951678
1007.070312,-0.461762,-7.119394,-5.805218,-9.616666
1007.074219,-6.375116,-14.520399,-9.315285,-14.913430
1007.078125,-3.963562,-14.837486,-8.935662,-8.230399
1007.082031,-7.041115,-8.102114,-5.658036,-10.345381
1007.085938,-9.181581,-14.412345,-7.553730,-11.049731
1007.089844,-6.098613,-2.726947,-5.970990,-5.507288
1007.093750,-7.260425,-3.078658,-4.180534,-6.831957
1007.097656,-0.584252,-4.095077,-3.291424,-6.782085
1007.101562,0.360124,4.220859,-1.860265,-0.236865
1007.105469,6.149046,6.905650,6.135520,5.548554
1007.109375,2.400414,5.119552,3.273620,2.124163
1007.113281,12.405134,6.190522,6.610294,3.539933
1007.117188,15.327911,14.128413,8.408047,10.436887
1007.121094,9.763496,3.326583,10.724186,8.982622
1007.125000,7.459122,7.159230,5.601701,12.264428
1007.128906,7.307509,4.210887,7.309974,7.328529
1007.132812,5.538920,4.026127,11.559293,7.997173
1007.136719,11.808133,12.869378,3.697344,12.045576
1007.140625,-2.575376,2.863596,1.877293,7.878842
1007.144531,1.961645,-0.679687,-3.775368,3.042086
1007.148438,4.106953,-2.834944,3.099786,0.699623
1007.152344,5.748918,-1.471066,2.087427,-1.687935
1007.156250,-2.696080,-6.438630,-8.401056,-7.031085
1007.160156,-14.060565,-2.335585,-8.154383,-7.337190
1007.164062,-9.950584,-9.169551,-9.218567,-6.707550
1007.167969,-14.507237,-11.798676,-10.205515,-14.345552
1007.171875,2.663283,-16.796820,-8.104392,-10.167487
1007.175781,-9.938805,-10.421650,-5.101174,-10.249666
1007.179688,-5.206227,-13.400435,-10.705170,-9.470493
1007.183594,-8.639019,-17.651351,-6.687375,-7.488040
1007.187500,-3.941955,-11.044452,-1.218187,-3.211096
1007.191406,0.530573,-6.819094,-10.251895,1.183838
1007.195312,1.863810,-8.736486,1.717504,-0.720510
1007.199219,-1.406694,2.272755,-7.058377,2.030106
1007.203125,-3.573015,3.562231,4.834275,2.306011
1007.207031,8.627844,9.652557,-1.033077,-5.680003
1007.210938,6.968591,9.289128,2.453845,8.510542
1007.214844,12.065595,15.287643,5.332609,8.712456
1007.218750,9.665444,7.621175,15.698955,5.309202
1007.222656,6.372903,3.806323,10.044980,8.195294
1007.226562,9.927444,9.764302,7.416281,10.770912
1007.230469,6.259592,5.625878,1.821859,13.558449
1007.234375,15.033619,7.998049,10.873578,8.318256
1007.238281,5.712250,2.287217,7.537939,10.641433
1007.242188,1.903212,10.171933,3.867847,3.038015
1007.246094,1.730417,2.938080,7.627990,10.689805
1007.250000,-5.948608,-1.505251,-6.951523,-0.331925
1007.253906,1.753556,-4.597686,-0.210795,-4.335232
1007.257812,-5.471852,-3.452314,-2.988159,-2.362980
1007.261719,-9.485380,-7.714875,-3.873068,-8.062324
1007.265625,-4.672576,-16.384152,-6.498450,-7.176386
1007.269531,-10.238989,-21.938099,-5.759670,-6.895511
1007.273438,-16.879630,-10.774171,-11.125269,-6.493293
1007.277344,-20.038048,-5.783047,-12.248218,-10.470244
1007.281250,-13.629370,-4.500222,-8.232864,-8.885337
1007.285156,-0.507787,-0.862130,-11.466268,-13.151423
1007.289062,-10.951254,-6.026457,-4.486820,-7.737838
1007.292969,-8.910305,-6.043689,0.127294,-0.266980
1007.296875,-4.441641,-9.497309,-10.094407,-3.198862
1007.300781,-3.956346,-1.439672,1.373594,-5.790343
1007.304688,-0.283825,9.937303,9.787151,-2.899837
1007.308594,-0.257956,2.057516,15.213425,11.334237
1007.312500,9.543264,3.783237,15.714990,8.625460
1007.316406,3.822406,10.893432,0.913070,6.732898
1007.320312,8.142388,12.164441,6.566972,8.338100
1007.324219,18.632016,14.460911,6.896559,14.162178
1007.328125,7.099611,10.354775,11.117372,17.511554
1007.332031,16.996547,9.374871,8.625795,9.513308
1007.335938,11.865874,7.376020,7.734360,8.902766
1007.339844,11.213437,7.740120,-0.818787,6.287345
1007.343750,4.350901,8.607044,0.767668,2.097318
1007.347656,2.755762,-6.565053,-1.018670,-0.698388
1007.351562,0.853446,-6.379363,0.200006,-4.086849
1007.355469,-4.239045,-5.671043,0.493792,-5.549282
1007.359375,-9.494410,-5.665227,-2.554083,-4.448652
1007.363281,-5.801590,-9.691655,-10.472504,-8.708032
1007.367188,-11.443111,-8.493991,-7.543854,-11.333187
1007.371094,-6.306927,-7.684280,-8.617355,-6.806486
1007.375000,-10.345862,-10.859189,-15.393131,-18.777093
1007.378906,-9.017939,-16.519721,-7.290142,-6.237113
1007.382812,-12.641941,-11.218616,-7.824791,-11.962463
1007.386719,-8.064193,-5.790051,-4.879500,-9.262788
1007.390625,-3.908391,-1.827706,-8.272954,3.421599
1007.394531,-3.341811,-8.796510,-3.658409,-6.982695
1007.398438,5.828632,3.715431,5.446732,6.831516
1007.402344,-3.523328,-1.425803,6.041909,4.075432
1007.406250,-1.777590,-3.330847,4.259692,4.602736
1007.410156,4.936736,10.804683,3.168323,4.491305
1007.414062,3.818901,4.471373,9.875659,6.406384
1007.417969,7.305537,6.560175,10.719959,12.522419
1007.421875,13.032706,9.713319,14.324994,3.142295
1007.425781,9.904212,12.480367,11.115585,11.478270
1007.429688,10.587831,6.120240,17.701197,9.664902
1007.433594,6.818201,12.652225,6.335192,5.690406
1007.437500,12.181405,4.577308,12.829463,8.583329
1007.441406,1.415285,-1.499953,1.905298,-0.644786
1007.445312,-4.005004,4.444588,8.589531,-1.668700
1007.449219,-4.042660,3.897667,6.346292,-3.262501
1007.453125,-0.202689,3.068323,-12.086113,-5.624541
1007.457031,0.593027,-5.545777,-9.613780,-4.387350
1007.460938,-8.329096,-7.586467,-6.763281,-10.005367
1007.464844,-15.289419,-9.607037,-9.013045,-5.461182
1007.468750,-14.125232,-5.286424,-8.267277,-6.318647
1007.472656,-10.729453,-5.721953,-13.514436,-15.491839
1007.476562,-6.772540,-10.336822,-2.010885,-10.685284
1007.480469,-17.902594,-6.728025,-11.069016,-15.056509
1007.484375,-1.214291,-6.164600,-12.643388,-7.900891
1007.488281,0.412831,2.328930,-4.912897,-1.794919
1007.492188,-3.750682,-7.384635,-3.145535,-11.143342
1007.496094,-4.830896,-12.336039,-7.506441,-4.008089
1007.500000,-1.423131,-2.335966,-0.056668,1.857826
1007.503906,5.414351,1.254169,3.437035,1.514203
1007.507812,8.370404,0.011878,5.248135,5.943008
1007.511719,5.426105,9.043401,10.482221,6.553211
1007.515625,16.477388,14.153455,10.219440,12.441706
1007.519531,9.843383,12.425731,6.379425,10.166863
1007.523438,10.717751,11.383033,10.540244,12.411658
1007.527344,13.706017,8.159656,13.359771,12.798564
1007.531250,7.281967,15.152377,13.696994,11.546601
1007.535156,10.593869,9.546730,-2.393928,7.449702
1007.539062,-0.035142,4.050367,8.992803,5.689193
1007.542969,8.369517,7.147732,9.416180,-1.627760
1007.546875,-0.400407,-0.947992,1.506965,3.557466
1007.550781,-1.704642,-6.501989,-4.013354,-4.264763
1007.554688,-2.375204,-4.536380,-5.037642,2.961461
1007.558594,1.226729,-3.710353,-1.825719,-7.689428
1007.562500,-6.020942,-5.667042,-8.332693,-6.443212
1007.566406,-5.592652,-7.510395,-2.336531,-9.119040
1007.570312,-4.395006,-12.584679,-8.438290,-10.179710
1007.574219,-10.740045,-13.702279,-14.155865,-13.699451
1007.578125,-3.188392,-6.853833,-3.888119,-15.122615
1007.582031,-16.640507,-3.943772,-8.295312,0.387512
1007.585938,-6.953002,-8.516588,-4.275795,-7.031960
1007.589844,-5.188912,-0.502886,1.406830,-3.844194
1007.593750,-2.089309,-1.368251,-0.059411,-8.070969
1007.597656,-4.047898,-0.421598,-3.325116,-6.272192
1007.601562,-4.004675,-4.549059,3.223216,10.281988
1007.605469,9.825743,10.178693,6.838129,-3.242025
1007.609375,12.065761,4.888475,3.220266,3.263739
1007.613281,12.742581,4.038642,10.945586,8.073457
1007.617188,11.440264,14.877994,3.274769,7.598088
1007.621094,8.904778,14.376026,16.662904,3.486440
1007.625000,13.129389,3.974172,5.293101,8.335955
1007.628906,9.935306,17.888226,9.132918,8.670896
1007.632812,11.525108,11.812180,8.447235,11.118933
1007.636719,10.891300,6.607260,11.420264,8.323706
1007.640625,4.229605,3.279944,4.825236,2.738229
1007.644531,4.451261,2.917912,-0.050286,3.962481
1007.648438,7.265633,4.631666,-1.241230,-1.832622
1007.652344,-6.342168,-1.935482,-0.974029,0.038252
1007.656250,-9.361193,2.179082,-3.665665,2.959592
1007.660156,-1.878994,-6.990458,-10.260480,-5.757957
1007.664062,-5.699064,-8.349011,-9.033200,-5.495136
1007.667969,-12.471134,-5.478135,-13.835305,-8.665241
1007.671875,-10.327921,-7.158332,-16.523847,-2.614265
1007.675781,-14.097094,-17.302803,-17.319690,-9.550680
1007.679688,-4.995774,-10.147285,-11.082759,-7.298895
1007.683594,-7.290424,-0.402797,-13.275722,-6.693719
1007.687500,-10.763594,-10.441772,-11.097359,-4.924176
1007.691406,-3.642681,-7.520328,-5.465311,-6.232658
1007.695312,-0.246876,-7.603973,-3.865443,-3.222223
1007.699219,-0.275791,1.873339,-7.728380,0.869556
1007.703125,0.364173,2.746050,2.709926,-6.464871
1007.707031,-1.872494,1.772486,10.292476,12.780317
1007.710938,-1.213035,5.686168,2.843736,7.565474
1007.714844,9.670005,3.706387,6.015373,8.170683
1007.718750,9.564792,6.910327,8.838637,7.581520
1007.722656,18.162176,8.282031,7.579943,12.327650
1007.726562,6.291912,11.242188,14.231912,3.994791
1007.730469,11.287430,8.662448,11.597225,5.550163
1007.734375,9.231594,3.546754,9.750155,1.525778
1007.738281,4.192238,10.030935,3.187817,4.227942
1007.742188,2.043561,12.721682,12.386291,4.551965
1007.746094,10.247472,0.157048,-1.218771,-1.860628
1007.750000,-1.386752,0.762598,-5.272792,3.998187
1007.753906,0.012664,4.153633,-5.140200,-1.827573
1007.757812,-3.801229,-8.258771,-2.827181,-10.996329
1007.761719,-11.039892,-2.469490,-6.829693,-11.328833
1007.765625,-7.704052,-10.214082,-3.987948,-6.451863
1007.769531,-18.687599,-4.859623,-10.118738,-18.226935
1007.773438,-12.086670,-11.872587,-9.948086,-10.664538
1007.777344,-10.987347,-9.908446,-7.717673,-9.289417
1007.781250,-15.257554,-10.828639,-5.146740,-8.637519
1007.785156,-10.247445,-14.047369,-7.632994,-15.053654
1007.789062,-1.515799,-6.089118,-5.817306,-9.615385
1007.792969,-4.494141,-4.219538,-7.741035,-5.120680
1007.796875,-1.184474,-3.825012,-7.800549,6.119954
1007.800781,1.948781,1.889671,1.250410,6.194512
1007.804688,0.155406,-0.215001,1.191453,7.774975
1007.808594,5.655038,3.592469,4.573608,0.504062
1007.812500,1.239080,14.273520,5.346232,6.491355
1007.816406,11.842687,3.044694,3.168926,16.747661
1007.820312,4.516700,10.963292,9.396956,4.231602
1007.824219,10.920706,5.363835,7.573112,10.589764
1007.828125,21.752075,7.186732,10.895682,8.207694
1007.832031,12.196863,7.745557,4.144511,9.623225
1007.835938,8.265893,10.109444,4.361524,5.907688
1007.839844,7.793882,8.367640,7.366352,6.754690
1007.843750,0.427486,3.912336,1.652393,-1.775112
1007.847656,0.528398,2.508822,3.772514,-3.468229
1007.851562,-3.796948,-10.446796,-5.331226,3.566388
1007.855469,-6.173159,-2.737489,-5.148384,1.632526
1007.859375,-8.542377,-9.108253,-1.638637,-9.247309
1007.863281,-13.548081,-0.917129,-4.835816,-11.878493
1007.867188,-9.710644,-15.095221,-4.184810,-14.534779
1007.871094,-1.893932,-14.028819,-6.626890,-8.253971
1007.875000,-15.123638,-11.274142,-14.387044,-12.010371
1007.878906,-5.346019,-6.273743,-6.360936,-12.954797
1007.882812,-7.619522,-11.812509,-8.751475,-7.296422
1007.886719,-9.649694,-11.941446,-9.717166,-10.948163
1007.890625,-2.513963,-8.324540,-11.223923,-10.980617
1007.894531,-4.740996,-5.999205,-6.304950,-4.806813
1007.898438,-3.272405,-2.885415,1.223276,-7.796369
1007.902344,2.693657,4.735911,-11.258693,0.337686
1007.906250,4.636861,6.946947,0.097500,7.227623
1007.910156,2.806210,8.163249,-0.438107,-1.036056
1007.914062,10.519817,4.822302,10.210090,10.556464
1007.917969,10.324362,11.940279,6.871373,7.579791
1007.921875,13.109877,13.144186,4.091729,13.799529
1007.925781,9.118046,12.567836,13.471915,11.133704
1007.929688,14.117878,13.512357,12.207692,6.709235
1007.933594,12.972848,-3.638586,14.513550,7.330176
1007.937500,5.902385,9.914103,14.742954,7.313748
1007.941406,9.606981,8.217790,5.816116,3.640105
1007.945312,-6.367606,3.490512,7.545164,6.241721
1007.949219,-1.814068,4.592201,-10.251858,1.814114
1007.953125,1.619231,-1.454304,-7.775064,-1.802523
1007.957031,-1.993214,0.960717,-6.002888,-0.122518
1007.960938,-14.665385,-4.999050,-5.187447,-14.684301
1007.964844,-10.392710,-1.270737,-4.297982,-14.257245
1007.968750,-7.196792,-5.146858,-9.377850,-15.805684
1007.972656,-7.676243,-8.647765,-13.279481,-10.749344
1007.976562,-7.706907,-10.467075,-13.546523,-13.053704
1007.980469,-8.741903,-6.060298,-8.716396,-3.727052
1007.984375,-6.235837,-4.146008,-10.415333,-5.860950
1007.988281,-5.350820,-2.391105,-8.948665,-10.803624
1007.992188,-6.645079,-6.814945,-1.523725,-2.956596
1007.996094,-5.832007,2.177844,-7.589181,6.651074
1008.000000,-2.066845,0.186454,-5.625099,6.043727
1008.003906,-4.618022,-2.474603,3.063057,7.461380
1008.007812,3.542176,11.230575,11.337900,4.137841
1008.011719,1.010754,10.164478,3.285665,0.874719
1008.015625,3.780322,10.321761,10.617943,2.720275
1008.019531,7.539032,6.317545,5.821386,6.432104
1008.023438,9.222883,7.860847,13.251261,4.357798
1008.027344,19.485219,9.529082,13.299229,13.511632
1008.031250,7.842948,4.947992,10.698808,7.959289
1008.035156,1.840146,3.239742,7.463293,18.522586
1008.039062,4.600906,8.058982,2.641986,4.815872
1008.042969,0.137290,1.644318,9.000285,2.508295
1008.046875,8.025612,1.033837,1.217572,1.666436
1008.050781,7.529924,2.832005,-4.247945,-2.793531
1008.054688,-5.593378,-1.876640,-1.906173,-8.440105
1008.058594,-4.757415,-5.128076,3.266002,-8.183312
1008.062500,3.219016,-0.525103,-4.038143,-7.632111
1008.066406,-3.707608,-7.227571,-10.633618,-8.306535
1008.070312,-22.011915,-7.194905,-9.585357,-4.507815
1008.074219,-4.618047,-10.597470,-14.401074,-13.364147
1008.078125,-8.398562,-14.981988,-7.866274,-11.065554
1008.082031,-3.823913,-10.478320,-5.901493,-16.333370
1008.085938,-6.932035,-18.206609,-6.156340,-14.177392
1008.089844,-8.577563,-14.002852,-1.323237,-3.099005
1008.093750,-7.527838,-4.140894,0.446248,-7.344190
1008.097656,3.475001,-11.725758,7.980300,-7.480423
1008.101562,5.575693,-0.581884,1.946503,-7.587683
1008.105469,8.461590,1.134423,3.444424,7.278880
1008.109375,7.467256,4.320932,4.784276,6.029227
1008.113281,6.273938,14.428709,2.785514,9.239987
1008.117188,19.865213,12.922892,8.261927,13.407230
1008.121094,4.042248,4.980919,13.994367,1.870450
1008.125000,9.409267,16.858374,10.744485,6.393534
1008.128906,12.962185,3.488381,14.014723,9.922891
1008.132812,10.726442,10.279674,3.171024,4.910572
1008.136719,13.508223,3.112845,11.419033,4.664556
1008.140625,-1.250068,6.253745,1.114378,1.840754
1008.144531,1.451833,-2.214217,-0.170837,-0.789314
1008.148438,-1.245571,2.343347,3.930557,0.605903
1008.152344,0.031622,-4.227737,-6.591914,2.685727
1008.156250,1.573529,-4.250886,-8.080422,-9.968357
1008.160156,-11.451491,-4.981526,-4.547656,0.645283
1008.164062,-7.187494,-11.046953,-3.022242,-8.773893
1008.167969,-5.352116,-6.229670,-13.641995,-0.316959
1008.171875,-11.931175,-6.070746,-8.899200,-12.224446
1008.175781,-10.542686,-15.063983,-16.987999,-3.958340
1008.179688,-12.290300,-11.658737,-11.971906,-14.456043
1008.183594,-6.865657,-4.544849,-6.863617,-12.747735
1008.187500,-8.015804,-10.570606,-5.217246,-7.987604
1008.191406,-9.853934,-6.525412,3.285440,0.783105
1008.195312,1.434999,-4.061340,7.031274,-2.418162
1008.199219,-1.953520,-2.770041,-0.957691,2.487223
1008.203125,4.321879,2.116188,-1.791207,2.083191
1008.207031,1.535153,4.701842,0.560423,5.182939
1008.210938,-3.520032,3.490662,4.447940,2.381744
1008.214844,8.370606,3.967907,17.973486,9.583773
1008.218750,6.535224,14.797073,15.415718,13.493404
1008.222656,6.646576,10.808113,17.919346,5.515083
1008.226562,16.584147,14.292141,8.515855,18.502503
1008.230469,11.513480,11.040368,15.379888,4.835130
1008.234375,2.424165,6.587206,3.623800,8.995654
1008.238281,4.247711,2.341541,7.939911,7.824314
1008.242188,7.623410,6.664464,4.060237,5.788704
1008.246094,-0.774566,4.282591,5.582669,-2.727147
1008.250000,-6.054928,0.954563,4.236534,3.755095
1008.253906,2.592080,-1.349405,2.253706,1.317085
1008.257812,-12.739150,-10.682480,-0.424461,-0.570926
1008.261719,-2.192998,-2.327999,-9.428001,-10.134745
1008.265625,-4.672075,-7.217129,-7.350708,-2.495111
1008.269531,-11.187134,-12.595939,-10.465221,-13.477291
1008.273438,-17.357830,-5.989687,-10.177796,-13.796555
1008.277344,-9.148775,-4.344508,-8.616021,-9.466629
1008.281250,-5.952309,-9.879052,-8.395874,-11.585446
1008.285156,-16.036015,-9.846128,-0.989522,-8.868799
1008.289062,-6.862948,-9.133151,-14.506036,-9.455144
1008.292969,-4.334388,-5.229600,-6.918087,-5.675760
1008.296875,2.954612,5.532843,-4.024951,-8.225759
1008.300781,1.319541,1.792832,1.946496,1.401918
1008.304688,9.257030,7.644307,4.637953,4.667038
1008.308594,15.369415,5.526170,10.172217,5.808910
1008.312500,3.070005,8.365575,10.656736,8.856817
1008.316406,11.567938,10.894357,12.735585,6.279353
1008.320312,12.900560,9.179885,6.377582,7.013128
1008.324219,12.183064,6.607315,6.715664,2.808178
1008.328125,-0.590175,9.235457,10.800557,17.072245
1008.332031,8.662373,12.190955,16.239435,12.471237
1008.335938,9.158726,12.119053,8.405607,5.600172
1008.339844,5.985673,4.738123,6.409577,2.908032
1008.343750,2.833396,10.147273,7.373037,8.550041
1008.347656,1.453179,1.585314,-5.576061,8.459247
1008.351562,-0.883855,-1.139529,0.303754,-3.549864
1008.355469,-2.286070,-1.685612,-1.873972,-5.487935
1008.359375,-1.593992,-9.276692,-11.666783,-9.593479
1008.363281,-8.096291,-9.077349,-10.049448,-5.586556
1008.367188,-6.430110,-4.125943,-10.630135,-13.950822
1008.371094,-12.697746,-13.876843,-3.884343,-11.945203
1008.375000,-8.972897,-4.986158,-8.525332,-1.467808
1008.378906,-9.870008,-4.241733,-7.009456,-11.739211
1008.382812,-8.109501,-8.524822,-12.918096,-11.741003
1008.386719,-10.091901,-6.072686,-5.262994,-11.138037
1008.390625,-5.379812,-6.211117,-10.499568,-6.346196
1008.394531,-2.624984,-2.689374,-2.238432,-8.096304
1008.398438,-0.942971,3.593750,1.298121,-0.033851
1008.402344,3.003382,-2.659976,4.163868,7.044015
1008.406250,2.463287,2.360613,13.330278,9.644701
1008.410156,7.085254,-3.944066,1.232022,4.491621
1008.414062,10.343227,1.910169,6.636869,2.604764
1008.417969,5.756761,10.800723,6.996855,9.578291
1008.421875,13.581562,6.871754,13.469008,9.530806
1008.425781,2.223011,10.166296,10.908992,12.477884
1008.429688,6.430052,11.550866,9.296918,5.129572
1008.433594,11.941936,10.637659,11.946125,12.572635
1008.437500,8.492168,3.291904,7.055071,5.841057
1008.441406,5.978837,8.999511,3.480601,3.526949
1008.445312,-4.868355,1.798765,9.287705,12.907777
1008.449219,-1.296641,6.977620,-3.190339,-0.089510
1008.453125,3.891828,-5.847572,9.215389,3.151872
1008.457031,-8.610548,-5.100525,-1.646608,-10.231508
1008.460938,-5.888911,-6.305317,-0.318438,-1.839410
1008.464844,-5.483562,-10.978191,-9.884672,-9.898799
1008.468750,-4.673592,-11.090959,-7.356199,-9.527116
1008.472656,-9.479598,-12.561637,-11.997632,-9.165380
1008.476562,-8.885457,-12.912376,-13.127612,-10.588884
1008.480469,-5.753619,-11.669917,-10.844760,-16.121087
1008.484375,-8.991304,-3.735495,-8.289064,-3.839654
1008.488281,-3.011303,-6.826281,-0.830784,-5.880398
1008.492188,-2.826994,-3.101500,-5.403624,-6.962490
1008.496094,-3.808677,0.475916,-9.475118,4.655686
1008.500000,4.473118,2.860025,-0.146420,-0.306122
1008.503906,4.435352,0.646768,11.808177,-0.006100
1008.507812,5.365147,3.239887,6.974252,7.707726
1008.511719,9.762693,11.909715,10.781818,-0.014029
1008.515625,11.992049,15.577681,1.454769,7.558079
1008.519531,3.169087,12.524254,9.318030,10.949715
1008.523438,5.927828,8.238189,15.987305,5.602705
1008.527344,18.573719,9.784452,18.265723,-0.154135
1008.531250,6.449653,14.004306,9.069374,12.166266
1008.535156,3.302644,13.313134,12.991023,0.076738
1008.539062,8.506855,6.554256,-7.153962,5.322260
1008.542969,11.154243,4.752928,2.656517,4.374548
1008.546875,8.028651,1.122978,6.952919,-6.303913
1008.550781,-3.728536,4.535991,-0.746816,0.254889
1008.554688,-6.686489,-9.647638,-10.573890,-13.127275
1008.558594,-0.523576,10.725878,-8.735315,-4.325024
1008.562500,-0.985592,-3.053948,-8.423487,-11.328559
1008.566406,-3.586056,-6.553032,-7.471441,-13.475424
1008.570312,-14.112954,-7.664534,-11.168427,-14.314758
1008.574219,-10.511368,-14.186644,-5.146179,-11.684020
1008.578125,-18.311287,-9.926817,-16.672603,-9.452518
1008.582031,-3.687399,-3.755013,-9.622482,-6.111708
1008.585938,-8.801979,-6.727811,-11.986797,-11.051706
1008.589844,0.294698,-7.211738,-4.368953,-0.645152
1008.593750,-3.712165,-4.726491,-5.477065,-5.753755
1008.597656,5.066050,4.573811,-7.742582,0.051672
1008.601562,3.384844,-4.278454,2.182720,-0.082846
1008.605469,6.162913,1.276881,5.936613,-0.786411
1008.609375,14.354986,11.107960,7.776559,0.720393
1008.613281,8.501844,9.170546,5.093719,15.268447
1008.617188,10.796317,17.298535,11.194771,4.455967
1008.621094,12.793465,7.083409,11.795499,11.800961
1008.625000,14.930289,18.958135,0.790682,9.796284
1008.628906,2.384342,14.140251,6.824820,13.569611
1008.632812,1.400806,8.625056,8.432419,4.294519
1008.636719,7.970935,4.637490,12.109579,9.774571
1008.640625,3.718597,3.086176,6.632798,3.395754
1008.644531,4.918717,6.340050,-5.452625,2.932012
1008.648438,3.431913,2.704476,-3.070206,5.744039
1008.652344,0.905082,-3.995534,-5.716110,2.496390
1008.656250,-7.625526,-9.690037,1.563097,-9.580125
1008.660156,-5.640043,-5.972345,0.550964,5.146162
1008.664062,-13.287972,-3.259883,-2.050059,-13.103327
1008.667969,-11.426701,-7.076550,-12.256777,-8.666891
1008.671875,-15.063918,-8.334005,-17.268611,-5.493439
1008.675781,-15.505013,-4.391245,-8.905673,-9.712890
1008.679688,-8.153363,-7.351447,-14.408513,-8.163412
1008.683594,-14.448493,-11.100959,-6.073496,-8.143866
1008.687500,-10.241784,-10.514712,-6.779615,-1.406307
1008.691406,-9.550916,-5.445230,-7.155965,-4.376538
1008.695312,5.867196,1.317113,-4.503089,2.867441
1008.699219,-2.534205,0.646427,1.087305,5.037000
1008.703125,2.850297,-3.246455,1.058325,-1.350907
1008.707031,7.337645,-3.059066,1.540596,5.049107
1008.710938,2.679578,3.364380,9.738205,8.570831
1008.714844,11.597330,9.242034,12.883981,8.307584
1008.718750,6.084125,13.904808,12.658131,5.359165
1008.722656,1.403416,9.077317,14.218031,7.623596
1008.726562,9.065833,10.611709,7.695200,10.668691
1008.730469,1.998883,13.399608,10.142893,11.087114
1008.734375,1.054322,11.007351,10.127107,2.997965
1008.738281,11.712796,7.944523,6.749849,-1.377012
1008.742188,6.071513,5.702198,-1.192804,4.570640
1008.746094,-5.349188,-8.252344,3.534023,-0.175896
1008.750000,2.206416,0.375702,-0.105718,-0.808828
1008.753906,-3.517612,-1.588443,-1.777242,-12.922882
1008.757812,-7.292694,0.290335,4.708831,-10.968102
1008.761719,-9.488520,-7.680711,-9.182891,-8.651989
1008.765625,1.181128,-10.689065,-6.189586,-12.354813
1008.769531,-9.570432,-15.527798,-8.418960,-7.401897
1008.773438,-14.772229,-11.753130,-10.066632,-11.879762
1008.777344,-5.470346,-20.269032,-11.246971,-6.281550
1008.781250,-9.054676,-12.302848,-10.540057,-5.854990
1008.785156,-8.009250,-8.722540,-13.804634,-13.145528
1008.789062,-9.981508,-4.663344,-10.989419,-13.981336
1008.792969,-1.507064,-0.548111,-9.099958,-5.242760
1008.796875,-6.075551,-4.205351,-3.727905,-1.818860
1008.800781,0.957276,3.628630,3.084503,8.474662
1008.804688,3.633425,3.679618,7.869784,7.220774
1008.808594,10.722309,1.359764,-1.730032,7.198289
1008.812500,0.957914,9.575830,9.234799,6.878350
1008.816406,10.541657,12.540059,3.803260,11.771322
1008.820312,8.581913,10.568780,10.730173,6.524030
1008.824219,7.418188,7.869297,15.313989,15.706234
1008.828125,10.229578,2.155393,9.067232,5.493922
1008.832031,13.904975,4.668700,8.039472,8.849585
1008.835938,9.712518,5.619445,3.400491,6.245946
1008.839844,3.835823,8.244471,-0.952081,5.076476
1008.843750,7.799995,9.590454,4.055383,7.687732
1008.847656,-1.144375,3.841157,1.116010,6.417849
1008.851562,-4.824742,-0.079863,-0.311144,-4.013756
1008.855469,-2.975757,-3.356126,4.106139,1.256413
1008.859375,-10.260135,-5.285439,-4.406511,-11.383632
1008.863281,-12.671205,-9.373811,-10.838454,-3.288720
1008.867188,-15.127364,-9.033821,-6.415506,-6.430598
1008.871094,-8.244131,-5.731401,-14.955334,-8.901254
1008.875000,-6.968752,-12.091119,-14.252855,-5.738800
1008.878906,-9.956245,-2.543791,-0.798534,-5.483688
1008.882812,-7.107871,-14.701008,-6.773917,-8.337230
1008.886719,-6.991358,-6.183582,-9.008025,-10.460887
1008.890625,-7.440905,-4.053008,-1.841891,-4.668860
1008.894531,-3.722678,-4.227203,2.020903,0.663541
1008.898438,1.985667,-0.597190,4.203480,-0.368443
1008.902344,3.799162,0.568125,-0.169607,4.653789
1008.906250,9.547184,3.417578,-1.089216,-6.231511
1008.910156,7.861025,0.152308,11.435507,7.977787
1008.914062,13.805876,6.647009,5.193778,-0.666083
1008.917969,11.627755,11.633503,2.310571,14.128070
1008.921875,14.721249,13.949955,5.208667,8.217505
1008.925781,17.628004,12.977512,6.338461,5.311954
1008.929688,9.200083,10.865075,11.374219,15.793006
1008.933594,3.031293,2.135984,13.446576,15.769707
1008.937500,6.608310,12.515032,6.778923,-1.026252
1008.941406,-0.772251,2.313272,8.837009,7.362698
1008.945312,9.940906,13.386076,4.568104,-0.658130
1008.949219,-0.157900,-0.351703,-7.202989,4.041446
1008.953125,-9.374690,0.030772,-3.946693,0.120277
1008.957031,-5.252634,-1.559144,-5.119181,-7.223054
1008.960938,-3.731989,-13.682970,-3.047619,-12.280624
1008.964844,-10.402243,-7.776727,-7.771574,-13.194232
1008.968750,-9.448560,-7.153804,-14.477384,-9.705089
1008.972656,-0.099742,-9.116567,-7.420559,-15.749811
1008.976562,-8.182586,-15.788065,-14.984627,-7.697881
1008.980469,-10.311894,-8.600310,-14.179692,-12.921117
1008.984375,-5.116777,-0.727412,-14.127147,1.399530
1008.988281,-7.440771,-10.867692,-13.634285,-10.483186
1008.992188,-8.767882,2.380172,1.179341,-7.405746
1008.996094,-7.189373,-1.661173,-6.670790,-2.626535
1009.000000,-3.535800,-1.446993,6.191459,13.675617
1009.003906,8.843080,2.365258,7.836762,-2.046099
1009.007812,-4.562598,2.266139,2.020632,5.496126
1009.011719,4.017141,-5.250962,2.179935,9.179725
1009.015625,6.462389,8.349341,10.447483,5.338272
1009.019531,8.350110,8.987228,6.917880,11.152244
1009.023438,9.413733,14.413308,4.807088,14.182822
1009.027344,9.280096,13.878413,0.438618,8.467213
1009.031250,5.325330,11.136262,13.013073,10.816640
1009.035156,9.968722,3.111859,13.313499,8.949003
1009.039062,3.062088,4.855008,2.618422,4.121621
1009.042969,8.188422,-1.098922,3.551315,1.201678
1009.046875,4.719457,1.601929,6.095347,7.080739
1009.050781,2.526232,-3.880683,-5.081011,-0.649420
1009.054688,-0.792351,-0.063640,0.067658,-4.156646
1009.058594,-5.895753,-3.592662,-6.926562,-2.793728
1009.062500,-7.059625,-5.211503,-12.190005,-15.521812
1009.066406,-6.250239,-15.708169,-9.716455,-4.712827
1009.070312,-6.299064,-8.380623,-19.327031,-9.131582
1009.074219,-12.010697,-14.687612,-7.969723,-2.732280
1009.078125,-15.544729,-11.806143,-15.845378,-21.416629
1009.082031,-11.202738,-12.134777,-1.340838,-9.091518
1009.085938,-0.637299,-15.167539,-8.636480,-13.073915
1009.089844,-10.860013,-5.389478,-6.399861,-4.164537
1009.093750,1.042954,-0.583886,-4.287329,-1.520658
1009.097656,-0.788251,3.257721,-1.832061,-7.642398
1009.101562,-0.575202,3.787059,5.181759,1.938298
1009.105469,-0.950854,2.372975,9.911503,-5.079652
1009.109375,6.352349,1.712499,8.508298,8.038349
1009.113281,15.157049,8.414796,6.596016,11.634322
1009.117188,5.833953,5.221243,-2.158503,8.456699
1009.121094,10.907850,11.606980,6.372718,7.979118
1009.125000,7.395742,8.608793,10.070178,10.633595
1009.128906,11.425400,9.245844,12.295615,8.405283
1009.132812,17.726862,17.071963,3.525907,9.922231
1009.136719,10.644774,10.289227,-1.235275,5.575421
1009.140625,9.643308,5.014575,2.639928,-0.440864
1009.144531,1.744344,7.476991,-1.241717,5.369442
1009.148438,0.481529,0.933037,1.981067,0.156703
1009.152344,-2.091919,-7.536431,-1.064262,3.557205
1009.156250,1.048161,-8.764049,-8.264513,0.478151
1009.160156,1.871335,-2.399108,-1.531525,-4.659360
1009.164062,-9.046689,-12.320479,-8.265423,-6.432107
1009.167969,-6.304912,-6.860536,-14.846045,-5.510964
1009.171875,-8.083452,-13.091993,-11.130246,-12.101143
1009.175781,-11.156697,-9.980530,-4.504292,-8.708788
1009.179688,-12.295422,-8.763485,-11.424143,-8.753338
1009.183594,-7.571979,-9.409338,-12.463806,-9.496593
1009.187500,-15.451416,-9.436928,-2.684894,-0.246496
