timestamp,TP9,AF7,AF8,TP10
1000.000000,-0.617524,-2.529251,-2.596672,7.589153
1000.003906,2.817768,7.864814,4.173183,0.009561
1000.007812,4.817648,12.085499,2.682568,3.142368
1000.011719,11.936641,-0.143973,3.067146,7.154028
1000.015625,6.583579,-0.489720,8.062149,7.613373
1000.019531,8.105282,4.831418,3.630094,11.705441
1000.023438,9.184163,9.625031,12.736462,14.955613
1000.027344,16.145107,6.621134,15.593538,14.845784
1000.031250,17.608649,7.887704,7.091725,9.265420
1000.035156,4.342800,15.150845,5.476139,12.707734
1000.039062,1.169029,-2.954987,4.225091,6.182137
1000.042969,6.834965,5.954534,9.035029,2.745293
1000.046875,-0.676299,-5.480509,-6.488602,3.241091
1000.050781,-2.202677,3.376095,-6.126842,3.544136
1000.054688,-3.330213,1.713373,-5.777725,2.721010
1000.058594,-10.201331,-10.292478,-7.452499,-6.620715
1000.062500,-12.303113,-17.025864,-10.759154,-5.259172
1000.066406,-12.318652,-13.830281,-2.405592,-12.100869
1000.070312,-6.529835,-13.141553,-7.919704,-11.355807
1000.074219,-7.461497,-7.164821,-12.864836,-12.592235
1000.078125,-1.702276,-5.179294,-10.030031,-8.729940
1000.082031,-17.949439,-7.064377,-12.765426,-4.838263
1000.085938,-9.783501,-10.638068,-5.500909,-11.051630
1000.089844,-5.325730,-0.331323,-2.750467,-12.264521
1000.093750,5.535547,0.296918,-1.039210,-4.078480
1000.097656,2.572228,-7.334789,2.381993,-0.421879
1000.101562,3.712054,4.877547,1.408396,0.024930
1000.105469,12.173876,8.247632,3.636206,4.436195
1000.109375,6.774868,2.313530,5.983735,11.720590
1000.113281,-1.869599,7.489571,3.901943,0.616799
1000.117188,9.900401,3.217984,7.753437,3.166805
1000.121094,12.275447,19.514687,17.564973,9.958640
1000.125000,5.996690,12.973882,9.029918,9.109223
1000.128906,15.844905,11.386127,9.573476,5.086153
1000.132812,11.262873,10.002012,4.041604,9.750563
1000.136719,6.328951,9.952857,6.508382,10.789332
1000.140625,5.843790,9.107490,4.680759,4.957340
1000.144531,2.212484,0.545292,6.648086,3.247710
1000.148438,3.763972,-4.624833,3.186620,10.072762
1000.152344,6.624324,6.333014,-0.193251,-4.856106
1000.156250,-3.743401,-3.728639,2.898444,-8.192679
1000.160156,-11.288348,-8.160185,-13.536140,-4.444759
1000.164062,-12.192068,-7.162251,-8.745524,0.945749
1000.167969,-8.595133,-9.029212,-13.103573,-14.274970
1000.171875,-7.050616,-5.246393,-14.774525,-13.667481
1000.175781,-6.502007,-2.135899,-8.726372,-12.160578
1000.179688,-4.948775,-12.453652,-13.277338,-17.890032
1000.183594,-5.264265,-10.769992,-13.503084,-6.127856
1000.187500,-9.089258,-7.442861,-1.199285,-4.307157
1000.191406,-5.951622,-7.011710,-7.981572,-4.499223
1000.195312,-12.168122,-5.171172,3.414515,6.568074
1000.199219,2.944383,-2.106774,1.247228,4.147648
1000.203125,4.609389,6.384641,3.444560,-6.331958
1000.207031,7.696228,9.658261,9.510698,4.407981
1000.210938,3.666965,6.899486,5.340490,5.214011
1000.214844,-0.485077,7.206126,5.165577,11.895942
1000.218750,10.999425,8.095300,16.127686,5.471786
1000.222656,18.153079,10.261353,11.895331,6.459601
1000.226562,14.852746,8.758712,7.887897,4.367592
1000.230469,7.744246,11.063184,3.508809,8.463014
1000.234375,3.307330,8.898690,15.764987,1.771438
1000.238281,-2.358535,13.144716,1.314497,8.606220
1000.242188,0.544865,3.023271,7.680661,3.212165
1000.246094,4.768094,0.324824,0.771224,1.484984
1000.250000,-0.682682,6.400518,2.235758,-2.861089
1000.253906,4.891894,-2.903332,-7.939630,7.760259
1000.257812,-5.179668,-6.166033,-3.595100,-5.676995
1000.261719,-7.049508,-3.136126,-0.979667,-12.688654
1000.265625,-5.811780,-8.891308,-14.505076,-4.363146
1000.269531,-11.954758,-4.117724,-7.156583,-7.910334
1000.273438,-12.834888,-10.235965,-14.304516,-5.350999
1000.277344,-12.081608,-13.011910,-16.864911,-12.016425
1000.281250,-14.649418,-13.417285,-12.993187,-4.985405
1000.285156,-7.820122,-15.143126,-9.257250,-5.146760
1000.289062,-14.907043,-4.900350,-1.811738,-11.573918
1000.292969,-3.208412,-8.134513,-5.955741,-4.917260
1000.296875,-5.042333,-0.297707,2.917870,-6.196593
1000.300781,0.807609,-5.754765,-1.703771,1.910802
1000.304688,7.704949,-2.259069,1.566781,0.289754
1000.308594,5.724745,1.494718,3.121280,6.892752
1000.312500,10.543682,7.645702,6.537720,12.230490
1000.316406,5.495196,3.217704,13.077367,12.769633
1000.320312,8.001661,8.751687,4.208507,7.975180
1000.324219,14.021565,12.372947,10.752865,14.443807
1000.328125,7.045194,10.301764,2.960810,12.260006
1000.332031,5.283809,9.952778,11.927024,10.029983
1000.335938,7.903729,4.379688,18.339366,7.299402
1000.339844,5.782057,0.665475,1.215846,-0.555733
1000.343750,6.869763,3.852122,0.287875,3.889002
1000.347656,3.133457,-1.621572,-3.445824,-0.003865
1000.351562,5.819732,1.192467,5.417598,2.140337
1000.355469,-6.583216,-5.523037,-3.522987,-6.078496
1000.359375,-1.407205,-2.202277,-5.267192,-3.756533
1000.363281,-5.724153,-10.265576,-9.457749,-11.128798
1000.367188,-4.872124,-10.120543,-10.853175,-6.621841
1000.371094,-11.627239,-12.323514,-13.655191,-3.243740
1000.375000,-12.444119,-4.938219,-10.229405,-10.505681
1000.378906,-4.480770,-17.500612,-13.677952,-4.909619
1000.382812,-17.101752,-9.842769,-7.721898,-17.278101
1000.386719,-9.685886,-11.799786,-8.269694,-11.008618
1000.390625,-7.069770,-7.620734,-5.046630,-6.393648
1000.394531,-2.371680,-9.436454,-0.200108,4.281469
1000.398438,-3.243259,6.695482,2.815136,0.320187
1000.402344,3.275944,0.221511,7.276351,3.591853
1000.406250,7.999798,5.451982,6.259096,1.202095
1000.410156,2.597818,5.246692,7.900913,9.872916
1000.414062,12.971406,11.790068,3.659797,17.637605
1000.417969,8.541271,12.367789,2.454347,13.474162
1000.421875,11.844867,3.637731,-1.390227,6.473493
1000.425781,15.800560,10.270020,10.114474,14.115557
1000.429688,4.984275,7.198696,9.322932,2.050491
1000.433594,9.774272,12.120077,10.579156,10.968469
1000.437500,8.979502,4.729569,9.430974,6.443287
1000.441406,1.941616,-4.539870,6.627555,7.066853
1000.445312,-5.631595,5.498465,5.367272,0.228543
1000.449219,5.977425,6.139714,-1.980072,9.249051
1000.453125,-5.167287,-10.172458,0.613747,-3.443883
1000.457031,-4.921132,-3.186069,-4.864741,-8.568691
1000.460938,-4.657345,0.189494,-6.634698,-4.255933
1000.464844,-11.277577,-13.694908,-4.170037,5.171613
1000.468750,-3.238448,-3.662273,-6.738740,-10.471368
1000.472656,-10.011285,-9.727646,-6.463062,-9.253552
1000.476562,-10.728224,-8.414988,-14.919358,-9.670838
1000.480469,-7.923943,-14.520659,-8.269170,-4.238413
1000.484375,-12.843848,-4.439386,-10.274164,-10.650310
1000.488281,-9.100595,-5.234019,-4.287904,-11.911270
1000.492188,-2.620920,3.757221,-4.944140,-6.313229
1000.496094,-5.574268,-3.525579,-0.262953,-1.305820
1000.500000,-3.701072,-5.782246,-3.485876,-0.389423
1000.503906,-5.722506,3.875576,2.839333,-0.472988
1000.507812,6.042059,8.916719,3.620899,7.949089
1000.511719,2.147914,4.109313,7.127070,9.324478
1000.515625,10.441240,7.441767,12.410376,7.004812
1000.519531,11.676812,13.541229,4.386209,9.521064
1000.523438,10.999692,9.331864,4.195109,3.046965
1000.527344,11.197427,9.425393,13.139865,13.153763
1000.531250,6.941136,2.133780,4.694155,9.540761
1000.535156,-0.878958,0.826588,7.426124,4.849225
1000.539062,7.922082,13.693783,14.331932,12.993136
1000.542969,2.725601,2.148550,8.115234,-0.653473
1000.546875,9.230633,-1.289889,0.674981,4.916822
1000.550781,-6.407443,0.764740,-1.711596,-1.531982
1000.554688,-7.233853,1.956518,-4.960088,-0.639093
1000.558594,-1.346424,-5.695040,-9.727760,-1.445667
1000.562500,-18.465868,-10.701111,-3.391659,-4.202699
1000.566406,-10.283240,-6.460682,-13.593588,-6.140223
1000.570312,-6.042718,-4.820532,-10.892840,-7.791829
1000.574219,-9.716780,-5.296211,-5.166749,-11.488878
1000.578125,-8.723857,-12.273660,-14.537348,-18.104061
1000.582031,-9.934482,-11.487847,-11.694468,-11.516155
1000.585938,-1.539359,-2.960398,-6.455637,-9.347935
1000.589844,-9.302066,-8.531350,-6.944060,-2.220982
1000.593750,-7.948742,-9.227285,-5.968832,-7.871960
1000.597656,-1.517522,9.108706,-4.903279,-0.453825
1000.601562,4.883241,-2.054482,0.354953,0.776756
1000.605469,7.011889,6.269267,-5.786278,3.796903
1000.609375,4.598835,3.292063,8.871351,10.850147
1000.613281,10.748839,16.530775,9.262205,2.056274
1000.617188,6.521186,9.940793,7.389425,6.260342
1000.621094,6.216338,6.843188,2.424762,12.405748
1000.625000,10.201345,1.847349,3.404767,6.653403
1000.628906,5.463070,10.989770,10.814026,16.374132
1000.632812,10.702186,4.795175,4.231962,4.592004
1000.636719,11.257234,5.708717,7.837395,8.401294
1000.640625,5.823101,7.111437,9.229386,6.690180
1000.644531,2.566291,1.223091,1.599894,-1.747786
1000.648438,4.543573,3.906631,6.259254,5.248853
1000.652344,-2.627397,0.829189,-3.169146,-5.414733
1000.656250,-5.845851,-7.325409,-6.809048,2.329283
1000.660156,-9.772759,-1.688437,0.185904,-8.831546
1000.664062,-13.194866,-9.426793,-6.628858,-0.848367
1000.667969,-14.846914,-12.288130,-5.824424,-9.425038
1000.671875,-14.535117,-5.085395,-10.256958,-11.052568
1000.675781,-11.211081,-0.891034,-7.813346,-10.968086
1000.679688,-11.850354,-3.296171,-7.238010,-7.141335
1000.683594,-8.942331,-9.969396,-5.575810,-9.033611
1000.687500,-7.560055,-13.847662,-3.438534,-4.970107
1000.691406,-0.770561,-6.995830,-0.758617,-1.062841
1000.695312,-7.804899,-4.407263,-1.702056,-0.861278
1000.699219,0.718753,2.529072,8.797012,-9.940444
1000.703125,1.369309,-1.008311,1.094130,-6.312276
1000.707031,5.834579,9.625048,2.914810,8.036473
1000.710938,8.386018,1.959691,7.829109,6.936997
1000.714844,1.569243,7.169228,9.164924,9.695522
1000.718750,11.778260,8.906411,4.773105,14.159439
1000.722656,16.570977,4.996248,15.203914,5.409847
1000.726562,6.745681,2.495614,5.978119,14.126841
1000.730469,6.339818,4.323772,7.610447,9.126193
1000.734375,7.160768,9.655965,6.044984,4.535744
1000.738281,7.030230,9.190772,4.086570,10.425642
1000.742188,10.048505,3.475084,6.881974,6.029332
1000.746094,-2.688539,-5.500222,5.414771,4.058376
1000.750000,2.063270,-6.549856,5.014288,2.585866
1000.753906,-0.594127,-4.616493,-3.049762,-4.661751
1000.757812,-5.367954,2.357150,-4.742901,-4.965861
1000.761719,-7.068716,-1.550526,-9.506122,-8.272219
1000.765625,-4.323330,-0.489490,-4.231608,-10.918612
1000.769531,-2.321552,-7.936489,-12.108272,-8.768725
1000.773438,-17.410661,-14.120410,-6.946231,-12.273764
1000.777344,-15.363948,-7.772711,-11.170382,-7.099513
1000.781250,-8.762032,-1.554629,-9.209003,-11.062113
1000.785156,-8.988656,-9.641702,-4.328735,-11.023225
1000.789062,-11.319359,-8.273384,-3.189608,-13.258765
1000.792969,-2.447475,2.379048,-5.252966,-3.916689
1000.796875,-0.339880,-6.778296,3.133126,-5.613320
1000.800781,2.093624,7.366642,-2.245386,-1.245054
1000.804688,0.756694,1.074928,-2.041569,7.019504
1000.808594,5.453006,2.122594,-1.314656,6.011673
1000.812500,5.111610,6.823836,16.659646,13.539795
1000.816406,9.533716,8.255801,5.446443,7.924918
1000.820312,12.025859,8.831918,10.967684,4.005403
1000.824219,11.891071,16.613761,8.524309,15.036926
1000.828125,12.207418,6.011760,4.346552,10.636748
1000.832031,11.441785,4.594385,8.575873,9.137065
1000.835938,9.055826,7.727979,12.563799,14.340880
1000.839844,9.230894,6.596198,2.008200,12.583399
1000.843750,2.236791,3.946664,6.428754,7.577978
1000.847656,0.633174,2.733248,-1.341126,-3.098502
1000.851562,0.766213,-2.967626,4.760460,0.701300
1000.855469,-4.853342,-5.162376,-1.388828,-6.588239
1000.859375,1.648378,-4.723627,-3.846372,-11.423952
1000.863281,4.175033,-3.107149,-6.568434,-10.447270
1000.867188,-19.773754,-10.024667,-0.187583,-13.039890
1000.871094,-6.262331,2.528539,-7.216499,-7.149131
1000.875000,-9.831998,-12.214236,-9.023433,-10.775553
1000.878906,-9.749308,-16.028011,-5.639678,-13.985624
1000.882812,-6.587919,-16.612372,-9.974681,-2.933903
1000.886719,-7.928930,-9.283262,-5.247454,-8.755275
1000.890625,-7.322013,-8.673628,-5.993826,-5.224078
1000.894531,-6.690969,-5.808184,-0.643928,-6.989681
1000.898438,3.258445,0.498752,1.938636,7.210098
1000.902344,7.319786,8.898859,-5.484390,0.125546
1000.906250,2.550407,6.104660,5.465338,5.204192
1000.910156,5.564703,8.558930,0.844397,4.137453
1000.914062,11.184113,6.625311,14.184931,6.515835
1000.917969,8.795648,-1.006034,7.141244,4.540669
1000.921875,10.619765,14.151708,3.110788,11.673165
1000.925781,4.582525,7.412518,7.548481,13.494508
1000.929688,3.601056,4.826145,13.909860,11.652089
1000.933594,8.439755,11.617678,12.233153,9.676784
1000.937500,2.352931,6.506065,10.672156,11.540931
1000.941406,1.772821,6.676052,3.408998,1.514816
1000.945312,-3.806086,0.429949,-0.884836,2.332134
1000.949219,3.877508,1.736186,-2.614655,0.321834
1000.953125,-6.040112,-0.160415,-6.990938,-12.231591
1000.957031,-4.293568,-4.504471,-2.061691,-4.667356
1000.960938,-9.936181,-10.946096,-9.753774,-6.691280
1000.964844,-6.066094,-9.504502,-9.141537,-8.216370
1000.968750,-10.000069,-13.102232,-3.936037,-10.587514
1000.972656,-10.515246,-9.491613,-6.345693,-8.832360
1000.976562,-5.419574,-18.155009,-13.263549,-14.440123
1000.980469,-9.849153,-11.055359,-10.308777,-8.683867
1000.984375,-3.837279,-1.780946,-5.079885,-0.192573
1000.988281,-5.401519,-6.301254,-3.534908,-4.553681
1000.992188,0.152031,-6.221914,-4.508711,-0.110000
1000.996094,-2.156737,0.671245,-2.614811,-2.017922
1001.000000,-7.247495,2.580240,2.426712,2.032041
1001.003906,-3.043642,-0.785582,0.015477,4.710024
1001.007812,1.085752,4.874106,2.949841,4.964077
1001.011719,1.916480,3.229919,5.320126,5.868666
1001.015625,3.799999,6.241960,3.682684,8.367138
1001.019531,9.183352,1.806959,12.575226,12.225895
1001.023438,7.643246,13.077849,4.332154,8.862844
1001.027344,6.166082,9.552698,9.015345,10.743915
1001.031250,10.436695,7.119266,17.727567,10.420893
1001.035156,10.705308,1.767998,10.720534,8.504879
1001.039062,4.682873,4.189583,-0.185859,7.232238
1001.042969,6.200308,7.690592,4.096563,5.691058
1001.046875,6.300586,5.118941,3.051380,1.265662
1001.050781,-2.344959,3.825027,0.233659,-4.398732
1001.054688,4.245615,-1.489547,-1.204612,1.464522
1001.058594,-6.657330,-1.821939,-1.646519,-1.829345
1001.062500,-12.624609,-10.440299,-7.344712,-3.827604
1001.066406,-12.421366,-10.411860,-11.013809,-8.312221
1001.070312,-14.723542,-10.024116,-6.904631,-5.631105
1001.074219,-14.440917,-8.705312,-17.659826,-11.293206
1001.078125,-13.649141,-23.953780,-10.626931,-14.257403
1001.082031,-11.534531,-15.165931,-4.797327,-14.504310
1001.085938,-3.693011,-8.801199,-8.672169,-6.476063
1001.089844,-1.693700,-2.311426,-1.256410,-9.944054
1001.093750,-8.950332,-5.875898,-6.519455,-1.499725
1001.097656,1.111221,-8.526757,5.045603,-3.637651
1001.101562,8.944911,-1.179770,-5.987146,0.807648
1001.105469,5.568575,5.428398,-3.316951,0.509391
1001.109375,7.246093,7.415751,2.534218,7.973121
1001.113281,3.787672,13.273108,8.695966,11.781566
1001.117188,8.780015,5.311272,15.879160,5.687180
1001.121094,6.444473,6.846437,2.493926,10.164222
1001.125000,7.875065,7.779197,1.827484,10.287215
1001.128906,7.466498,5.845480,12.348672,9.698881
1001.132812,10.521842,10.724198,14.580916,12.759346
1001.136719,7.160025,5.872334,1.926234,7.134606
1001.140625,7.890300,7.172564,4.759517,12.280915
1001.144531,1.289888,2.147647,-3.945815,-0.472680
1001.148438,1.333648,-4.834376,4.534111,-4.170726
1001.152344,0.260074,-1.632688,-10.567113,-5.020672
1001.156250,-1.595661,-7.656444,-4.572678,-0.783021
1001.160156,-6.652991,-11.714144,-10.379213,-8.277526
1001.164062,-7.992304,-6.562126,-5.658443,-3.269852
1001.167969,-12.369144,-2.074950,-7.518541,-8.661062
1001.171875,-13.104197,-9.326263,-15.785907,-11.465040
1001.175781,-8.375720,-5.410379,-9.784301,-13.132961
1001.179688,-11.991376,-12.019125,-15.072346,-10.706104
1001.183594,-6.163566,-10.081325,-9.412846,-3.462501
1001.187500,-2.613585,-3.152490,-7.271633,-2.838355
1001.191406,-4.190900,-6.395484,-4.808807,-12.364633
1001.195312,1.304675,-7.566089,2.879114,5.124899
1001.199219,-3.511138,-1.957831,-2.463048,-3.017408
1001.203125,1.845276,0.074602,5.159665,-3.928817
1001.207031,5.419034,1.535653,3.592509,4.281434
1001.210938,1.615064,6.752297,10.740180,3.646930
1001.214844,11.081862,2.871971,-1.184374,7.407796
1001.218750,2.298791,7.216243,5.025951,10.580400
1001.222656,7.525169,12.741062,8.104204,13.805106
1001.226562,10.497262,11.051055,9.120361,7.648995
1001.230469,8.050005,10.528863,11.747234,9.302735
1001.234375,8.153078,14.593161,-3.781366,6.721836
1001.238281,5.602896,6.772237,6.286956,10.248872
1001.242188,6.866084,8.865694,14.674523,2.967589
1001.246094,4.364758,4.532288,3.483863,-2.409844
1001.250000,-7.733909,2.057509,0.940421,-2.180869
1001.253906,0.032610,-7.758596,-4.113950,-8.215354
1001.257812,-4.231543,-4.211816,-2.825215,-7.417091
1001.261719,-11.169667,-6.441808,-8.278834,-9.924172
1001.265625,-8.222305,-10.514507,-9.485040,-8.386534
1001.269531,-13.280101,-7.512834,-12.993989,-6.698348
1001.273438,-9.578306,-12.256878,-12.511249,-14.898095
1001.277344,-10.165364,-4.776415,-4.050031,-11.391535
1001.281250,-7.497267,-8.945437,-9.720861,-13.013570
1001.285156,-6.360845,-6.712732,-7.493463,-7.585723
1001.289062,-8.043572,-3.015430,-3.758357,-1.300977
1001.292969,-6.295275,-8.207805,-8.727214,-5.903703
1001.296875,-4.843133,-3.196575,4.246391,0.090506
1001.300781,2.707382,-0.492625,1.270262,4.917126
1001.304688,2.302955,-2.901040,7.488268,7.830757
1001.308594,2.636259,5.039342,-3.331918,9.950348
1001.312500,4.794409,8.517087,5.109789,9.870786
1001.316406,8.981077,9.594084,7.283039,13.604049
1001.320312,0.198308,9.943667,8.867270,12.628311
1001.324219,11.437526,8.096509,14.662604,10.956800
1001.328125,13.710090,16.292027,7.207308,13.088054
1001.332031,9.648457,9.235339,14.696780,9.398615
1001.335938,0.410099,10.007818,9.072616,5.158764
1001.339844,12.602804,-0.140451,1.945663,8.768339
1001.343750,2.673922,-1.674771,7.369420,7.611279
1001.347656,-6.959855,-1.335020,0.858032,3.126632
1001.351562,-8.402721,-3.015985,0.057971,0.767401
1001.355469,0.406137,0.657941,-12.763288,-1.509922
1001.359375,-7.801849,-4.215052,1.231986,-0.697997
1001.363281,-2.667320,-3.034734,-5.920069,-5.997920
1001.367188,-5.571422,1.514207,-3.465010,-5.760367
1001.371094,-9.595840,-2.736151,-3.776379,-10.627594
1001.375000,-13.063131,-10.998607,-2.611458,-9.626283
1001.378906,-15.722987,-5.537586,-9.023435,-7.144003
1001.382812,-9.186647,-6.359761,-7.099759,-6.540972
1001.386719,-15.264206,-8.221972,-0.655243,-6.967473
1001.390625,-2.643528,-7.822309,-6.612723,-3.235646
1001.394531,1.650034,-9.283893,-4.453205,-5.246153
1001.398438,-0.791402,1.935465,-2.033073,0.381436
1001.402344,0.283283,-1.389439,-2.378301,-4.507689
1001.406250,1.075730,4.902075,-3.959379,5.783654
1001.410156,1.707635,9.589947,6.795515,0.170746
1001.414062,15.889167,9.428550,1.868080,6.784793
1001.417969,6.267706,11.186569,6.543699,10.985947
1001.421875,14.280709,1.490874,-0.100817,12.488086
1001.425781,13.509842,8.895032,7.487383,5.388484
1001.429688,15.346578,4.377502,8.808129,15.247498
1001.433594,5.471873,11.512953,10.029661,10.575176
1001.437500,9.654584,6.347052,6.225779,6.923831
1001.441406,8.068639,3.079683,1.073726,0.383392
1001.445312,8.323770,9.664080,0.686088,2.779876
1001.449219,0.355200,-0.514396,7.872345,2.869892
1001.453125,0.419730,-0.315225,-2.666768,-13.797714
1001.457031,3.189492,-6.526881,0.184831,-2.087484
1001.460938,-6.772440,-2.866687,-4.305751,-0.570851
1001.464844,-15.659370,-7.139466,-5.884117,-4.796962
1001.468750,-12.019415,-10.844536,-9.184752,-13.061118
1001.472656,-13.049095,-5.687395,-7.763915,-15.319733
1001.476562,-9.498111,-9.733139,-10.604844,-8.246078
1001.480469,-11.944547,-3.016117,-7.758706,-5.138561
1001.484375,-6.228838,-5.568351,-8.680119,-3.262256
1001.488281,-5.902125,-6.749261,-5.027383,-7.220860
1001.492188,-0.385215,-9.074137,-5.700685,-5.018058
1001.496094,-1.288512,-5.394839,-3.111665,-5.653767
1001.500000,3.891654,-0.561198,-4.933255,-1.728564
1001.503906,5.522805,12.814205,1.966520,6.459269
1001.507812,12.885501,2.830576,4.388334,3.634027
1001.511719,5.577339,9.844673,3.546129,18.059609
1001.515625,14.739286,14.059158,5.971653,11.464604
1001.519531,8.950390,3.386838,9.231714,12.508460
1001.523438,13.707556,8.533351,4.997039,17.097649
1001.527344,15.993481,6.541401,8.497573,6.469755
1001.531250,4.955929,10.098504,11.153365,12.594795
1001.535156,1.851342,6.942207,4.662081,1.228799
1001.539062,9.649048,7.176387,15.702800,7.254804
1001.542969,-0.321352,-4.773479,4.679647,-2.728696
1001.546875,2.393120,0.525667,-1.451949,-4.531671
1001.550781,-5.746491,-2.951057,-6.722079,1.767487
1001.554688,-3.359726,6.430524,-2.133520,-2.191120
1001.558594,-8.629375,-6.064803,-14.276350,-10.364244
1001.562500,-9.842389,-7.998818,-7.570782,-12.753548
1001.566406,-11.547288,-10.264462,-7.428056,-16.245585
1001.570312,-11.993493,-5.840532,-11.954184,-16.220088
1001.574219,-11.008855,-16.270911,-14.524202,-4.564696
1001.578125,-8.213348,-16.163380,-13.178723,-3.734084
1001.582031,-13.572124,-12.682415,-13.808265,-11.076919
1001.585938,-6.453434,-13.285642,-8.880619,1.130094
1001.589844,-9.029767,-6.906013,-11.464153,1.141738
1001.593750,-11.580561,-2.785921,-4.138939,-1.163152
1001.597656,7.040363,-7.404185,-4.628432,-0.508353
1001.601562,-0.447426,3.689225,7.716773,6.648874
1001.605469,5.435792,2.899667,3.675354,1.145951
1001.609375,15.610823,6.661115,4.122916,1.043646
1001.613281,7.275549,8.879000,7.398496,2.790583
1001.617188,7.500677,5.230638,14.548155,11.035873
1001.621094,2.973173,4.370795,17.465837,11.762588
1001.625000,11.615449,11.121657,6.650350,10.978080
1001.628906,9.001152,7.072363,13.333180,11.132927
1001.632812,-0.299236,4.415278,4.804177,14.497999
1001.636719,5.291119,8.736518,3.010360,3.994757
1001.640625,4.293021,3.765931,1.167990,1.852453
1001.644531,2.580281,4.669978,6.805016,5.518380
1001.648438,2.112719,1.845996,0.864743,-0.830023
1001.652344,-8.136288,-4.240729,1.832988,0.800550
1001.656250,-3.207821,-2.192044,-2.740025,-1.818670
1001.660156,-8.385572,-4.467785,-6.451533,-5.807409
1001.664062,-6.072419,-9.571532,-5.478440,-12.797197
1001.667969,-12.896621,-7.610263,-7.435263,-4.591844
1001.671875,-9.951239,-12.924245,-11.398557,-9.564098
1001.675781,-11.970624,-4.124453,-13.757798,-14.142064
1001.679688,-13.017809,-10.614060,-4.662688,-7.586430
1001.683594,-11.396957,-11.821559,-13.760366,-16.255440
1001.687500,-6.236227,-5.334729,-9.624827,-7.090253
1001.691406,3.543595,-4.189839,-9.755657,-9.475717
1001.695312,-0.147046,3.449674,-8.008251,-7.328728
1001.699219,-2.912383,-8.372764,1.646127,4.076468
1001.703125,0.922681,5.364122,-2.004094,3.336219
1001.707031,-0.077730,4.114176,9.682416,-2.895786
1001.710938,3.529836,-0.844130,7.601330,7.628403
1001.714844,8.401869,3.974454,5.687571,7.619430
1001.718750,7.915901,4.786953,10.914293,10.757738
1001.722656,8.126354,3.892907,12.686328,10.631220
1001.726562,1.154847,2.966734,7.412864,9.020467
1001.730469,8.791607,7.443358,14.324827,17.262475
1001.734375,3.280908,13.473620,8.094893,4.777495
1001.738281,9.624722,7.896929,9.774448,1.991052
1001.742188,14.035279,5.858828,0.218065,0.245159
1001.746094,7.490034,1.129489,-1.409184,13.197035
1001.750000,0.010996,-6.620709,0.590950,1.648001
1001.753906,0.617840,4.000207,-1.884330,-0.633944
1001.757812,3.659692,-3.902344,-16.032602,-3.421824
1001.761719,-10.229356,2.149539,-1.906494,-12.643402
1001.765625,-6.753481,-11.836851,-7.267895,-10.698930
1001.769531,-9.248632,-8.997939,-8.116504,-7.890330
1001.773438,-5.995666,-6.582725,-11.365565,-9.006660
1001.777344,-12.300344,-16.603868,-17.017225,-14.878200
1001.781250,-1.907308,-11.812112,-6.262359,-10.846989
1001.785156,-9.007235,-10.060050,-5.074296,-6.526223
1001.789062,-1.216288,-2.270363,1.324255,-4.301407
1001.792969,1.159601,-2.802702,-9.791247,-3.449629
1001.796875,-11.414575,-6.232015,0.897737,-7.486379
1001.800781,-5.969253,-0.756623,5.277381,0.898964
1001.804688,-0.035482,5.051501,-0.793490,6.117277
1001.808594,2.052335,2.221682,7.532692,-0.115568
1001.812500,9.088143,5.647011,8.690094,5.269962
1001.816406,5.324092,11.107500,7.618932,9.911994
1001.820312,10.276671,10.686292,10.276764,10.278551
1001.824219,8.786620,8.613834,17.923528,8.107430
1001.828125,1.353933,10.882569,7.490469,6.687632
1001.832031,14.714926,10.458146,14.086467,-2.180034
1001.835938,9.956459,7.215078,12.838327,6.343816
1001.839844,10.402436,9.210032,7.955436,11.991954
1001.843750,1.067666,8.370840,7.357029,2.681061
1001.847656,2.612404,1.987472,-8.067340,-0.641176
1001.851562,-2.290440,-3.904708,5.144914,-5.011305
1001.855469,-7.667222,-1.503950,-4.978618,-3.605007
1001.859375,-11.995759,-5.048664,-6.318363,-12.089973
1001.863281,-12.872399,-1.789807,-4.401306,-4.446793
1001.867188,-13.311317,-7.081596,-17.259746,-9.130897
1001.871094,-13.148825,-4.673452,-2.595288,-12.813681
1001.875000,-3.804326,-16.576802,-11.504082,-3.360490
1001.878906,-8.250414,-16.476413,-8.213830,-9.497542
1001.882812,-10.379923,-10.790188,-10.600295,-13.756290
1001.886719,-7.496263,-10.004135,-17.000836,-8.095561
1001.890625,-5.645802,-6.185429,-4.897829,0.997985
1001.894531,-5.717128,-14.107224,-6.028326,-7.366638
1001.898438,0.061506,-0.709843,-3.663113,-3.069400
1001.902344,3.113318,-0.838368,10.236882,-2.493998
1001.906250,0.576443,5.739804,-0.515351,-2.279507
1001.910156,4.920459,6.627244,4.940044,-0.058324
1001.914062,6.533538,11.957622,7.732566,6.142958
1001.917969,10.775227,5.533144,16.536077,7.792233
1001.921875,7.477997,11.856505,5.434245,15.609521
1001.925781,12.722952,9.782483,9.355036,8.694426
1001.929688,7.800694,12.061164,9.277786,13.707762
1001.933594,8.880247,12.265172,5.495124,10.760128
1001.937500,12.234446,7.852813,7.933887,7.790744
1001.941406,3.338435,1.003012,-5.403916,3.901184
1001.945312,-3.008085,0.175686,1.953540,0.554050
1001.949219,8.719348,-3.662434,0.590968,-3.961080
1001.953125,-2.025627,-3.618037,5.445507,0.034017
1001.957031,-6.696585,-5.349112,-0.243807,-12.366620
1001.960938,-3.782987,-0.711972,-11.376878,-1.829153
1001.964844,-9.600513,-7.015558,-7.969414,-17.088663
1001.968750,-9.269329,-12.080165,-14.768596,-10.781168
1001.972656,-5.659402,-5.916317,-12.564262,-7.699202
1001.976562,-10.580363,-10.624315,-5.958957,-5.643151
1001.980469,-15.974113,-6.876349,-9.682680,-10.191680
1001.984375,-4.798173,-14.361067,-3.463157,-8.964574
1001.988281,-5.648831,-3.624303,-15.254840,-11.999816
1001.992188,-10.919813,-7.867636,-12.004693,-7.825996
1001.996094,-1.867111,-0.362221,-2.886387,-8.390419
1002.000000,4.054857,-2.654129,-1.064856,5.660514
1002.003906,-2.228550,6.204521,0.314369,2.843345
1002.007812,0.271890,1.337567,2.641080,4.871978
1002.011719,7.592626,14.388521,5.053189,13.716329
1002.015625,4.051209,10.964601,7.029554,16.317484
1002.019531,11.147824,8.436334,1.695580,8.862190
1002.023438,1.411873,11.105033,12.790004,6.898790
1002.027344,9.686822,7.608949,6.387079,11.698170
1002.031250,6.457784,5.986167,0.718072,12.018537
1002.035156,2.663061,8.394031,6.944842,10.650560
1002.039062,7.868916,7.236855,7.196630,11.049430
1002.042969,7.116759,3.854144,1.311012,3.895729
1002.046875,-0.897553,-0.753888,1.608893,-0.946282
1002.050781,1.764225,-6.100743,-1.246630,0.669407
1002.054688,-3.332774,-6.060189,-5.903946,-1.859191
1002.058594,0.709007,-10.241677,-4.823991,-7.725680
1002.062500,-12.802819,-6.408517,-13.361421,-4.960565
1002.066406,-8.715685,-12.962866,-5.463395,-10.873811
1002.070312,-12.210854,-9.313992,-3.803596,-10.751503
1002.074219,-10.655834,-5.786156,-9.465962,-16.346139
1002.078125,-7.988171,-4.981049,-10.109135,-9.627329
1002.082031,-16.432987,-3.403933,0.709716,-11.384174
1002.085938,-3.982789,-8.852590,-11.079301,-13.396336
1002.089844,-3.515632,-4.253585,-10.408711,-9.321630
1002.093750,-5.505849,-3.244343,1.525757,2.789957
1002.097656,1.556895,6.963175,-6.974768,-4.318807
1002.101562,0.964808,-1.910719,3.973242,-5.324976
1002.105469,-0.541382,5.927909,6.666560,7.393686
1002.109375,7.093455,4.190382,8.320666,1.544537
1002.113281,0.625055,0.087912,7.314141,9.468993
1002.117188,10.543014,10.259294,10.215785,8.661400
1002.121094,16.200361,5.243620,10.609013,7.027742
1002.125000,4.408222,4.525460,14.463887,10.762163
1002.128906,9.957069,10.985793,10.449307,9.677816
1002.132812,8.204552,14.185385,8.180325,6.739153
1002.136719,5.847988,6.613499,3.155145,10.357922
1002.140625,6.281479,4.886685,0.047079,2.556852
1002.144531,6.996756,2.986440,5.770265,1.261023
1002.148438,-1.233783,0.434907,-3.193554,-1.844631
1002.152344,-1.432837,-7.321545,-0.098125,-4.359122
1002.156250,-7.718261,-5.881963,-9.189156,-7.209618
1002.160156,-8.057619,-6.693621,-9.948742,-3.530793
1002.164062,-5.915844,-10.044384,-4.535723,-13.886779
1002.167969,-11.178319,-11.327514,-11.525945,-17.000731
1002.171875,-6.895954,-11.307857,-3.297941,-6.624670
1002.175781,-9.890845,-8.095042,-9.393085,-5.292295
1002.179688,-8.434522,-13.296300,-0.440273,-6.019035
1002.183594,-8.409369,-13.980869,-10.035680,-6.592569
1002.187500,-1.408572,-2.184354,-4.749839,-3.348015
1002.191406,-6.432053,-2.790905,-12.715750,-8.177370
1002.195312,0.455253,2.155616,-4.834249,-0.065191
1002.199219,-0.084226,2.314028,6.606869,-2.805530
1002.203125,-4.735519,4.913629,3.008424,2.222499
1002.207031,3.253307,7.726171,-2.586850,7.251702
1002.210938,7.490945,-1.073868,10.484367,2.000827
1002.214844,8.382850,8.094296,3.883791,4.729211
1002.218750,14.645481,10.871419,5.172696,14.462400
1002.222656,16.638487,2.221177,8.016719,13.640814
1002.226562,11.445437,13.738454,12.405741,8.945552
1002.230469,17.654484,12.309747,3.952784,14.024065
1002.234375,10.717849,10.302264,0.678584,7.270048
1002.238281,0.902762,15.749607,7.008334,5.066456
1002.242188,-3.692353,0.216458,-3.762480,10.986220
1002.246094,-3.877814,5.183063,-0.391234,1.609863
1002.250000,-1.714325,-6.495426,2.096040,0.314549
1002.253906,-11.923054,-5.477688,-9.091766,-11.221386
1002.257812,-5.471420,-0.062307,-1.010217,-1.170258
1002.261719,-6.346339,-9.312714,-15.694896,-9.495911
1002.265625,-8.537862,-13.593509,-5.542377,-9.906236
1002.269531,-5.940993,-2.108375,-11.657920,-14.235354
1002.273438,-10.542402,-14.430407,-12.035504,-3.330746
1002.277344,-10.988602,-7.140923,-6.360267,-14.171385
1002.281250,-3.139911,-12.008359,-10.145550,-5.499987
1002.285156,-4.013402,-3.267372,-12.216427,-3.188958
1002.289062,-7.957135,-8.268221,-9.482664,-1.318435
1002.292969,-7.443685,-1.662184,-8.141000,-4.290951
1002.296875,-1.432021,2.212308,-1.237461,1.913515
1002.300781,4.131312,-9.854943,0.101130,0.954114
1002.304688,5.299261,5.284916,8.275305,1.908696
1002.308594,12.073454,4.929647,8.224745,1.639111
1002.312500,11.190677,14.670657,-0.342795,0.878400
1002.316406,9.186630,10.834500,2.771189,5.226117
1002.320312,12.901046,10.773124,7.411561,2.602717
1002.324219,9.388485,2.096852,6.105708,11.384716
1002.328125,8.790430,8.588973,8.849432,8.136457
1002.332031,10.353063,12.570614,11.158699,12.315672
1002.335938,12.841920,9.469257,4.406806,5.980241
1002.339844,7.095123,7.798601,2.275803,2.420119
1002.343750,-0.710525,-7.647574,3.641238,3.947262
1002.347656,1.482400,5.757555,6.738531,2.052061
1002.351562,2.655101,0.786939,0.837788,1.847942
1002.355469,-7.988549,-3.731793,-0.839237,-0.123994
1002.359375,-9.284992,-5.159436,-1.506929,-5.833798
1002.363281,-10.754664,-9.125049,-5.397106,-0.311048
1002.367188,-1.190035,-8.114407,-8.710435,-7.713422
1002.371094,-10.327124,-7.108549,-2.865371,-13.228271
1002.375000,-12.334745,-5.167554,-8.426099,-10.132369
1002.378906,-7.613820,-14.273211,-10.070139,-11.020794
1002.382812,-7.429629,-6.709159,-12.079779,-10.001041
1002.386719,-14.129202,-5.262113,-7.948383,-3.779739
1002.390625,-2.641363,-2.242148,-3.421199,-11.548461
1002.394531,-4.866806,2.046275,-3.045496,-2.045610
1002.398438,-2.495767,3.026901,3.721215,-1.130798
1002.402344,-2.971298,-5.592063,6.475345,-0.140343
1002.406250,5.153577,3.457219,13.129381,-0.359962
1002.410156,8.859903,13.736672,13.501705,5.357287
1002.414062,13.285978,6.090406,2.431309,8.555917
1002.417969,1.723407,14.822657,13.044406,9.008440
1002.421875,7.873230,15.846466,13.884149,14.215226
1002.425781,10.521228,5.220486,7.428529,12.586251
1002.429688,4.227575,6.925548,2.377343,10.626484
1002.433594,5.327876,10.144888,2.838379,9.141185
1002.437500,0.523873,5.270195,5.050089,0.500188
1002.441406,5.109678,3.414942,10.266355,10.440938
1002.445312,11.234327,5.777958,3.003782,3.602273
1002.449219,-4.417907,-7.593948,3.107658,-1.565478
1002.453125,-2.639428,-7.876788,3.248572,-13.383326
1002.457031,-9.423221,-6.360898,-4.702312,-3.606873
1002.460938,-12.698030,0.237248,-4.194473,-7.970480
1002.464844,-14.412151,-11.187601,-9.719118,-3.025229
1002.468750,-16.202869,-12.466000,-10.585227,-10.047530
1002.472656,-14.571567,-8.336149,-6.250636,-10.428041
1002.476562,-8.771449,-12.185269,-10.332425,-9.753835
1002.480469,-12.100435,-9.649762,-4.893257,-4.911004
1002.484375,-8.360106,-8.000004,0.026000,-7.593377
1002.488281,-9.180045,-3.389848,-8.775827,-9.804915
1002.492188,-5.097095,-7.964596,-4.863367,-6.726838
1002.496094,3.614923,-4.267708,-2.468558,-1.207610
1002.500000,-1.307904,3.969029,-7.523450,-3.112806
1002.503906,6.437960,0.836396,6.854091,0.086166
1002.507812,-3.991703,10.107210,15.126673,0.007371
1002.511719,1.034834,17.336190,1.006238,12.376942
1002.515625,5.521919,-1.265311,6.462710,6.764519
1002.519531,4.040368,10.447281,5.330172,19.770968
1002.523438,15.277358,8.501519,14.410173,20.345469
1002.527344,15.807589,7.270582,4.223375,6.658620
1002.531250,-0.427182,11.921934,14.083734,14.733976
1002.535156,12.427121,1.152801,8.259358,10.015530
1002.539062,5.684152,15.246543,3.674415,7.632187
1002.542969,9.436248,7.414396,2.858764,7.282949
1002.546875,-3.531222,-1.497604,-0.867145,6.781283
1002.550781,-3.590725,-5.096122,4.792594,-7.366559
1002.554688,-4.550583,-2.055786,-12.665202,-4.012855
1002.558594,-7.054967,-6.103422,0.702665,-0.929024
1002.562500,-12.138275,-0.479600,-5.162725,-3.403109
1002.566406,-19.169811,-14.897427,-2.342003,-8.408726
1002.570312,-9.517022,-11.137068,-14.325009,-10.108822
1002.574219,-9.536051,-8.879086,-8.739908,-16.637316
1002.578125,-1.717630,-8.575066,-7.536147,-10.851896
1002.582031,-9.977478,-9.587939,-6.749157,-8.893175
1002.585938,-6.443325,-8.181730,-11.258451,-12.396775
1002.589844,-1.012757,4.114791,-0.761405,-9.536882
1002.593750,-0.319720,-6.407266,-10.992095,-4.266776
1002.597656,1.572558,-3.958074,-1.641077,-5.465750
1002.601562,0.297094,-1.772685,1.731021,1.352448
1002.605469,4.286460,0.701340,0.533481,7.302892
1002.609375,9.714807,2.764756,6.724188,-2.508382
1002.613281,16.530086,4.342397,8.116785,13.219342
1002.617188,4.729449,8.873986,12.987616,11.067626
1002.621094,15.410341,11.315745,6.029523,14.934252
1002.625000,7.871879,11.110498,7.079292,8.316843
1002.628906,15.999012,7.693620,11.169090,9.341888
1002.632812,4.513561,5.993978,8.652262,12.539712
1002.636719,5.844940,3.366656,6.052806,1.708044
1002.640625,8.267700,7.224727,3.901750,4.244801
1002.644531,-1.310974,9.377328,1.456258,2.589511
1002.648438,-4.210366,-3.222575,-1.392428,1.264349
1002.652344,0.361217,2.336458,1.402167,-2.423504
1002.656250,-0.525021,0.886577,-5.912154,1.534505
1002.660156,-10.761976,-12.420542,-8.090029,-6.336048
1002.664062,-5.817985,-10.007045,-12.466974,-6.699320
1002.667969,-12.429211,-11.953138,-2.650880,-10.150797
1002.671875,-9.347381,-10.721277,-3.387694,-5.502480
1002.675781,-13.508408,-10.146275,-5.740386,-3.080335
1002.679688,-18.009700,-12.542319,-11.872155,-3.041540
1002.683594,-6.830594,-11.913490,-13.713969,-12.289591
1002.687500,-4.381990,-12.100660,-2.999775,-8.503581
1002.691406,-6.601341,-5.498602,0.689034,6.316235
1002.695312,3.041307,-3.163508,-5.367144,-4.092368
1002.699219,2.669848,-3.609511,-1.990327,-8.207750
1002.703125,-3.707830,-3.219832,5.286125,3.439187
1002.707031,3.537712,11.839587,7.557367,5.978451
1002.710938,13.233052,7.157666,9.797046,6.397883
1002.714844,2.400057,13.233106,3.686635,10.515925
1002.718750,9.556557,12.954262,20.209807,12.581310
1002.722656,9.123999,1.025791,7.578306,9.444535
1002.726562,12.281434,14.988989,4.903325,16.009817
1002.730469,7.015797,8.936068,5.645818,10.207644
1002.734375,7.718827,8.844040,12.793543,1.996104
1002.738281,3.010672,0.527657,5.198737,3.999230
1002.742188,5.953680,5.625002,3.970586,13.014431
1002.746094,-4.414586,0.769553,5.252276,1.375838
1002.750000,-2.429415,6.045495,2.194895,-4.691622
1002.753906,-8.365441,-2.194655,-2.951191,-6.826542
1002.757812,0.252780,-11.817203,-6.231569,0.869056
1002.761719,-1.763249,-3.027608,0.186567,-15.185858
1002.765625,-3.667636,-7.954300,-7.081006,-7.701535
1002.769531,-15.671788,-13.594668,-7.385478,-7.043994
1002.773438,-7.622388,-9.509681,-8.767310,-7.553335
1002.777344,-14.287613,-13.573904,-15.164556,-13.098573
1002.781250,-4.816552,-11.973749,-4.694337,-6.941362
1002.785156,-5.894121,-4.145461,-14.097629,-3.422251
1002.789062,-0.263270,-6.279348,-5.166372,-5.777284
1002.792969,-4.234932,-6.977077,-8.353622,-6.643762
1002.796875,-6.544299,-2.092917,2.849022,-2.956703
1002.800781,5.014224,0.174438,-2.169669,-3.146785
1002.804688,8.325527,-0.357504,5.552014,7.324305
1002.808594,-0.935390,3.885102,-0.585945,10.641534
1002.812500,2.876842,-4.661823,10.389916,7.631449
1002.816406,8.770716,9.695830,3.310046,14.961907
1002.820312,10.071396,12.666491,10.864229,6.439219
1002.824219,10.360239,12.680127,11.165830,2.523563
1002.828125,6.832414,11.466603,6.840564,8.768909
1002.832031,0.050148,7.855649,14.941091,12.987856
1002.835938,7.638890,11.742291,8.333080,10.826387
1002.839844,5.741291,3.097831,8.447451,5.722305
1002.843750,2.465616,6.890134,0.003200,5.512843
1002.847656,0.006294,8.278328,1.457066,4.966118
1002.851562,-6.746790,-1.983420,0.497872,-0.867551
1002.855469,-4.844660,-2.087185,-6.497386,-5.378645
1002.859375,-3.097440,-0.948588,-5.699326,-2.150812
1002.863281,-8.631730,-6.814000,-8.577694,-5.952184
1002.867188,-8.992701,-0.627123,-13.189136,-11.422175
1002.871094,-2.499145,-9.497793,-7.113158,-9.544844
1002.875000,-12.449042,-17.401383,-7.155149,-17.484213
1002.878906,-11.104926,-13.411350,-5.141443,-13.837168
1002.882812,-11.563604,1.498795,-5.251833,-4.567579
1002.886719,0.529897,-7.182060,-9.192028,-1.573907
1002.890625,-0.361638,-2.427270,-2.532020,-5.724666
1002.894531,-6.151736,-3.208954,-7.414144,-1.256923
1002.898438,-4.054023,3.389782,0.685338,-5.575876
1002.902344,4.701356,4.765178,2.663196,0.066139
1002.906250,0.497142,2.172766,5.754658,-3.769105
1002.910156,0.837597,10.652567,9.340424,1.570761
1002.914062,4.171174,-2.919718,17.634080,9.537422
1002.917969,5.471143,11.094777,9.805231,4.167442
1002.921875,6.172231,8.569460,7.120962,18.670505
1002.925781,17.139131,11.411329,10.126182,6.579603
1002.929688,11.067375,5.750847,4.530945,8.967123
1002.933594,9.284334,14.179886,6.663332,4.236640
1002.937500,5.779113,10.676529,8.060188,9.954650
1002.941406,0.986968,11.167450,4.524853,-1.479667
1002.945312,5.227008,2.453902,1.383817,7.450897
1002.949219,2.426533,1.427397,2.409140,-2.181086
1002.953125,4.254784,0.515692,-3.355874,1.760233
1002.957031,2.422330,-6.206220,0.732769,-8.455993
1002.960938,-2.934866,-1.355190,-3.730412,-3.698687
1002.964844,-11.783428,-11.846974,-4.561524,-7.498099
1002.968750,-9.761112,-12.308525,-6.949404,-2.852198
1002.972656,-13.619290,-8.869800,-10.399386,-4.594440
1002.976562,-5.573917,-6.007198,-3.798026,-7.198971
1002.980469,-10.483778,-12.416563,-10.355026,-10.869086
1002.984375,-7.418582,-10.129309,-9.346764,-1.926630
1002.988281,-6.827035,-4.558567,-3.086527,-2.114079
1002.992188,-2.317823,-12.307295,-9.174132,-12.127166
1002.996094,-3.593996,2.640175,3.467281,-10.720785
1003.000000,-5.952195,0.912531,1.431961,-1.730942
1003.003906,6.713140,3.324688,-1.873661,-6.754902
1003.007812,6.356894,9.912990,10.285487,2.940854
1003.011719,10.858777,3.564420,11.704513,5.688825
1003.015625,8.930556,10.483989,12.776302,12.082748
1003.019531,14.162672,9.711088,3.349735,9.680516
1003.023438,9.726328,12.348545,13.932079,17.690300
1003.027344,18.001900,12.324177,12.151680,7.578765
1003.031250,7.438036,9.720569,10.381592,2.622055
1003.035156,14.081026,6.775301,9.448825,9.245690
1003.039062,3.472515,7.718688,2.115141,1.022887
1003.042969,1.204429,6.968955,4.239125,13.674182
1003.046875,-3.881213,-0.765065,4.445574,3.151441
1003.050781,0.298546,3.031291,2.960690,3.258337
1003.054688,-4.457162,2.247331,-4.744960,-2.550243
1003.058594,-6.369298,-4.109321,-1.283243,-3.164962
1003.062500,-4.120128,-4.814277,-8.879218,-2.021886
1003.066406,-10.982021,-6.768134,-8.101919,-12.782939
1003.070312,-14.505108,-13.572611,-0.726546,-2.300761
1003.074219,-8.242741,-4.952570,-8.792882,-8.571466
1003.078125,-11.433514,-15.268045,-9.630897,-9.072584
1003.082031,-11.707289,-13.727710,-10.720790,-14.636935
1003.085938,-10.678789,-7.067285,-14.414409,-10.701476
1003.089844,-0.887017,-2.152904,-8.430062,-9.811339
1003.093750,-3.357831,-3.331927,1.475129,-5.445991
1003.097656,2.121355,-7.288294,7.405531,7.853948
1003.101562,-0.524074,0.123619,7.518072,5.520537
1003.105469,0.469530,9.425089,6.335713,3.516705
1003.109375,1.150588,10.003909,2.320018,3.252188
1003.113281,8.858968,4.714571,5.394620,13.549497
1003.117188,12.287584,1.241850,7.819442,5.350131
1003.121094,7.478192,13.508244,10.309703,13.694979
1003.125000,16.593653,4.938100,11.852343,6.439879
1003.128906,11.657458,6.979075,12.491195,2.408736
1003.132812,8.986617,7.333564,7.942078,7.909070
1003.136719,4.210634,12.778199,-2.248030,10.455491
1003.140625,8.080294,9.260943,6.189963,6.754599
1003.144531,-4.515618,0.337220,3.821748,14.633463
1003.148438,-6.477822,-5.522286,4.264174,-0.246367
1003.152344,-1.812276,-12.655101,-5.467066,1.200908
1003.156250,-6.781740,0.010456,-9.112933,-3.254974
1003.160156,-7.762390,1.827352,-7.857328,-9.294664
1003.164062,-3.636707,-4.076818,-5.723235,-11.039408
1003.167969,-7.933313,-4.059213,-5.035668,-13.509514
1003.171875,-10.379175,-9.506799,-13.318491,-7.214600
1003.175781,-9.748192,-13.699852,-6.293074,-14.256791
1003.179688,-9.133688,-17.860908,-14.869970,-9.281505
1003.183594,-8.139529,-13.001577,-9.616822,-12.749477
1003.187500,-13.031347,-10.526706,-3.576852,-3.688694
1003.191406,1.466324,-2.414295,-1.336168,1.589587
1003.195312,-7.215736,-3.410817,-5.230793,1.050032
1003.199219,0.005248,1.333705,9.581789,-5.101471
1003.203125,5.802374,3.879643,5.423380,-0.568479
1003.207031,2.944883,10.330777,4.118352,6.430866
1003.210938,6.357237,4.352024,10.286856,5.644659
1003.214844,5.812969,7.252897,2.494430,8.966895
1003.218750,7.996945,6.891603,12.546409,9.827381
1003.222656,12.961096,11.847426,3.278503,1.722587
1003.226562,11.081927,6.352150,10.915614,11.632023
1003.230469,14.076678,14.464911,10.091080,18.041746
1003.234375,1.470824,12.806155,12.845875,18.860273
1003.238281,3.442713,9.752774,11.664499,6.999338
1003.242188,-2.453677,2.759171,-0.001481,7.704148
1003.246094,-7.978705,-2.818670,-2.636628,-1.775246
1003.250000,-1.988142,-1.371465,-2.704912,0.291916
1003.253906,-0.127951,-4.603720,-3.633262,-1.789082
1003.257812,-7.466825,-4.898208,-5.625975,-2.001192
1003.261719,-10.922823,-9.515816,-7.209086,-8.379534
1003.265625,-11.852902,-8.480589,-12.029819,-14.297630
1003.269531,-18.303541,-4.276466,-5.260709,-9.654282
1003.273438,-9.320560,-11.157437,-1.773078,-11.369876
1003.277344,-13.276717,-10.666731,-11.815372,-5.489178
1003.281250,-9.688524,-0.773106,-9.829208,-11.327719
1003.285156,-11.232426,-4.436345,-6.259370,-9.087925
1003.289062,-3.769821,-6.398530,-8.936674,-2.482971
1003.292969,-8.427694,0.168034,-8.713770,-2.892399
1003.296875,4.203274,2.541735,-7.266112,0.833936
1003.300781,-1.724343,-2.563297,4.655906,-7.741182
1003.304688,3.250510,2.782858,1.611500,1.092941
1003.308594,4.053191,-3.770581,10.346221,9.077347
1003.312500,5.848518,6.630250,5.823935,7.919087
1003.316406,10.709250,7.056025,7.215614,5.416651
1003.320312,15.420683,12.059459,15.747090,9.999297
1003.324219,7.236371,7.745629,9.340690,6.946039
1003.328125,7.595425,13.522542,11.905584,6.998726
1003.332031,9.178773,3.115200,11.009301,11.909131
1003.335938,0.295389,13.283092,13.675606,1.479093
1003.339844,2.579620,2.138131,3.387622,2.012619
1003.343750,4.814697,-1.731308,2.176135,9.839883
1003.347656,0.008550,6.770933,2.202249,2.362474
1003.351562,0.138274,0.331932,1.341327,-9.492213
1003.355469,-4.611089,-8.622019,0.770700,-6.401979
1003.359375,-9.108343,-3.897878,-8.483775,-1.780065
1003.363281,-7.136046,6.212355,-3.702432,-9.340032
1003.367188,-1.976789,-9.668227,-5.792714,-11.539458
1003.371094,-10.020010,-19.142292,0.562328,-8.339844
1003.375000,-5.288836,-8.839550,-11.786039,-8.004979
1003.378906,-13.786873,-9.497752,-10.320442,-12.467660
1003.382812,-8.429317,-1.328225,-6.064539,-7.256030
1003.386719,-9.733891,-4.665254,-12.356409,-1.850933
1003.390625,-1.020249,-8.138949,-0.947631,-8.939440
1003.394531,-6.059233,-5.398199,-5.058714,2.064282
1003.398438,-1.666812,-4.889715,-0.752897,1.883830
1003.402344,-1.330864,6.458802,2.036010,1.359514
1003.406250,3.009238,6.116192,-1.306081,4.714489
1003.410156,8.503983,7.696869,-0.276423,3.442939
1003.414062,5.717061,13.720506,7.756278,11.168297
1003.417969,10.749427,3.384432,7.600909,6.253429
1003.421875,11.486659,1.267322,3.161128,13.579566
1003.425781,11.605373,8.064561,9.047426,12.516764
1003.429688,-1.118075,8.829541,3.358160,14.469937
1003.433594,11.090888,4.712311,12.336959,5.109444
1003.437500,10.023883,10.359837,7.484207,8.529020
1003.441406,6.580816,-0.460692,5.022646,1.986731
1003.445312,1.801453,3.282440,0.121230,7.666048
1003.449219,1.695673,-1.160130,-2.637634,-1.879255
1003.453125,1.306187,1.215598,-10.986006,2.673951
1003.457031,-4.113764,-5.370064,-5.983122,-2.740692
1003.460938,-9.372739,-11.157055,-8.008571,-5.471296
1003.464844,-2.066102,-4.275378,-10.195208,-4.226219
1003.468750,-11.301438,-12.893040,-6.221883,-9.792431
1003.472656,-13.369925,-3.183813,-8.923534,-11.210349
1003.476562,-9.192122,-8.918894,-9.611541,-13.102752
1003.480469,-17.050525,-5.288996,-12.331955,-14.395953
1003.484375,-9.050392,-4.130463,-9.773609,-3.171929
1003.488281,-7.469356,-5.049921,2.279638,-5.256573
1003.492188,-5.700240,2.557935,-4.383702,-2.042412
1003.496094,-10.315962,-7.043480,-9.068355,-6.683119
1003.500000,1.567760,-0.665800,4.852556,5.694658
1003.503906,-2.883165,-1.447174,8.588823,5.865578
1003.507812,3.091354,7.532850,1.993835,8.492923
1003.511719,4.173167,5.231428,6.733477,7.308476
1003.515625,6.648852,15.018485,9.831396,6.838282
1003.519531,7.601958,8.816659,4.958727,5.245664
1003.523438,8.204013,17.883025,10.032982,13.051082
1003.527344,10.958033,13.718946,10.768917,15.114493
1003.531250,12.168578,9.818047,12.068505,3.054048
1003.535156,9.262273,13.482153,8.647925,12.817325
1003.539062,1.648527,7.368951,5.563026,3.342694
1003.542969,9.098552,-1.662356,10.694314,2.960089
1003.546875,5.106859,9.132359,4.271927,-2.729117
1003.550781,1.188194,-4.940839,-8.915333,6.556712
1003.554688,-0.593444,-5.709534,-1.382475,2.367450
1003.558594,-3.565449,-3.966132,-1.807576,-4.951051
1003.562500,0.207479,-9.714284,-4.003592,-4.802446
1003.566406,-14.497027,-11.913159,-9.282324,-9.928836
1003.570312,-16.253279,-8.295115,-10.867942,-14.131563
1003.574219,-10.486246,-8.699370,-7.612375,-2.756756
1003.578125,-6.301614,-5.240661,-9.501348,-7.273197
1003.582031,-11.265365,-1.841022,-3.779570,-11.019622
1003.585938,-6.267104,-3.571339,-3.359520,-15.538787
1003.589844,0.078918,0.243967,-6.924170,-5.987137
1003.593750,-8.718453,-3.536234,-14.078497,-3.208321
1003.597656,3.516516,0.280090,6.384577,-8.464842
1003.601562,3.098364,-2.419859,7.766467,-1.731309
1003.605469,7.433251,-0.827981,3.296432,3.820872
1003.609375,6.607594,3.485761,-2.203746,2.369451
1003.613281,13.424677,6.976082,5.108603,3.924993
1003.617188,5.722183,5.176742,6.995964,4.797813
1003.621094,2.614832,0.253590,11.543904,9.787353
1003.625000,7.693342,6.866048,12.338784,15.125461
1003.628906,13.884156,7.286397,8.951890,10.063350
1003.632812,12.329476,15.785388,11.421289,12.160456
1003.636719,4.677112,2.020172,2.387769,6.632285
1003.640625,2.118903,10.237267,2.072330,2.051431
1003.644531,10.600188,-1.308355,2.663109,5.370645
1003.648438,7.362329,4.000754,-1.055790,2.560259
1003.652344,-11.243695,2.870347,-1.972899,-6.707689
1003.656250,-4.888051,-1.305087,-6.527604,-7.508965
1003.660156,-8.237554,-14.348200,-1.690031,-5.245867
1003.664062,-10.254728,-9.826713,-11.305518,-15.879595
1003.667969,-4.377781,-5.924698,-7.737429,-8.061068
1003.671875,-9.719640,-8.064844,-7.465096,-2.159400
1003.675781,-11.262730,-8.821300,-11.689655,-13.539736
1003.679688,-12.109647,-14.711215,-14.874390,-12.233626
1003.683594,2.535801,-10.248365,-5.426315,-8.407443
1003.687500,-5.555306,-1.912485,-12.346119,-12.854025
1003.691406,-6.900104,1.918575,-6.433234,-3.483516
1003.695312,-4.534973,-4.100353,-8.502825,0.624549
1003.699219,-0.849903,1.846203,-5.148136,-4.699964
1003.703125,0.505438,3.378529,5.189857,-5.914684
1003.707031,4.797915,0.059667,6.199287,3.602395
1003.710938,6.732093,1.210624,8.454801,5.847488
1003.714844,12.703806,9.929241,6.140361,14.389492
1003.718750,8.389541,11.837212,6.592493,4.923772
1003.722656,8.378550,9.856849,8.322753,8.823062
1003.726562,9.264336,18.206991,11.159184,15.617868
1003.730469,5.860813,10.294524,12.136022,12.666498
1003.734375,-2.584411,12.404698,9.949812,7.799652
1003.738281,3.127619,13.478803,4.320175,5.492725
1003.742188,3.589999,3.638039,4.711962,4.769428
1003.746094,5.153105,0.309095,-2.408936,-2.101750
1003.750000,2.476214,2.956648,-0.543406,-0.606398
1003.753906,-3.403150,-6.786979,-7.055171,-3.328130
1003.757812,-2.425097,-2.528930,-4.877958,-3.135006
1003.761719,-8.024815,-7.107149,-11.072439,-12.396835
1003.765625,-18.772376,-13.108992,-10.566845,-6.733205
1003.769531,-12.995263,-8.323389,-9.389232,-6.970584
1003.773438,-7.332385,-8.487680,-1.807583,-9.320837
1003.777344,-9.635818,-8.442459,-9.099592,-2.576470
1003.781250,-7.386522,-10.445677,-7.062831,-11.763214
1003.785156,-10.249578,-6.159523,-4.337320,-7.457325
1003.789062,-6.666869,-3.319663,-8.131337,-6.843361
1003.792969,1.698084,-8.516962,-3.848613,-0.884870
1003.796875,-5.188664,-3.830725,-3.675280,-4.159830
1003.800781,-3.691656,2.644827,3.739200,7.015026
1003.804688,2.623760,4.248947,6.661397,3.414001
1003.808594,8.755808,4.870459,4.292085,2.890612
1003.812500,12.667526,6.269673,14.544233,6.082732
1003.816406,12.966930,5.160129,6.292658,12.928683
1003.820312,11.207463,5.542560,6.656854,5.354879
1003.824219,5.805484,7.118817,15.051377,2.368114
1003.828125,17.495598,7.877255,9.085885,17.098211
1003.832031,7.899857,10.666520,-1.290067,8.777775
1003.835938,1.754577,6.017936,16.833544,12.024769
1003.839844,10.353153,5.739825,3.042754,4.152350
1003.843750,9.656380,3.381931,6.533247,2.152554
1003.847656,-2.222890,9.113388,1.980125,-1.151767
1003.851562,10.829696,-2.344159,0.594125,3.197411
1003.855469,1.295130,0.314519,-3.944487,-2.427821
1003.859375,-9.713639,0.461541,-4.319534,-1.993315
1003.863281,-7.983925,-2.542528,-8.357806,-4.604191
1003.867188,-2.689707,-3.785194,-13.682027,-8.710658
1003.871094,-10.445990,-16.975356,-4.868511,-4.368313
1003.875000,-12.385518,-11.470946,-6.424087,-7.615666
1003.878906,-11.177212,-4.684887,-8.746868,-3.884690
1003.882812,-12.310303,-5.461724,-10.280451,-11.625365
1003.886719,0.414408,-9.019928,-12.171396,-8.548321
1003.890625,-7.296802,-9.302306,-3.527666,-11.678260
1003.894531,-3.554239,-4.157693,-11.945887,-1.816979
1003.898438,1.844944,-1.240313,3.220188,-3.150667
1003.902344,3.458895,-0.328101,9.070793,4.905885
1003.906250,2.898037,4.285936,7.700967,-0.506174
1003.910156,11.134103,0.963206,7.110225,0.561289
1003.914062,2.130493,3.245073,15.042589,5.894851
1003.917969,11.078493,9.319224,10.960486,3.423194
1003.921875,10.971749,6.980407,7.676737,7.364071
1003.925781,13.037821,11.738588,8.205335,8.558248
1003.929688,12.279056,17.595091,12.712452,14.882772
1003.933594,12.464613,6.619295,5.342347,10.143382
1003.937500,7.981388,7.834095,8.212563,12.609725
1003.941406,5.480398,2.702559,12.525481,8.026004
1003.945312,-5.671333,5.213605,6.297522,2.891087
1003.949219,-1.785093,-5.415680,-3.393506,3.050063
1003.953125,-5.516843,-6.727804,-7.170014,-4.013307
1003.957031,-6.020925,-10.130577,-4.892917,-6.836314
1003.960938,1.763318,-10.755677,-7.461668,-13.160449
1003.964844,-2.793830,-6.268677,-11.412786,-4.205904
1003.968750,-7.778207,-11.767389,-10.153319,-3.836326
1003.972656,-8.541000,-15.768869,-10.023426,-20.388964
1003.976562,-12.812601,-2.962471,-9.796617,-1.650849
1003.980469,-10.293485,-15.780295,-8.823786,-10.609343
1003.984375,-7.792005,-9.325838,-8.989930,-8.555574
1003.988281,-5.906155,-12.521015,-5.931544,-4.842990
1003.992188,-7.843597,-1.730823,-3.934152,-5.149792
1003.996094,-1.268451,-8.576320,-2.216694,-3.455046
1004.000000,0.338374,-5.777379,-5.215224,-0.828765
1004.003906,9.483268,-1.812081,0.979410,-0.249663
1004.007812,4.388293,3.821131,5.064503,2.380608
1004.011719,-0.980147,5.872826,2.294017,8.510237
1004.015625,9.093150,2.265534,4.004734,5.056008
1004.019531,9.694860,10.285098,3.169959,3.070677
1004.023438,15.392099,8.859952,11.660171,9.503820
1004.027344,7.051812,6.270265,7.165306,10.690237
1004.031250,12.149270,7.247318,11.303755,16.444739
1004.035156,8.063379,9.417790,11.320293,5.994279
1004.039062,7.002084,6.831526,7.645339,8.827061
1004.042969,5.962321,6.192752,-3.237742,4.865736
1004.046875,4.410265,0.943493,-0.026835,-2.978095
1004.050781,2.864064,-4.105488,-2.708122,0.785253
1004.054688,-0.583025,-0.893258,1.147994,0.099097
1004.058594,-4.679845,2.878556,-7.456679,-1.094342
1004.062500,-13.149165,-7.737577,-12.960051,-7.397532
1004.066406,-10.946157,-15.009669,-7.645608,-12.415956
1004.070312,-11.972280,-0.526571,-13.087182,-14.214624
1004.074219,-5.249815,-0.099866,-17.883549,-5.157749
1004.078125,-9.260244,-11.304520,-10.042842,-12.473768
1004.082031,-5.809103,-5.061727,-16.015980,-3.572732
1004.085938,-8.249476,-8.685337,-3.571507,-4.407895
1004.089844,-4.198420,-9.167014,-1.920382,-11.907074
1004.093750,-4.665882,-9.165907,-5.542738,4.593856
1004.097656,-9.908217,4.520598,-0.060105,-3.325013
1004.101562,-1.852252,1.340930,-4.132895,-7.840918
1004.105469,4.483501,2.995413,6.272065,1.664880
1004.109375,4.889610,4.834819,6.710022,3.169232
1004.113281,9.184859,7.014155,8.292326,11.992637
1004.117188,5.910065,11.905102,5.263553,7.733205
1004.121094,11.081943,9.455630,6.338860,12.376873
1004.125000,13.834153,6.382151,11.000642,10.555383
1004.128906,13.163498,3.965418,11.357090,16.109232
1004.132812,7.861153,5.197173,5.195933,5.176098
1004.136719,15.653402,2.109467,4.462302,9.931556
1004.140625,10.458865,4.434228,11.251928,7.459806
1004.144531,7.007246,5.653739,5.432893,8.114833
1004.148438,-4.356659,0.634993,-5.935941,-0.676511
1004.152344,-2.035947,1.355342,-9.645007,0.474444
1004.156250,-3.206850,-0.887142,-6.575108,-8.957673
1004.160156,-12.114389,0.089912,-2.801944,-6.155864
1004.164062,-11.159972,-17.892133,-10.240964,-10.932496
1004.167969,-5.435283,-6.948166,-5.644950,-5.393254
1004.171875,-14.244504,-9.436077,-14.644547,-14.949197
1004.175781,-14.822403,-9.213400,-10.695980,-14.418306
1004.179688,-9.084505,-11.242065,-2.119911,-8.337991
1004.183594,-11.683276,-6.544858,-15.824805,-7.534853
1004.187500,-3.411141,-12.781445,-11.333543,-0.202740
1004.191406,0.003063,-5.899512,-4.142031,-6.797956
1004.195312,-7.629628,2.244277,-0.507890,1.699871
1004.199219,6.695253,0.163790,6.087400,-4.386961
1004.203125,-0.939504,1.433786,4.281400,1.024486
1004.207031,7.308201,7.083542,6.382859,11.743491
1004.210938,7.842201,12.034968,15.163351,9.504572
1004.214844,14.014984,3.673416,5.979886,6.651746
1004.218750,9.830161,13.009426,7.746755,6.104272
1004.222656,8.865287,6.225409,14.628101,4.517412
1004.226562,12.041687,9.764813,7.304969,3.428548
1004.230469,5.405024,8.717726,4.167838,-1.708900
1004.234375,10.787363,8.305468,3.224106,9.770700
1004.238281,4.074197,12.082625,5.781908,2.221898
1004.242188,2.781684,7.558380,-1.694778,3.707851
1004.246094,4.968375,8.260401,5.227207,8.473509
1004.250000,0.841601,-6.610312,3.910692,-5.964123
1004.253906,2.360084,-3.518971,-3.654675,-4.112016
1004.257812,-8.357889,-3.504651,1.309765,1.406509
1004.261719,-4.485964,-4.049310,-7.622178,-7.835183
1004.265625,-9.246713,-9.808922,-12.987051,-3.495981
1004.269531,-8.179132,-6.049815,-11.944289,-16.372366
1004.273438,-11.636629,-5.755499,-4.280044,-13.019737
1004.277344,-7.843496,-17.615269,-13.486451,-5.093808
1004.281250,-11.531014,-5.376785,-4.639852,2.712196
1004.285156,-11.545324,-9.163098,-4.950038,-9.634829
1004.289062,-7.335249,-6.431508,-1.301817,-7.810465
1004.292969,-3.220140,-0.619441,-6.953330,-11.784367
1004.296875,-3.908738,-4.836091,0.845251,-4.217131
1004.300781,-0.520960,5.373214,-1.768497,0.975416
1004.304688,4.464990,4.922023,8.771707,3.980210
1004.308594,2.426756,0.742238,-1.316824,3.264988
1004.312500,8.108087,4.319013,14.389885,13.234742
1004.316406,11.203902,1.717632,10.112216,5.460500
1004.320312,9.316648,14.446943,12.040733,4.089406
1004.324219,10.821714,9.583667,6.222449,4.958211
1004.328125,3.723548,8.834375,9.543085,9.516757
1004.332031,5.737974,11.704156,8.766380,1.954429
1004.335938,14.957437,5.369449,8.426451,4.574537
1004.339844,-0.799386,7.488290,5.008900,10.462447
1004.343750,5.978546,4.139442,2.066971,3.924100
1004.347656,11.156126,1.241884,4.872475,-1.834589
1004.351562,0.359073,3.718026,-1.965051,0.558726
1004.355469,-7.759343,-1.640512,-2.251079,-2.439652
1004.359375,-14.034644,-7.616809,-4.518796,-1.280255
1004.363281,-9.220557,-17.082862,-11.049965,-11.428969
1004.367188,-5.846230,-7.832556,-11.980250,-3.326029
1004.371094,-7.260566,-4.477899,-12.527785,-12.154867
1004.375000,-16.084183,-3.909132,-15.630473,-8.615106
1004.378906,-8.919162,-5.801154,-10.597321,-10.001444
1004.382812,-9.771339,-6.922266,-8.780559,-9.292562
1004.386719,-15.220801,-13.115122,-5.458943,-9.850947
1004.390625,-12.538995,-7.063482,-6.530032,-1.164270
1004.394531,-5.459575,-1.284226,0.685359,-6.231279
1004.398438,-1.161435,-1.085799,2.342776,-7.819848
1004.402344,-1.484368,4.851864,-0.080020,-7.587469
1004.406250,6.542880,3.599896,3.129547,8.149797
1004.410156,-0.044581,9.917869,11.411725,8.589322
1004.414062,7.256006,8.266953,8.701634,10.288558
1004.417969,2.522477,8.112027,9.061555,6.173021
1004.421875,4.427681,12.472134,6.458118,18.043901
1004.425781,6.489926,13.829409,6.280382,7.410193
1004.429688,15.192350,13.036090,12.818167,11.333496
1004.433594,5.939788,5.075203,11.574644,2.247787
1004.437500,13.161511,7.426953,9.827162,7.675576
1004.441406,0.387549,0.865793,2.689850,5.504773
1004.445312,11.007892,-3.492164,-4.151894,3.555464
1004.449219,12.852976,4.636469,-0.989448,-5.774142
1004.453125,-6.377090,-2.213357,-1.236900,3.817185
1004.457031,-9.166012,-1.135234,-11.255046,-5.942604
1004.460938,-3.471384,-10.922796,-1.015095,-6.066392
1004.464844,-3.953037,-9.622133,-6.189424,-6.953217
1004.468750,-8.221658,-0.624875,-3.733201,-9.987329
1004.472656,-8.378508,-12.007878,-7.950195,-3.737058
1004.476562,-1.123134,-4.128559,-9.393647,-10.796304
1004.480469,-16.070131,-11.074003,-7.566518,-15.983262
1004.484375,-3.380010,-9.205523,-11.541469,-8.786494
1004.488281,-7.660809,-0.644018,-12.250112,-3.210299
1004.492188,-6.932382,-4.084778,-6.162449,2.067153
1004.496094,-6.745293,2.044751,3.367507,-0.753105
1004.500000,0.813754,5.174040,3.971680,7.662356
1004.503906,3.248881,1.314066,2.056002,3.744349
1004.507812,6.880255,1.348396,-1.196806,5.804303
1004.511719,7.940572,11.939033,8.045294,8.212995
1004.515625,7.280919,7.353663,2.102029,3.935487
1004.519531,10.433441,7.367389,10.211097,13.045907
1004.523438,16.972470,8.000501,10.125895,5.218207
1004.527344,9.958368,3.934488,15.267452,11.370126
1004.531250,10.658672,9.612977,7.839715,12.565741
1004.535156,11.340665,11.376336,8.247208,10.896806
1004.539062,10.825919,10.350893,13.937045,4.792607
1004.542969,6.221186,2.946442,8.934559,-3.634930
1004.546875,6.082963,-0.258071,-2.695739,2.944220
1004.550781,0.738708,-4.004379,3.198826,2.657291
1004.554688,1.763113,-11.749538,-6.853414,-13.627059
1004.558594,-11.200586,-4.635728,-3.604952,0.264970
1004.562500,-7.806704,-1.274598,-8.328861,-0.679247
1004.566406,-13.654282,-12.574746,4.358293,-6.251345
1004.570312,-9.848365,-6.521783,-2.241185,-13.974118
1004.574219,-14.857206,-15.692691,-13.217832,-12.156126
1004.578125,-11.664187,-3.922835,-15.390960,-4.777169
1004.582031,-11.595542,-7.361322,-7.764213,-5.878376
1004.585938,-5.637773,-2.844920,-14.459693,-6.659833
1004.589844,-4.542491,-5.209855,-3.423335,-4.671032
1004.593750,-4.457416,-1.222595,0.419203,-6.629564
1004.597656,-6.054981,3.030489,-1.556486,3.687402
1004.601562,-3.046229,5.300112,-0.238763,0.927835
1004.605469,-0.336942,-0.483785,4.547557,8.862697
1004.609375,6.549058,0.159529,7.900607,5.113117
1004.613281,7.707012,8.975991,8.632427,4.384982
1004.617188,8.809332,13.424360,8.660606,6.871155
1004.621094,14.896039,17.409042,1.986583,6.927793
1004.625000,14.403596,6.737075,9.849498,11.230650
1004.628906,10.232643,18.358351,12.342357,12.012545
1004.632812,5.317472,3.002049,12.111455,10.956743
1004.636719,12.283048,6.384072,7.254600,7.415096
1004.640625,2.963930,8.448231,7.468910,12.735420
1004.644531,0.141048,-0.706272,3.087935,1.307544
1004.648438,3.160113,2.819140,8.135518,-4.360502
1004.652344,-5.040592,0.336574,-0.760263,2.661819
1004.656250,-7.438664,-4.087521,-4.549727,-13.914452
1004.660156,-8.871194,-4.325857,-7.777260,-13.422232
1004.664062,-1.236896,-9.493060,-12.291269,-5.602381
1004.667969,-11.452646,-9.605501,-12.435013,-7.873458
1004.671875,-14.870113,-7.379144,-7.039871,-13.882137
1004.675781,-5.679779,-11.334969,-8.476897,-9.996659
1004.679688,-13.295194,-11.893932,-15.073225,-12.344043
1004.683594,-5.770539,-18.069127,-2.897027,-8.296743
1004.687500,-1.785819,-10.106740,-16.612168,-7.981243
1004.691406,-6.329782,-4.089823,-9.629686,-2.299307
1004.695312,-2.960150,-1.242963,2.767116,-2.393480
1004.699219,3.452145,-0.723713,-3.582940,1.080288
1004.703125,4.753817,1.339563,0.676736,1.054695
1004.707031,-0.258857,6.913850,7.500838,2.737760
1004.710938,6.623597,-0.964700,10.350233,5.173733
1004.714844,8.120779,18.253556,13.040400,3.932739
1004.718750,10.734281,7.429646,5.041984,11.393147
1004.722656,6.833969,7.613631,10.615951,14.797481
1004.726562,7.129733,7.166838,18.157879,7.204665
1004.730469,9.043036,6.655095,5.730379,7.744136
1004.734375,10.608636,1.666044,9.547327,11.928707
1004.738281,2.388278,5.464278,13.819392,3.167831
1004.742188,9.500857,3.303688,2.010072,11.115747
1004.746094,3.172826,6.932500,3.037334,1.755589
1004.750000,3.278903,0.893138,0.200636,-6.613422
1004.753906,-11.252327,0.227137,-0.982269,0.412021
1004.757812,-3.130306,-2.999312,-2.668615,-1.882975
1004.761719,-10.671448,-7.256834,-9.857965,-3.499553
1004.765625,-9.475006,-16.249414,-13.745954,-4.072469
1004.769531,-9.862633,-6.818106,-7.120972,-3.087545
1004.773438,-7.052414,-5.101148,-8.537745,-7.094994
1004.777344,-17.100429,-8.218582,-8.388097,-14.392891
1004.781250,-10.429725,-7.184313,-9.604527,-8.177610
1004.785156,-5.508746,-7.353234,-16.803853,-11.319976
1004.789062,-4.208295,-3.385644,-1.896261,-11.051390
1004.792969,-3.108576,-3.053170,-11.248117,-3.867843
1004.796875,-3.435568,-5.827786,1.339428,-2.263615
1004.800781,-1.118963,-1.100176,9.281031,-2.773477
1004.804688,0.206697,-0.543805,8.823263,1.401197
1004.808594,9.756036,5.941365,3.441202,-1.755301
1004.812500,10.251720,4.764712,8.441152,8.337994
1004.816406,11.043046,8.600128,4.395798,5.252527
1004.820312,9.441899,13.340137,6.846626,13.261656
1004.824219,10.298440,13.884867,5.298403,6.796193
1004.828125,7.113392,16.718243,12.992446,7.463493
1004.832031,11.240615,8.445765,6.597923,5.538591
1004.835938,10.659360,10.140552,8.804384,7.818372
1004.839844,6.844863,7.702038,5.727951,3.917299
1004.843750,-4.924009,-4.091412,4.965761,7.142200
1004.847656,6.524021,3.144418,-1.120801,11.433320
1004.851562,-1.639010,-5.086255,-1.543709,-0.811685
1004.855469,-3.442274,-8.434726,-3.093062,-3.933797
1004.859375,-7.024865,-6.961139,-0.684965,-6.318151
1004.863281,-8.841024,-1.395915,-8.651547,-3.667069
1004.867188,-10.756754,-6.915349,-8.908779,-8.047807
1004.871094,-8.289428,-10.834515,-1.763959,-9.844555
1004.875000,-15.004080,-10.770574,-9.606935,-4.443581
1004.878906,-9.869025,-11.661163,-7.015254,-13.871705
1004.882812,-5.227096,-12.707580,-14.696601,-9.016799
1004.886719,-1.753631,-2.031134,-7.635352,-5.060888
1004.890625,-17.043012,-6.073333,1.201230,-0.019980
1004.894531,-0.781870,-5.079801,-3.447550,-0.447628
1004.898438,5.105442,3.416337,8.296278,0.757716
1004.902344,-0.354562,1.548278,-0.987554,-1.350295
1004.906250,5.912601,2.995051,-0.599729,-0.872966
1004.910156,5.136341,9.582709,1.206272,0.899629
1004.914062,7.593992,8.447725,7.698110,3.919594
1004.917969,8.920647,6.341751,9.395188,6.806940
1004.921875,12.803925,12.526845,7.613093,8.358520
1004.925781,6.942887,11.724441,11.738426,11.757375
1004.929688,14.918966,5.536527,3.663332,13.807575
1004.933594,4.422797,10.696353,13.112120,6.162253
1004.937500,4.673098,11.155110,11.960478,11.965536
1004.941406,10.900076,-2.417136,6.797649,3.652960
1004.945312,9.979505,8.968172,-2.198356,8.214395
1004.949219,-4.859242,-5.336752,4.541818,4.994579
1004.953125,-1.876675,-0.748995,1.666073,-7.419985
1004.957031,-5.367077,-8.310912,-7.130043,-11.384176
1004.960938,-10.706160,-3.756747,-7.765591,-9.669294
1004.964844,-3.380969,-2.060218,-16.122669,-10.504535
1004.968750,-9.087361,-11.067646,-5.212228,-5.561050
1004.972656,-13.480409,-12.337672,-12.974939,-16.715522
1004.976562,-7.542453,-10.747047,-10.694941,-12.035521
1004.980469,-8.297204,-7.740803,-7.841375,-9.994926
1004.984375,3.216972,-15.288506,-17.811052,-10.129813
1004.988281,-12.541843,-11.833203,-7.895778,-5.877388
1004.992188,-11.707818,-4.866828,1.951789,-7.911815
1004.996094,-2.719196,-4.230371,-6.415508,-15.032809
1005.000000,-3.332722,2.299194,0.852661,-5.688977
1005.003906,-3.969793,8.798532,5.311409,7.681397
1005.007812,3.858115,5.550225,4.862680,5.793087
1005.011719,13.127746,1.876722,5.078239,2.191693
1005.015625,7.935012,11.148681,5.017166,9.267470
1005.019531,11.111929,4.160364,9.067217,10.902625
1005.023438,12.432582,10.233879,14.493304,7.543936
1005.027344,7.357402,14.163855,7.404202,13.898752
1005.031250,-1.203901,8.497879,9.884493,12.154926
1005.035156,-0.697258,3.875711,5.147114,6.709427
1005.039062,2.835670,3.716605,3.246456,7.878664
1005.042969,1.734620,5.139806,13.940887,6.304805
1005.046875,1.662283,9.663333,-0.782501,-0.246268
1005.050781,-2.931914,-1.447322,-4.821551,-5.903555
1005.054688,-7.972176,-1.781819,-3.443431,-4.104438
1005.058594,-3.616690,-7.878764,-7.774941,0.413687
1005.062500,-6.693967,-12.163119,-2.663778,-7.446935
1005.066406,-5.374990,-6.793748,-3.678450,4.249809
1005.070312,-7.048817,-8.279035,-14.698417,-15.532340
1005.074219,-15.047560,-7.547647,-9.569256,-6.490855
1005.078125,-6.889809,-11.241185,-16.096893,-6.848316
1005.082031,-14.206662,-10.179254,-5.758419,-9.106124
1005.085938,-7.928328,-5.094783,-8.640393,-4.174954
1005.089844,-4.677537,-10.737457,0.996082,1.725368
1005.093750,-3.698207,-4.523490,-10.842545,2.268737
1005.097656,1.350124,-2.927375,-4.672755,-2.341834
1005.101562,-0.886040,-0.412117,3.831943,-0.696990
1005.105469,0.779679,-0.571921,3.565423,-3.009407
1005.109375,0.450759,2.719723,4.945820,0.264855
1005.113281,5.397801,9.558036,15.508191,24.142732
1005.117188,5.437979,13.385649,4.044509,8.555734
1005.121094,7.631761,7.444393,9.260978,7.874448
1005.125000,2.873425,3.404622,20.555927,19.639693
1005.128906,10.135862,10.377060,9.092139,9.616172
1005.132812,3.699364,7.512589,3.001076,3.414553
1005.136719,19.369643,12.345120,9.941827,5.467633
1005.140625,-2.896765,5.687442,1.769914,7.211964
1005.144531,8.745373,3.007967,6.061069,3.809083
1005.148438,-5.233181,4.566513,-1.448111,3.773745
1005.152344,-3.615507,-6.961599,-0.216675,1.107408
1005.156250,-5.438316,-1.516758,-4.341887,-6.866793
1005.160156,-6.507652,-5.518584,-3.595416,-4.737539
1005.164062,-5.126072,-11.125903,-12.058634,-10.855812
1005.167969,-7.651917,-10.937608,0.770304,0.050218
1005.171875,-7.906402,-7.081961,-9.475523,-6.125578
1005.175781,-5.908363,-8.168872,-0.137434,-11.096300
1005.179688,-7.450140,-8.290182,-19.166924,-12.603142
1005.183594,-11.695297,-3.399091,-12.741522,-15.449521
1005.187500,-10.363074,-12.141657,-9.229687,-12.586132
1005.191406,-2.719392,-13.935920,-4.217594,-9.897559
1005.195312,-1.905441,-7.566279,-3.032699,-1.262758
1005.199219,-6.315107,-0.331304,0.188759,0.880503
1005.203125,8.398714,0.162018,3.142232,5.391783
1005.207031,1.461419,1.657659,8.495155,11.998567
1005.210938,-2.533445,10.027168,9.992441,12.148387
1005.214844,2.764711,5.622611,1.840800,8.978333
1005.218750,8.155847,8.786862,15.643516,1.226760
1005.222656,11.556362,16.191262,5.439828,10.745918
1005.226562,5.730603,7.461830,5.691120,7.357644
1005.230469,1.140090,6.976805,11.825161,7.226725
1005.234375,10.106176,3.930546,6.537690,-1.490009
1005.238281,8.211785,16.449325,11.327898,5.053223
1005.242188,12.759348,-1.107271,0.896403,5.297095
1005.246094,13.858336,6.211838,1.839002,11.720089
1005.250000,3.819006,-4.861127,2.087619,4.508947
1005.253906,-2.877296,-6.145258,0.419935,-4.666126
1005.257812,-6.835694,-3.321938,-5.118560,-1.410266
1005.261719,-6.395881,-7.840085,-14.265312,-13.682509
1005.265625,-8.045403,-8.430971,-8.235774,-4.270946
1005.269531,-7.659667,-6.112381,-13.361839,-7.462488
1005.273438,-15.212842,-12.336102,-9.546588,-11.175605
1005.277344,-7.862353,-8.983065,-11.650445,-19.849501
1005.281250,-6.170252,-9.807844,-2.873220,-4.907918
1005.285156,-4.802238,-6.340890,-5.320769,-8.921533
1005.289062,-4.417536,-5.533248,-1.920954,2.363258
1005.292969,-5.847664,0.511008,-9.423923,-0.755123
1005.296875,-5.559368,0.855617,-6.050006,-3.492887
1005.300781,4.389280,2.667365,-0.734500,-0.654189
1005.304688,-3.374554,9.297108,-6.508974,3.484249
1005.308594,3.756483,5.105333,7.638612,7.510187
1005.312500,4.304056,15.466625,11.837542,2.355687
1005.316406,10.595021,6.287382,3.687914,3.912019
1005.320312,3.040111,11.774031,9.462735,7.605039
1005.324219,15.962491,13.149699,12.337864,15.975033
1005.328125,12.081758,-0.325863,11.592422,14.924617
1005.332031,6.893353,13.031976,0.892004,12.681413
1005.335938,8.142522,7.535217,5.206503,8.781978
1005.339844,1.605570,6.568592,3.492228,6.967793
1005.343750,-0.137084,-3.933189,2.575831,6.879409
1005.347656,7.828560,-6.764602,2.097079,0.119216
1005.351562,-6.348632,-8.373795,-5.740676,5.602659
1005.355469,1.345735,-5.826507,3.657121,-0.373059
1005.359375,2.900931,-7.823715,-2.417662,-8.170850
1005.363281,-3.488841,-2.362907,-0.242612,-11.338835
1005.367188,-9.189860,-10.303706,-6.476896,-11.094505
1005.371094,-10.420902,-13.393990,-1.259221,-7.898350
1005.375000,-9.590212,-6.327966,-12.608982,-5.335052
1005.378906,-14.145668,-9.195454,-12.303488,-7.361194
1005.382812,-7.232871,-16.388627,-7.480820,-3.826228
1005.386719,-10.675921,-2.410802,-8.407460,-8.007650
1005.390625,-10.610753,-4.005124,-3.743727,-10.459327
1005.394531,-7.807643,-3.995196,4.162913,-1.324089
1005.398438,2.581296,-5.492688,4.787869,-1.480774
1005.402344,1.609264,-0.346833,7.786699,7.648493
1005.406250,-4.296955,-0.853181,4.732908,0.585869
1005.410156,4.885263,12.438389,3.065321,2.207335
1005.414062,7.381005,4.166016,6.062908,9.803743
1005.417969,16.194203,14.076770,11.387902,11.977949
1005.421875,11.701858,8.090664,17.394572,13.162536
1005.425781,1.619944,7.428195,14.400392,6.692889
1005.429688,17.530116,9.661899,9.612727,5.979648
1005.433594,14.660207,4.416012,2.796018,5.276704
1005.437500,3.441136,5.026974,11.668644,10.410321
1005.441406,5.498023,6.880756,3.384542,10.871335
1005.445312,5.036777,5.593946,2.095120,-0.734047
1005.449219,3.554187,-0.127439,5.407938,1.175746
1005.453125,4.731254,-5.171881,1.487003,7.362829
1005.457031,-5.806971,-4.121309,-1.888941,-3.747413
1005.460938,-4.669543,-6.215503,-2.467301,-13.109177
1005.464844,-8.631223,-8.763193,-11.080603,-11.968570
1005.468750,-4.545198,-10.337872,-9.765519,-10.055949
1005.472656,-14.339103,-6.137609,-11.603258,2.635506
1005.476562,-1.125806,-7.991410,-3.848468,-9.302490
1005.480469,-8.375494,-7.612722,-8.903023,-11.175889
1005.484375,-6.200660,-4.021979,-8.940845,-2.153686
1005.488281,-5.288364,-7.815309,-4.534157,-15.727929
1005.492188,-0.149013,-3.120208,-8.208647,0.104062
1005.496094,-12.918224,-4.504918,-4.831422,-4.154600
1005.500000,-0.926981,4.067117,-4.212582,-2.446672
1005.503906,3.752980,5.868038,1.910799,2.076175
1005.507812,8.007485,6.325751,5.636159,9.240845
1005.511719,8.572272,7.532397,-6.973785,4.840034
1005.515625,12.102163,10.770533,7.257364,12.793077
1005.519531,7.475926,1.190063,15.256187,15.529900
1005.523438,10.883491,11.356077,13.727929,7.487570
1005.527344,10.033253,6.201518,10.354816,5.968821
1005.531250,8.090817,8.817798,11.136364,13.298964
1005.535156,7.016151,6.950031,15.901907,10.326664
1005.539062,3.870099,7.378756,5.726053,12.439804
1005.542969,8.133125,5.825652,4.136546,3.912260
1005.546875,9.525613,4.465643,3.773652,10.117350
1005.550781,-1.679649,-0.478473,2.857819,-1.600254
1005.554688,4.476611,-5.330493,-5.553839,-6.109663
1005.558594,-7.400607,-2.839088,-7.104615,-5.173679
1005.562500,-14.369349,-8.188042,-9.239341,-10.348465
1005.566406,-9.244013,-13.370240,-3.584520,-7.714431
1005.570312,-7.065303,-15.404050,-10.603383,-8.102584
1005.574219,-4.273501,-13.497512,-6.710325,-11.867890
1005.578125,-10.247906,-9.926167,-3.982484,-10.275918
1005.582031,-11.836350,-17.899374,-6.503442,-10.343679
1005.585938,-1.336639,-6.653185,-6.745359,-11.650293
1005.589844,0.270521,-4.856054,-4.826512,-9.894630
1005.593750,-3.083638,-5.423191,-2.882634,-5.586619
1005.597656,4.661034,-4.251273,-0.844159,-1.508144
1005.601562,6.593041,0.296817,-3.185549,-3.055240
1005.605469,6.320007,2.479245,11.070074,-1.782261
1005.609375,-4.045054,4.908915,6.578723,0.201646
1005.613281,7.703995,7.242829,7.242412,8.267205
1005.617188,16.551466,12.421014,7.811669,12.900415
1005.621094,18.669296,10.491504,8.798926,8.637413
1005.625000,11.487956,7.734806,15.906379,9.600626
1005.628906,6.337454,10.220635,12.451165,3.823506
1005.632812,5.362490,8.713043,4.966859,4.675610
1005.636719,1.369887,7.215059,10.140097,11.094737
1005.640625,11.232247,8.434870,9.841469,7.544457
1005.644531,9.158760,-1.310397,2.227182,2.567959
1005.648438,0.676208,7.627989,-0.928379,-0.959620
1005.652344,-2.432254,2.240216,-4.552840,0.147925
1005.656250,-8.203958,-3.207441,-0.904643,-5.395166
1005.660156,-5.137063,-14.459138,-8.488571,-3.473548
1005.664062,-10.215479,-4.995126,-7.636088,-10.920235
1005.667969,-12.244744,-7.789299,-16.060552,-2.506689
1005.671875,-0.945810,-3.892314,-18.123066,-8.880313
1005.675781,-16.224009,-18.250700,-10.675031,-2.614729
1005.679688,-8.447621,-13.344384,-9.813645,-7.103675
1005.683594,-9.940804,-8.530422,-6.116627,-13.350530
1005.687500,-7.819771,-4.182770,0.670986,-2.338267
1005.691406,-14.210549,-0.359178,-5.553680,-7.210479
1005.695312,-8.867573,7.002685,-3.492765,1.570979
1005.699219,7.023330,-0.496410,-3.082161,5.011834
1005.703125,-1.510640,1.412451,12.956024,-1.669543
1005.707031,3.457577,-0.308605,10.136678,2.004219
1005.710938,0.252454,2.669775,6.587836,15.790601
1005.714844,9.344090,3.295127,9.551002,0.832638
1005.718750,7.807868,6.754151,5.441382,11.182915
1005.722656,1.068008,14.382892,6.124730,8.967715
1005.726562,0.894906,5.183074,17.189341,16.795748
1005.730469,10.241148,10.426947,10.227022,12.100031
1005.734375,11.075244,8.411287,8.259846,-0.925493
1005.738281,9.203814,6.801421,0.584141,5.119487
1005.742188,0.398994,2.718770,0.323855,9.312526
1005.746094,6.215511,2.041368,-4.043437,-0.703308
1005.750000,-3.018466,0.798356,-1.917824,-6.750243
1005.753906,-4.087759,-2.748393,-6.981092,-3.266684
1005.757812,-3.768532,-1.213667,0.510091,-6.721759
1005.761719,-7.978658,-13.742202,-5.162997,-8.490379
1005.765625,-8.318933,-7.568349,-3.995514,-5.991754
1005.769531,-10.831310,-7.715406,-8.522518,-8.785953
1005.773438,-5.100209,-9.671752,-13.559244,-8.491917
1005.777344,-3.411244,-7.650910,-8.736287,-16.832638
1005.781250,-9.456738,-8.072886,-13.559991,-11.285596
1005.785156,-8.303542,-8.571912,-11.788185,-3.966883
1005.789062,-3.943983,-3.807126,-2.462962,-13.557884
1005.792969,-2.812810,-9.459463,-1.601779,-12.109039
1005.796875,-5.857494,-4.118325,-5.327800,-1.249126
1005.800781,8.322845,0.554555,1.313956,-0.153109
1005.804688,-3.060092,2.513621,9.250663,-6.313440
1005.808594,1.715452,1.037376,3.603988,5.567193
1005.812500,6.782957,7.633554,7.824902,12.861225
1005.816406,5.597624,7.386947,8.087097,10.170698
1005.820312,10.018151,1.630374,6.237788,9.944284
1005.824219,6.006457,13.476764,17.352624,6.007456
1005.828125,7.376215,4.842101,1.437941,12.213753
1005.832031,12.770812,9.433732,7.616640,8.931908
1005.835938,10.728691,5.467698,11.319563,7.451283
1005.839844,6.334635,12.594039,-0.797217,4.920588
1005.843750,4.025685,8.214532,-7.114615,4.594541
1005.847656,-0.958487,2.743249,0.192972,6.514867
1005.851562,-1.821410,4.850682,2.518475,-7.007830
1005.855469,-2.529015,-3.149316,-3.855266,-4.500260
1005.859375,-2.216195,-6.751736,-5.424792,-4.864574
1005.863281,-18.104183,2.849680,-10.243215,-11.775006
1005.867188,-7.554282,-7.770384,-9.586404,-5.069230
1005.871094,-14.588152,-16.599717,-15.785753,-8.787608
1005.875000,-7.433669,-10.307963,-5.619377,-13.714239
1005.878906,-12.522646,-6.275373,-7.158108,-6.230740
1005.882812,-9.173316,-10.236486,-13.347734,-8.420445
1005.886719,-1.423984,-19.455800,-4.872974,-2.114032
1005.890625,-4.630233,-7.441326,-9.621982,0.992182
1005.894531,-2.607160,-17.508873,-4.145025,-6.380203
1005.898438,5.686751,0.975757,-2.084478,4.171126
1005.902344,-0.506186,0.874942,1.816255,6.015180
1005.906250,-1.669024,3.201376,11.784804,4.944677
1005.910156,10.168617,0.232392,10.801275,6.636200
1005.914062,4.261449,11.977979,12.180824,8.537683
1005.917969,16.821384,-0.704054,3.385548,13.408062
1005.921875,7.459252,8.750078,9.991706,11.437420
1005.925781,11.929236,11.529888,13.137908,10.678417
1005.929688,0.533501,10.436549,5.672163,11.673296
1005.933594,6.136798,8.971582,7.198926,9.986419
1005.937500,1.153361,6.890691,10.776952,11.009070
1005.941406,1.902622,3.671033,4.430025,7.781177
1005.945312,11.889638,4.521093,-2.258639,6.401183
1005.949219,-1.959660,4.193538,4.674990,-2.683267
1005.953125,-1.280551,-2.911800,0.078445,-4.748370
1005.957031,-2.862041,1.123935,-7.975802,-8.314274
1005.960938,-1.511036,-10.650526,-3.019808,-8.751398
1005.964844,-9.847266,-11.947449,-11.097429,-12.812890
1005.968750,-7.512333,-5.318704,-13.268130,-12.711907
1005.972656,-9.585400,-10.041651,-4.510401,-7.562848
1005.976562,-7.466879,-16.149886,-6.332773,-9.195229
1005.980469,0.163894,-15.908900,-16.587723,-4.780479
1005.984375,-8.926636,-8.981897,-7.336752,-18.894992
1005.988281,-13.502930,-7.278388,-7.302854,-12.297230
1005.992188,-5.015802,-13.338135,-9.921527,-7.975836
1005.996094,-2.206273,-4.189792,-0.330064,3.886590
1006.000000,-1.136791,-0.651803,0.257203,3.500081
1006.003906,2.342084,6.840725,1.181631,4.805588
1006.007812,10.874826,0.664226,4.951608,4.348584
1006.011719,2.520469,6.224480,14.698236,13.603530
1006.015625,8.234654,5.690232,4.240242,11.843650
1006.019531,9.432949,8.440909,6.312007,6.289410
1006.023438,5.342704,16.180936,9.583245,10.411682
1006.027344,9.134777,13.419532,3.962390,9.002166
1006.031250,9.970810,7.801956,5.590830,10.769184
1006.035156,6.821600,8.766529,7.114530,6.293464
1006.039062,8.156606,2.746294,3.177823,6.587748
1006.042969,8.304601,12.227235,1.506704,3.032648
1006.046875,-3.959024,-2.419974,2.103228,1.755144
1006.050781,-1.158319,1.045647,-0.020922,-2.847786
1006.054688,2.427033,-3.952087,-1.967379,-3.458440
1006.058594,-9.314294,-0.450984,-2.900734,-3.188900
1006.062500,-7.886656,-8.695319,-3.098435,-6.909116
1006.066406,-16.362730,-7.145399,-6.000178,-9.468569
1006.070312,-4.285664,-11.500512,-11.025745,-4.260858
1006.074219,-5.043661,-12.729967,-7.451718,-5.677765
1006.078125,-15.851572,-17.787227,-7.312478,-16.117652
1006.082031,-11.114067,-14.288635,-17.575901,-13.898493
1006.085938,-7.696216,-8.097507,-2.589747,-8.850304
1006.089844,-4.129356,-7.520629,1.796226,-8.086502
1006.093750,2.253336,-6.701750,-6.411102,-1.259722
1006.097656,0.411033,7.215508,-6.192437,-4.378789
1006.101562,5.472170,0.239370,2.190514,0.987108
1006.105469,1.724540,4.232931,-0.907792,4.893588
1006.109375,4.894791,9.180824,11.934914,8.653321
1006.113281,3.362574,5.833006,12.462205,6.833573
1006.117188,9.936460,8.657422,5.137275,7.835721
1006.121094,7.912920,5.911427,11.431989,8.238689
1006.125000,13.419541,-0.175442,7.947661,6.051098
1006.128906,4.685468,11.554885,15.659948,8.197799
1006.132812,15.925139,15.772358,13.730895,6.486218
1006.136719,9.113653,5.500265,6.041249,9.607944
1006.140625,1.486434,1.770741,2.505958,-0.086382
1006.144531,0.905392,0.706138,-0.710947,-0.730228
1006.148438,-2.211268,4.046604,5.917465,0.248552
1006.152344,3.650845,-2.845272,-6.854165,4.806566
1006.156250,-0.810635,-5.181312,-6.591654,2.669463
1006.160156,-4.194723,0.260053,-5.059912,-3.645395
1006.164062,-7.626060,-7.455411,-12.737236,-12.843603
1006.167969,-1.417447,-5.142097,-6.306947,-12.170356
1006.171875,-8.913801,-8.422185,-13.177580,-8.377636
1006.175781,-3.700205,-8.555928,-14.522449,-8.785138
1006.179688,-8.388968,-9.006473,-3.022323,-7.268458
1006.183594,-5.176141,-3.039333,-9.176238,-8.115508
1006.187500,-11.194234,-7.905750,-3.865123,-8.427825
1006.191406,-0.450760,-8.471955,-2.294317,-9.793368
1006.195312,-2.877636,-2.386030,-8.088968,-9.876845
1006.199219,2.231637,1.260500,0.128774,5.386246
1006.203125,-3.442019,-5.415355,-0.064200,4.095035
1006.207031,15.318298,2.612496,5.939559,3.995390
1006.210938,5.801698,7.082253,7.273244,6.059314
1006.214844,7.228394,13.646842,11.543196,10.421854
1006.218750,5.273603,13.174120,5.263086,14.632270
1006.222656,7.451456,5.067419,6.984420,6.499499
1006.226562,9.626038,13.083791,5.365818,7.409310
1006.230469,9.486401,10.346791,5.788591,3.613997
1006.234375,8.899248,9.031628,5.296055,4.817496
1006.238281,10.479060,5.672848,7.629924,7.535619
1006.242188,6.855150,4.260623,-0.063124,9.698254
1006.246094,10.986280,-0.930998,5.088566,10.959393
1006.250000,-5.268333,-2.375188,-1.043367,1.556694
1006.253906,-3.533998,4.310699,-7.029060,5.864683
1006.257812,-7.226340,-6.169914,-0.383932,1.038467
1006.261719,-2.775052,-11.948745,-5.891943,-2.584825
1006.265625,-6.008303,-11.508505,-5.538126,-12.117294
1006.269531,-8.146515,-7.504032,-3.307119,-8.912237
1006.273438,-11.513630,-14.269346,-10.448707,-7.615916
1006.277344,-12.475478,-14.310384,-5.821981,-10.904758
1006.281250,-8.631224,-13.531511,-6.890243,-12.168648
1006.285156,-13.366440,-2.600422,-4.570300,-5.548627
1006.289062,-4.569603,-10.577050,-11.317310,-12.453998
1006.292969,-5.204251,-6.203075,-6.776790,-5.518048
1006.296875,0.071275,-7.213041,1.204224,-3.784952
1006.300781,-1.771968,-4.780196,7.756305,-6.154697
1006.304688,1.245293,2.225318,0.902663,6.503985
1006.308594,3.023525,5.700450,1.685145,-4.535028
1006.312500,6.666269,5.340221,9.682537,12.616860
1006.316406,11.403255,4.148422,4.984244,6.351834
1006.320312,15.351855,7.594143,8.852606,7.244466
1006.324219,5.728806,10.075172,6.998054,11.769966
1006.328125,9.370733,7.436512,9.248800,9.188629
1006.332031,11.001359,6.807417,12.375857,3.004585
1006.335938,10.346969,9.408204,7.278695,5.741759
1006.339844,3.063928,0.666090,5.637351,12.325371
1006.343750,-1.624404,1.024928,-0.841314,3.619848
1006.347656,1.869452,-0.711769,7.285777,5.298885
1006.351562,-2.511590,3.550783,-3.882232,8.502184
1006.355469,-2.713299,-4.684238,-1.364620,-8.897974
1006.359375,-3.404975,-1.004114,-6.068784,-5.533618
1006.363281,-10.432384,-9.993487,-4.732014,-13.555059
1006.367188,-6.517174,-10.038681,-11.448610,-9.913912
1006.371094,-9.855544,-7.677417,-7.095058,-10.422580
1006.375000,-15.234008,-6.234547,-17.039644,-18.579520
1006.378906,-10.976929,-13.718837,-10.385100,-11.739602
1006.382812,-9.581007,-7.234677,-5.021929,-5.835106
1006.386719,-7.665228,-10.214212,-9.662121,-9.424153
1006.390625,-5.902603,-6.315633,-7.931312,-1.826324
1006.394531,-1.796689,-4.763258,-8.561445,-7.990223
1006.398438,0.358198,-4.097277,0.406729,-2.339687
1006.402344,0.962775,0.069228,3.876518,-3.147233
1006.406250,5.922835,7.694983,10.218970,7.969293
1006.410156,2.291358,7.597099,7.403415,4.374940
1006.414062,2.911533,13.112933,13.317465,3.249076
1006.417969,6.781051,1.829275,13.948895,6.038613
1006.421875,8.891810,12.638895,8.312407,12.841998
1006.425781,2.285113,12.546541,9.973029,7.519442
1006.429688,12.179204,17.870421,8.629226,1.360658
1006.433594,3.110138,12.493564,10.137688,9.922479
1006.437500,3.141917,7.050867,12.504247,2.601091
1006.441406,11.548742,-1.440691,4.729043,6.727912
1006.445312,6.912949,-0.471674,6.259497,8.683072
1006.449219,0.151232,-2.907888,0.929172,-1.573995
1006.453125,8.863805,1.481202,6.697074,5.003740
1006.457031,-6.316040,-9.409777,-5.800475,-5.615216
1006.460938,-9.580669,-4.392286,-6.247268,-5.314652
1006.464844,-5.435262,-4.011404,-11.201521,-12.227699
1006.468750,-2.241091,-14.101099,-5.754181,-11.052429
1006.472656,-17.213019,-11.236099,-10.135222,-4.945843
1006.476562,-5.200585,-8.891934,-9.111885,-16.663272
1006.480469,-8.637167,-6.849541,-3.687068,-7.555020
1006.484375,-4.777854,-3.808921,-8.589266,-5.485991
1006.488281,-0.781355,-8.402352,-5.422241,-7.702637
1006.492188,-6.566847,-0.525142,-3.024342,-5.610976
1006.496094,-15.651831,-6.483745,4.446779,-5.949893
1006.500000,0.623350,-6.568553,5.324350,-2.713489
1006.503906,1.988009,2.631118,-6.607853,-2.593720
1006.507812,4.479841,8.497225,-1.462416,2.469434
1006.511719,10.048613,5.685770,3.228286,7.409638
1006.515625,5.346836,9.943965,9.677706,9.665782
1006.519531,12.151257,-2.343943,8.401569,12.461999
1006.523438,16.039241,11.826428,13.342450,12.331592
1006.527344,14.739717,9.335163,6.459720,8.013119
1006.531250,9.733536,14.683317,8.392047,3.979410
1006.535156,1.201058,8.598214,1.373425,9.625011
1006.539062,5.588964,8.591349,4.916179,4.579962
1006.542969,1.527768,0.009531,4.662280,2.688449
1006.546875,4.199508,-4.422001,8.424340,2.733731
1006.550781,-1.565206,-1.591402,-2.730623,-8.125559
1006.554688,2.993617,2.783613,-6.777345,-1.677715
1006.558594,-3.543588,-9.935697,-2.828184,2.510421
1006.562500,-7.770325,-3.385550,-4.377738,-7.854827
1006.566406,-16.710477,-7.635032,-4.012429,-1.029006
1006.570312,-9.741403,-6.617507,-11.564693,-9.341615
1006.574219,-6.017744,-10.992625,-3.529120,-7.108557
1006.578125,-5.900684,-10.603975,-9.768905,-14.877390
1006.582031,-8.095941,-6.904769,-1.864521,-7.062112
1006.585938,-3.106572,-5.059887,-14.969168,-10.394026
1006.589844,-8.027782,-5.887471,-11.761420,-5.929584
1006.593750,2.045501,-6.863147,3.992126,-7.997819
1006.597656,1.807922,5.428664,0.511314,-4.039980
1006.601562,-1.438297,2.069570,-1.347526,-2.187030
1006.605469,3.290453,8.617268,-4.115957,3.904658
1006.609375,0.320357,-1.038239,4.909277,8.675760
1006.613281,8.564955,15.215910,12.071352,4.696536
1006.617188,10.125121,3.681432,19.077500,9.405538
1006.621094,11.616559,14.534591,11.726468,6.713845
1006.625000,9.531092,10.148382,4.692091,14.812843
1006.628906,7.553795,8.152511,13.279781,19.080834
1006.632812,6.333202,5.021630,2.904694,9.602801
1006.636719,4.918968,11.301297,7.344044,8.772027
1006.640625,2.773108,3.004823,9.588803,1.537272
1006.644531,0.893133,10.904543,4.572859,3.421420
1006.648438,0.237470,-5.759335,1.961784,-2.734332
1006.652344,-3.900065,-4.309637,1.004509,-0.072947
1006.656250,-4.175897,-6.356887,-3.743684,-2.814301
1006.660156,-3.573493,-7.116557,-5.786981,1.282163
1006.664062,-10.948242,-8.465787,-13.516310,-3.110112
1006.667969,-7.278006,-9.869752,-11.512900,-8.797722
1006.671875,-4.562782,-15.683498,-7.869263,-9.812073
1006.675781,-8.810393,-12.244539,-11.345374,-8.030411
1006.679688,-8.068612,-7.436993,-12.477618,-10.745620
1006.683594,-10.268784,-5.698020,-10.957386,-11.862278
1006.687500,-1.049800,-8.386984,-0.425185,-11.156173
1006.691406,-12.108050,-3.896142,2.029223,-5.297748
1006.695312,-2.814901,-5.069183,-1.894764,-2.589102
1006.699219,-9.207486,-5.994032,-3.593823,-2.331542
1006.703125,2.278240,3.615683,-2.911300,2.210793
1006.707031,2.999619,3.087700,3.095814,2.585459
1006.710938,6.684306,11.587207,9.437056,9.628228
1006.714844,11.700868,12.457654,14.216557,3.236719
1006.718750,11.397601,12.246489,8.302415,4.389130
1006.722656,10.173901,8.313024,9.855236,10.302163
1006.726562,14.346806,8.783726,12.573299,9.411251
1006.730469,12.085775,2.871413,12.032409,10.947937
1006.734375,6.489718,8.585653,12.787295,12.867499
1006.738281,-1.531027,4.579094,10.546282,8.789192
1006.742188,6.084958,9.137742,2.632068,5.464298
1006.746094,-0.724267,7.365829,2.209544,-7.609197
1006.750000,0.406170,-0.417766,2.247859,0.140772
1006.753906,0.921191,-3.667464,-4.363534,-3.601573
1006.757812,-0.130570,1.416021,-4.064773,0.876842
1006.761719,-8.436152,-8.441251,-8.094673,-8.145697
1006.765625,-5.115806,-6.545292,-5.812741,-11.638257
1006.769531,-13.845412,-17.879575,-9.707223,-7.812251
1006.773438,-8.436726,-7.158484,-11.689718,-6.456514
1006.777344,-17.171624,-10.719774,-12.288692,-10.189844
1006.781250,-8.635153,-3.283961,-19.487885,-9.935605
1006.785156,-13.981921,-8.097050,-0.697258,-12.480260
1006.789062,-3.379675,-9.002003,-6.810645,-10.137612
1006.792969,-1.338998,-4.738033,-7.798811,-1.747374
1006.796875,-3.159981,-0.752728,-4.226134,1.976027
1006.800781,3.864794,-3.305207,-5.122909,2.452203
1006.804688,6.515572,-4.548637,5.857949,-1.965682
1006.808594,7.359165,-1.775229,2.656451,1.522983
1006.812500,11.468538,7.989501,9.261607,9.485451
1006.816406,12.822461,7.810263,6.963428,15.642995
1006.820312,15.297645,10.970637,9.951651,8.114371
1006.824219,15.007559,6.134459,16.480237,0.135719
1006.828125,12.214536,10.932600,7.070355,2.019906
1006.832031,14.360014,9.252161,6.900742,11.769351
1006.835938,8.550852,11.425629,8.018776,6.815715
1006.839844,1.621681,15.228517,5.377395,9.692939
1006.843750,2.588331,7.337251,2.407404,5.556444
1006.847656,6.219928,-1.415229,1.052821,-3.239346
1006.851562,-4.836313,1.804142,-5.607651,-5.569988
1006.855469,-5.559411,2.966367,-0.779104,-5.082666
1006.859375,-4.561084,-4.301448,-7.285706,-6.078734
1006.863281,-4.529707,-7.977531,-3.243740,-6.911927
1006.867188,-8.658407,-9.968045,-12.658552,-8.149926
1006.871094,-12.202709,-1.014966,-18.496195,-13.230588
1006.875000,-7.328070,-10.947870,-4.823912,-8.212133
1006.878906,-7.828381,-4.058278,-11.666342,-13.635718
1006.882812,-8.871112,-11.906964,-9.439404,-16.282655
1006.886719,-11.005738,-7.429518,-7.940646,-8.026994
1006.890625,-9.423406,3.580971,-9.687687,-2.893974
1006.894531,-4.160120,0.296653,1.019213,-13.110398
1006.898438,-1.894596,0.353209,-0.827391,2.239092
1006.902344,3.540910,1.194466,-5.553810,7.997846
1006.906250,10.540965,-0.724590,4.586402,3.930456
1006.910156,8.133892,7.361581,8.703302,4.704199
1006.914062,5.801448,9.686652,11.259725,8.434524
1006.917969,3.670429,6.348910,6.754758,14.096858
1006.921875,6.022956,5.103503,7.363643,13.774221
1006.925781,13.115738,13.239374,10.562298,5.143511
1006.929688,6.419508,9.462739,8.561922,8.343844
1006.933594,8.417668,15.666992,5.442769,7.867746
1006.937500,3.257385,9.749805,7.954490,-1.072421
1006.941406,1.747391,6.857803,2.856051,8.750719
1006.945312,4.938463,6.653318,0.761930,3.391664
1006.949219,1.709174,4.131846,0.109018,3.161018
1006.953125,-0.257169,1.682327,-1.893734,-0.755812
1006.957031,1.458874,-8.240073,-5.906205,4.440851
1006.960938,-11.421068,-7.224668,-11.381905,-3.751190
1006.964844,-10.102190,-16.504749,-5.482727,-6.470884
1006.968750,-11.903446,-9.093206,-9.614046,-7.484125
1006.972656,-7.276103,-8.788409,-8.188451,-8.349637
1006.976562,-5.328155,-10.011219,-14.032923,-9.580387
1006.980469,-13.281252,-13.805219,-8.973501,-13.090450
1006.984375,-0.433024,-6.175593,-9.781591,-2.224535
1006.988281,-8.375195,-9.049299,-3.569612,-11.131641
1006.992188,-1.671799,-4.378660,-8.557180,-2.502860
1006.996094,-14.051164,-0.339844,-0.546927,-3.037132
1007.000000,-0.140640,2.813596,4.250673,-1.978649
1007.003906,6.676547,11.975263,7.296919,2.040134
1007.007812,0.817650,5.521148,5.402694,6.710219
1007.011719,2.427071,8.700190,10.990312,6.132021
1007.015625,7.533580,10.818674,3.798492,8.361917
1007.019531,13.684930,9.355507,10.968520,10.341469
1007.023438,11.739570,11.995887,13.909538,3.117537
1007.027344,1.654133,7.844105,10.493342,16.180501
1007.031250,7.523109,11.725682,15.666409,0.981486
1007.035156,11.522494,7.896938,6.731586,5.097744
1007.039062,-1.135782,6.931308,2.150040,0.108664
1007.042969,6.782625,7.944719,0.307757,-1.827440
1007.046875,8.044542,1.806221,1.918308,-2.622758
1007.050781,-4.252996,-2.116994,-2.721917,2.091293
1007.054688,-5.954402,1.924535,-3.439985,-7.288002
1007.058594,-2.844902,-1.804325,-7.134917,2.514055
1007.062500,-9.167021,-4.518324,-5.021482,-4.989006
1007.066406,-1.565088,-14.282114,-20.574176,-13.297115
1007.070312,-13.026020,-3.586243,-14.775097,-8.689893
1007.074219,-11.136121,-13.374086,-21.458515,-9.063424
1007.078125,-11.744272,-2.397852,-18.733279,-12.334450
1007.082031,-14.061598,-10.480880,-6.804264,-17.024406
1007.085938,-8.515370,-10.561510,-3.866883,-7.458021
1007.089844,-5.042487,0.283672,-5.002346,-2.190240
1007.093750,3.560982,0.356349,-0.970754,-0.923179
1007.097656,0.082007,2.494846,1.653462,-4.527169
1007.101562,-5.179631,0.858974,-1.293895,-8.760498
1007.105469,2.449921,10.084355,4.158790,3.560494
1007.109375,6.264789,6.501453,5.885167,1.960187
1007.113281,9.265070,6.769248,7.251957,14.216273
1007.117188,9.420222,10.565986,10.231227,2.933184
1007.121094,8.303709,16.996334,9.475696,8.741769
1007.125000,10.729447,8.488775,13.827703,15.478357
1007.128906,14.023716,7.834581,16.459072,5.897342
1007.132812,14.580348,14.524592,0.361497,18.514810
1007.136719,5.343459,2.680711,7.481635,6.438959
1007.140625,-1.116703,7.179136,0.076505,-2.915722
1007.144531,0.123298,-1.306722,5.565647,2.906719
1007.148438,0.352142,-1.810314,-4.834668,-1.699563
1007.152344,3.078040,-1.475042,1.063092,-3.483465
1007.156250,-0.786426,-3.257580,-2.924994,-0.126883
1007.160156,-8.873276,-6.548614,-8.881586,-1.652152
1007.164062,-15.236239,-7.621761,-7.904107,-17.077700
1007.167969,-4.495205,-9.034373,-6.074830,-8.704238
1007.171875,-7.058616,-14.809504,-12.534580,-18.275487
1007.175781,-7.710514,-5.572797,-6.223520,-12.354849
1007.179688,-10.882975,-6.431955,-12.024454,-10.152419
1007.183594,-5.735453,-14.768166,-6.744793,-12.543973
1007.187500,-5.073634,-4.110487,-8.582581,-11.598617
1007.191406,-3.038048,-4.205766,-0.841089,-6.935419
1007.195312,-3.016432,4.109746,0.138115,-5.215115
1007.199219,-1.125465,-4.401799,1.598692,-2.700588
1007.203125,2.920004,-2.071141,11.265310,4.152130
1007.207031,6.373230,2.808835,-0.102734,4.207930
1007.210938,5.123230,-1.148328,10.296210,1.091292
1007.214844,5.563677,10.218766,10.764290,10.835839
1007.218750,9.836995,9.537572,11.358501,7.556164
1007.222656,7.807156,6.739082,15.261560,8.532153
1007.226562,7.851159,11.911215,10.264215,6.678716
1007.230469,12.123965,4.010279,11.797198,8.195940
1007.234375,10.816415,10.999926,13.105748,3.701762
1007.238281,6.304345,10.261883,10.321321,3.556337
1007.242188,7.565848,-1.834639,-0.673708,0.712074
1007.246094,4.353939,-2.196829,7.481404,10.761449
1007.250000,-6.400021,4.174184,-3.146725,2.007930
1007.253906,-5.885227,-2.746079,1.619399,-0.542446
1007.257812,-8.818376,-12.864759,-5.198343,-3.844514
1007.261719,-7.029916,-9.261421,-6.732287,-6.423564
1007.265625,-1.627783,-10.211365,-8.208601,-6.244550
1007.269531,-4.169943,-12.945021,-17.875497,-6.341574
1007.273438,-8.382214,-9.783973,-8.901553,-7.818570
1007.277344,-14.876712,-12.774259,-11.519195,-9.828326
1007.281250,-5.948245,-12.660575,-10.329934,-8.037358
1007.285156,-5.348054,-1.690943,-9.775489,-10.711765
1007.289062,-12.566695,-11.422490,-6.716643,-9.023398
1007.292969,-7.052552,-6.837135,-5.033492,-1.156581
1007.296875,-1.828083,-6.687206,1.781032,3.080094
1007.300781,-13.552156,-4.576862,0.731143,-3.767923
1007.304688,5.218426,0.841633,9.009712,7.389363
1007.308594,7.852016,5.834188,5.019711,3.150990
1007.312500,10.165231,6.848762,7.111193,7.180188
1007.316406,11.756939,7.002691,-4.863874,16.416466
1007.320312,7.674167,16.345895,8.848490,9.896960
1007.324219,8.145633,7.651400,21.414830,9.202881
1007.328125,7.512661,4.080746,15.097230,6.776204
1007.332031,13.194111,8.453765,9.832640,12.335093
1007.335938,8.600355,8.174923,6.558194,4.477888
1007.339844,9.813997,7.575699,4.897595,7.850895
1007.343750,2.815985,0.749622,1.896848,1.477919
1007.347656,-5.890513,-5.735037,3.554658,-3.345487
1007.351562,0.618419,3.426479,-2.243274,0.888014
1007.355469,-0.547965,-4.225263,-3.321624,1.618046
1007.359375,-10.685756,0.958570,-3.759736,-11.055725
1007.363281,-10.020600,-10.830855,-2.400206,-5.110621
1007.367188,-5.410255,-5.179834,-7.351652,-8.475262
1007.371094,-15.717061,-7.681680,-9.858117,-2.232019
1007.375000,-11.131591,-13.162345,-14.349985,-5.699199
1007.378906,-15.034389,-9.359505,-10.159754,-12.694526
1007.382812,0.549659,-9.762089,-6.856753,-6.567295
1007.386719,-4.881673,-10.001670,-12.889307,-4.859788
1007.390625,-8.504430,-3.447868,-7.133117,0.147975
1007.394531,1.534421,-3.991185,1.956053,-4.922910
1007.398438,1.573912,-1.836038,-3.461456,-1.493311
1007.402344,3.873748,9.170776,-0.726194,3.560402
1007.406250,1.758116,10.218052,5.139005,-2.539475
1007.410156,10.569127,-2.235052,7.610715,6.103440
1007.414062,6.191533,2.601907,1.293502,11.738950
1007.417969,10.181477,-0.605914,4.122190,14.173858
1007.421875,14.264418,17.259797,10.035655,6.845946
1007.425781,20.054915,8.708335,7.788221,12.685414
1007.429688,0.188803,14.049571,4.048824,9.378630
1007.433594,17.154191,8.999328,7.466162,13.194834
1007.437500,5.610414,0.549833,6.955538,2.250129
1007.441406,7.088784,0.033541,6.594327,-2.820016
1007.445312,-2.791381,-2.562121,7.494171,5.875361
1007.449219,6.259663,0.404553,7.411031,-0.210696
1007.453125,-9.098449,-3.534399,-6.513581,0.549284
1007.457031,-4.854835,-4.541961,-1.168294,-6.312345
1007.460938,-10.452861,-5.432332,2.211866,-7.638472
1007.464844,-2.662440,-3.536273,-9.118680,-3.213852
1007.468750,-7.584221,-4.637310,-4.280515,-0.657511
1007.472656,-15.955596,-9.512749,-12.042754,-13.564040
1007.476562,-16.226561,-10.788591,-13.700330,-10.796167
1007.480469,-16.238245,-4.681252,-12.912336,-9.008464
1007.484375,-9.363490,-0.877745,-8.946582,-6.355710
1007.488281,-3.590305,-0.772714,-11.040562,-11.685880
1007.492188,-7.303922,2.589025,-2.823692,-1.763454
1007.496094,-3.902324,-7.759511,-11.037218,-3.388798
1007.500000,-3.505698,2.203847,-0.605806,-1.152921
1007.503906,6.464255,-0.754923,5.945162,1.688117
1007.507812,3.809377,13.705026,2.833707,11.580919
1007.511719,4.576096,8.809801,-2.620686,2.994446
1007.515625,4.714334,10.913615,12.830225,11.628892
1007.519531,10.640883,8.908537,10.946612,16.312508
1007.523438,8.668221,9.337783,5.569154,18.878054
1007.527344,8.602105,12.342380,12.127152,10.602163
1007.531250,10.055335,2.640771,12.678573,11.069148
1007.535156,11.151251,10.386688,3.881883,12.808044
1007.539062,6.932797,3.143311,3.684592,8.810475
1007.542969,3.748034,5.745025,3.074236,1.647450
1007.546875,5.916546,6.917891,0.785343,3.903022
1007.550781,-2.931503,1.795934,3.207353,-2.554695
1007.554688,-2.831578,-5.683432,3.844303,5.142948
1007.558594,-4.039222,-7.770970,-10.620020,-7.054436
1007.562500,-9.919929,-9.254684,-11.224969,-8.247217
1007.566406,-7.452906,-12.692229,-10.974900,-13.266098
1007.570312,-7.995264,-17.053683,-8.783410,-3.762174
1007.574219,-9.201050,-8.787030,-9.227657,-1.299919
1007.578125,-15.560550,-15.150247,-10.833183,-9.254723
1007.582031,-9.068261,-12.149071,-9.300154,-7.137224
1007.585938,-7.106094,-10.309519,-16.107204,-2.419419
1007.589844,2.712608,-5.529965,-4.087881,-0.446478
1007.593750,-9.063065,-3.854766,-0.592591,-9.648108
1007.597656,1.618194,-2.632761,0.426154,-2.160628
1007.601562,1.014577,-1.064345,0.081542,-1.159119
1007.605469,1.251290,0.047223,-0.383045,-0.292626
1007.609375,13.488199,8.160591,1.373901,4.223689
1007.613281,15.778601,4.982704,5.419588,7.393991
1007.617188,10.712585,8.873373,6.120932,10.056068
1007.621094,13.366761,6.278391,9.460576,7.187333
1007.625000,11.132082,11.806417,1.136777,7.258891
1007.628906,7.966405,4.577296,1.351662,15.042912
1007.632812,7.759579,19.373419,7.950300,6.067256
1007.636719,6.793239,7.029057,6.371536,17.630599
1007.640625,4.057631,7.295505,6.904034,5.136772
1007.644531,-0.293742,1.994315,-2.664298,7.413686
1007.648438,2.102150,-2.167673,-2.214329,5.289905
1007.652344,4.740556,2.176000,-8.844101,3.115165
1007.656250,-9.183584,-9.117294,-2.780307,0.861771
1007.660156,-7.161659,-3.242094,-1.480477,-12.853000
1007.664062,-1.231515,-8.060621,-16.795152,-14.030521
1007.667969,-8.844092,-5.193695,-12.141693,-15.576201
1007.671875,-4.881773,-17.098825,-12.521324,-10.319565
1007.675781,-17.804250,-8.582364,-8.932157,-12.011164
1007.679688,-8.514712,-12.920916,-15.453475,-8.267675
1007.683594,-11.675419,-10.083494,-6.944756,-14.032484
1007.687500,-6.934354,-3.067923,-9.362735,-5.448418
1007.691406,3.780853,-0.789823,-9.003416,-9.576441
1007.695312,-10.626377,-10.594232,-2.696226,-5.167912
1007.699219,5.217165,-0.383344,1.802281,-3.266323
1007.703125,11.309653,3.766753,-0.059305,8.051327
1007.707031,6.965604,-3.731222,3.874646,6.006082
1007.710938,14.511034,8.585376,5.001503,10.046316
1007.714844,5.750679,12.754467,11.517404,1.308947
1007.718750,9.647955,11.661020,4.605286,11.001263
1007.722656,11.869349,14.487208,14.918930,14.225666
1007.726562,11.399222,6.727017,11.679887,9.813471
1007.730469,3.368009,11.997234,10.567154,10.358916
1007.734375,5.676131,7.789525,12.524883,7.761904
1007.738281,6.478013,12.279452,8.536437,3.661276
1007.742188,-4.380885,7.993137,7.268477,6.538149
1007.746094,9.350510,4.596543,2.735921,7.741614
1007.750000,5.389932,7.368444,-1.350462,-2.557364
1007.753906,2.988657,-0.774115,4.120442,-3.021844
1007.757812,-8.251072,-5.303736,-5.774310,-3.687991
1007.761719,-2.382997,-3.210357,-5.704077,-5.376190
1007.765625,-5.793318,-5.274101,-10.012688,-9.770699
1007.769531,-13.264064,-7.984149,-9.525320,-9.728626
1007.773438,-5.672449,-6.568307,-10.977065,-4.235456
1007.777344,-16.186833,-10.323993,-12.320736,-9.016446
1007.781250,-10.551394,-5.905422,-6.905740,-8.138659
1007.785156,-11.191102,-12.052853,-7.364491,-3.938901
1007.789062,-4.953793,-0.364173,-4.021314,-0.005338
1007.792969,-5.606834,-8.211793,-2.192418,-9.026076
1007.796875,-2.670316,-0.779246,0.422599,2.023730
1007.800781,-0.054087,-1.361045,6.406761,7.064406
1007.804688,2.655206,2.015111,-4.495043,-9.073534
1007.808594,9.500378,2.681510,10.741768,3.756565
1007.812500,10.348071,8.094228,7.171786,2.301984
1007.816406,10.934364,7.305453,5.972705,8.411873
1007.820312,12.121221,13.774806,7.012687,5.719001
1007.824219,5.240512,6.068678,11.303419,6.757799
1007.828125,9.147581,15.777669,12.024454,11.595881
1007.832031,7.984254,8.387617,12.710282,2.237035
1007.835938,5.397748,4.497449,11.240421,5.556633
1007.839844,8.308430,8.221705,3.047568,12.317613
1007.843750,9.347961,9.712676,-1.881539,5.389125
1007.847656,1.781908,1.617628,-0.138610,1.096565
1007.851562,1.069780,-2.560460,2.123058,-2.271415
1007.855469,-12.885207,-4.889557,0.470037,-10.029408
1007.859375,0.287481,-8.212382,-11.918954,-6.243199
1007.863281,-6.350657,-6.645131,-5.325293,-4.602888
1007.867188,-10.789396,-5.731977,-14.748090,-7.037545
1007.871094,-9.796782,-9.055688,-9.595785,-15.400708
1007.875000,-7.022856,-16.717366,-10.194123,-13.702150
1007.878906,-2.982690,-9.203632,-7.118820,-8.739278
1007.882812,-10.014640,-7.931690,-5.289067,-14.482521
1007.886719,-8.448538,-14.918164,-3.502943,-11.212645
1007.890625,-3.573981,-10.400510,-8.473344,-2.514469
1007.894531,-11.901958,-11.234425,-10.696039,2.449520
1007.898438,-2.629189,-6.314707,0.745711,-0.334680
1007.902344,-0.900246,7.942094,0.429983,0.882118
1007.906250,9.350123,0.229490,-0.216543,11.317780
1007.910156,0.863519,9.124799,5.531112,6.816436
1007.914062,8.249431,7.858756,11.464820,2.470118
1007.917969,15.168836,13.852691,13.322823,3.533736
1007.921875,3.399938,4.041048,9.301528,7.282924
1007.925781,12.436706,11.420098,7.077990,11.850850
1007.929688,8.957897,9.799857,8.618920,15.279065
1007.933594,11.764115,6.900656,13.940042,9.528735
1007.937500,15.101802,3.840670,10.798107,5.371996
1007.941406,5.741482,10.434754,2.534277,1.410316
1007.945312,9.322147,6.427732,9.197358,7.554955
1007.949219,1.535655,2.877271,5.471830,-7.264127
1007.953125,-0.428855,-0.800529,0.637299,-1.016483
1007.957031,-7.018150,-4.944435,-1.300104,-4.546380
1007.960938,-2.538574,-9.026526,-3.588424,-4.672330
1007.964844,-3.664864,2.894216,-9.327859,-10.002243
1007.968750,-10.592032,-13.336613,-3.546826,-7.013357
1007.972656,-7.121581,-6.825430,-6.203461,-13.348624
1007.976562,-0.659868,-9.646929,-9.823745,-12.042321
1007.980469,-12.815861,-8.768662,-4.779045,-13.518411
1007.984375,-8.117549,-5.715033,-11.088583,-14.840651
1007.988281,-3.898800,-15.353404,-8.558795,-3.333492
1007.992188,-0.553601,-9.627658,-0.265393,3.870987
1007.996094,-0.112951,-3.851654,-4.768922,-0.005591
1008.000000,-6.214597,-8.867337,-3.695261,0.975976
1008.003906,-1.460275,1.965565,1.671355,1.856498
1008.007812,3.547063,1.715904,11.204577,3.633480
1008.011719,7.368653,7.570235,7.897053,9.428638
1008.015625,13.227498,13.566642,0.743081,7.516233
1008.019531,15.572545,14.751719,14.527199,8.103565
1008.023438,4.966647,13.312129,9.367874,14.262823
1008.027344,2.814451,12.171586,18.415193,10.495018
1008.031250,9.332587,8.642452,7.948065,5.604112
1008.035156,7.129028,13.811704,9.234138,6.563139
1008.039062,0.086312,5.463927,5.013055,9.308319
1008.042969,0.590901,7.331161,4.657768,-0.531425
1008.046875,-2.845612,1.147619,7.544785,-3.701637
1008.050781,5.742959,3.887302,-6.136291,-1.069744
1008.054688,-5.914224,-10.755462,-4.754176,-10.344546
1008.058594,-8.638205,-8.892136,-0.446960,-8.934670
1008.062500,-7.560691,-5.224250,-9.604071,-8.577728
1008.066406,-8.108089,-9.586090,-8.218466,-6.598929
1008.070312,-15.921320,-9.616795,-9.312111,-12.163480
1008.074219,-12.701245,-9.644928,-10.431654,-4.594649
1008.078125,-9.785312,-7.088693,-5.680145,-15.911693
1008.082031,-12.271971,-8.962090,-7.902194,-0.160930
1008.085938,-15.613355,-7.781922,2.310196,-10.408851
1008.089844,-6.429614,-2.830845,-5.523682,-8.471327
1008.093750,-2.197014,-3.245880,-4.425966,-6.964737
1008.097656,1.228782,-2.916323,4.767299,-2.238202
1008.101562,-2.318092,1.300957,3.369120,-3.296399
1008.105469,-0.886697,4.816678,-0.827750,11.960029
1008.109375,10.044760,8.943249,9.046867,1.358873
1008.113281,5.575963,14.476406,8.849858,9.977058
1008.117188,9.599813,7.512564,7.117910,6.016258
1008.121094,18.609428,11.295676,14.421942,12.894402
1008.125000,13.061171,6.186050,11.595531,6.318646
1008.128906,7.214749,11.117998,11.588554,10.674563
1008.132812,4.051045,1.865567,11.459066,3.087334
1008.136719,7.586724,10.450633,6.622649,8.186128
1008.140625,5.567186,3.273690,-0.220843,6.467824
1008.144531,3.952530,4.839591,8.924604,1.192704
1008.148438,-4.730707,0.841194,9.736919,-0.085534
1008.152344,-4.111332,-4.391901,-2.245739,1.235312
1008.156250,0.413507,-6.310910,-3.261211,-8.463780
1008.160156,-0.999060,-7.921693,-8.804106,-8.963350
1008.164062,-2.412488,-8.600064,-9.398924,-7.658848
1008.167969,-3.279734,-17.388892,-5.047406,-16.128453
1008.171875,-4.716897,-11.504776,-14.249904,-6.573996
1008.175781,-2.193648,-7.629509,-10.850507,-9.354520
1008.179688,-11.331557,-10.388291,-1.710847,-12.093608
1008.183594,-10.443097,-6.649743,-10.148774,-3.255054
1008.187500,-1.217942,-7.577506,-4.765162,-2.794843
1008.191406,0.261548,-2.447610,-6.037352,-1.436722
1008.195312,3.763673,-5.509045,5.818281,-6.142323
1008.199219,3.139419,1.276491,-1.694065,2.119141
1008.203125,2.040699,2.037220,7.158022,1.970546
1008.207031,1.834048,2.447946,5.725359,9.427702
1008.210938,4.720266,15.697359,5.223961,2.586868
1008.214844,18.296491,3.904108,8.258467,1.226357
1008.218750,17.742155,12.708659,7.530829,3.767865
1008.222656,17.114995,16.013476,9.010205,4.753889
1008.226562,2.858289,11.235227,12.094116,16.911200
1008.230469,10.566589,4.889686,13.257990,15.657628
1008.234375,4.976180,6.622837,1.823603,8.878739
1008.238281,1.473811,5.856819,-0.902017,11.567471
1008.242188,3.557653,-2.362410,2.982906,8.417388
1008.246094,5.969213,3.339872,4.675607,5.143168
1008.250000,0.465031,-3.215978,-5.209418,4.230717
1008.253906,-6.463865,3.649796,2.649662,-0.008601
1008.257812,-5.991141,-4.663391,1.267165,-9.564250
1008.261719,-5.786651,-0.897526,-3.886913,-4.885050
1008.265625,-5.327640,-6.115447,-9.187068,-0.419649
1008.269531,-6.337831,-8.064860,-10.454169,-7.171857
1008.273438,-8.780957,-9.697864,-8.436103,-11.100732
1008.277344,-5.537246,-10.716986,-13.285390,-13.147339
1008.281250,-10.622549,1.717128,-9.124810,-11.334435
1008.285156,-10.137478,-4.396009,-7.598151,-6.723462
1008.289062,1.539906,-4.918637,-10.483888,-2.709951
1008.292969,-1.710954,-5.797355,2.754309,-1.054637
1008.296875,5.205802,2.288460,-5.477705,-5.840644
1008.300781,-4.295312,-7.478573,-3.349538,-0.131672
1008.304688,3.716463,6.302300,2.072449,1.865727
1008.308594,12.005350,11.791239,0.603022,7.595621
1008.312500,5.098801,-2.101823,11.611177,7.596219
1008.316406,5.502443,7.720316,10.985302,1.278821
1008.320312,8.970262,7.562545,8.035136,4.302395
1008.324219,8.522956,10.183839,9.853855,12.863521
1008.328125,9.765904,12.960649,0.980881,7.482011
1008.332031,5.387811,3.802909,18.958608,5.151483
1008.335938,5.691785,7.379670,17.924480,12.417900
1008.339844,3.781693,5.719097,8.956176,4.086628
1008.343750,3.009497,2.920945,3.635888,-1.124405
1008.347656,-5.651555,-0.125580,-0.740452,1.704181
1008.351562,-3.589675,-11.844779,-2.963843,-3.144355
1008.355469,-5.805704,-4.029227,-2.927065,-0.188716
1008.359375,-0.376654,-5.071902,-8.944409,-7.053161
1008.363281,-15.233443,-10.658269,-5.896375,-6.933311
1008.367188,-14.192846,-11.170928,-8.269153,-3.452371
1008.371094,-13.092668,-11.977338,-14.637128,-16.975319
1008.375000,-8.858761,-13.551698,-12.985700,-5.371052
1008.378906,-16.721211,-11.930471,-10.236333,-12.016547
1008.382812,-9.219588,-4.456307,-13.054606,-12.425527
1008.386719,0.701236,-4.627860,-2.752854,-6.804502
1008.390625,-4.144479,-9.038354,0.431770,-4.847136
1008.394531,4.631379,-2.470685,-0.765645,-1.484321
1008.398438,-4.525516,1.495760,2.831423,5.025920
1008.402344,1.553830,-1.455420,1.047095,7.130596
1008.406250,0.570774,1.271146,-1.061498,1.468455
1008.410156,8.422291,2.279974,3.664961,8.734708
1008.414062,8.933353,10.408979,11.435227,16.772073
1008.417969,9.146827,12.142595,7.143630,10.866612
1008.421875,2.324011,14.582235,13.661091,16.506738
1008.425781,3.810109,9.542917,9.854099,12.910282
1008.429688,15.414716,11.728157,14.272020,4.122528
1008.433594,10.455967,3.973067,8.093149,9.071008
1008.437500,-0.989987,4.978159,1.545112,6.009270
1008.441406,6.609906,-2.076421,5.294941,7.136111
1008.445312,0.815706,3.756968,3.180757,1.338589
1008.449219,3.769380,-10.035965,3.167705,2.860090
1008.453125,-7.352918,-5.280085,0.704174,-7.341161
1008.457031,-8.294366,-11.427588,-7.874735,-6.803512
1008.460938,-6.116364,-12.816896,-11.765141,-5.311764
1008.464844,-15.045671,-3.701406,-3.697359,-13.821813
1008.468750,-6.756627,-13.492448,-6.717421,-15.123574
1008.472656,1.528557,-7.565919,-6.668027,-9.910465
1008.476562,-9.956781,-14.304345,-11.268132,-14.597255
1008.480469,-10.866909,-7.064355,-10.162997,-2.677972
1008.484375,-6.564974,-8.488697,-9.267052,-5.562935
1008.488281,-0.884348,-1.533911,-6.055324,2.391073
1008.492188,-7.269928,0.292427,-1.376587,-1.830449
1008.496094,-3.578824,-3.069023,-7.500115,-8.399330
1008.500000,-9.222827,8.930125,6.109283,-4.843027
1008.503906,1.238431,-0.796611,4.534531,7.003130
1008.507812,5.776719,8.887705,3.692352,3.216753
1008.511719,3.265084,10.425904,4.613110,8.471482
1008.515625,4.083255,9.835158,8.822870,5.894157
1008.519531,7.418717,0.014236,9.182956,8.039582
1008.523438,11.409261,5.769736,3.265010,17.255538
1008.527344,12.062300,9.312462,7.153840,4.989514
1008.531250,5.880620,6.038965,12.813579,5.713666
1008.535156,14.096068,8.611072,7.632743,9.097173
1008.539062,2.310133,0.644266,5.258414,2.154052
1008.542969,3.564217,5.346624,1.175950,2.222789
1008.546875,5.271017,6.339520,5.921152,-1.532974
1008.550781,4.771704,-6.586476,-1.711025,-0.626571
1008.554688,0.608612,-10.099167,-5.955605,0.512941
1008.558594,-9.217195,-2.012884,-5.778865,-1.297235
1008.562500,-9.126286,-1.755516,-1.987981,-8.128545
1008.566406,-10.047893,-9.700281,-9.403263,-4.006579
1008.570312,-8.403570,-16.585415,-8.425088,-10.338917
1008.574219,-7.860979,-8.828276,-13.722424,-9.633951
1008.578125,-10.268465,-8.823488,-14.012214,-6.016190
1008.582031,-2.130505,-2.677869,-4.250815,-7.771023
1008.585938,-5.573788,-7.314351,-19.114235,-6.072178
1008.589844,-11.345714,-2.667595,-5.766656,-13.354134
1008.593750,-3.690458,-3.646396,-2.179444,1.520182
1008.597656,-4.570989,-1.554676,-8.142047,3.695865
1008.601562,10.217363,-1.804537,2.478480,6.191844
1008.605469,4.699159,2.228741,0.515225,2.856456
1008.609375,9.375079,6.391239,11.649130,-0.810039
1008.613281,5.476016,-2.102332,9.040179,7.502541
1008.617188,5.995436,7.029020,9.173823,17.034864
1008.621094,10.363300,8.478234,11.795298,8.965026
1008.625000,11.887813,15.811959,8.718923,11.096370
1008.628906,11.256800,12.823624,8.444372,6.689477
1008.632812,7.200451,12.313488,11.235930,3.970425
1008.636719,4.592156,3.323483,6.200726,-0.939387
1008.640625,8.180467,9.649213,4.267859,2.100605
1008.644531,7.483592,2.355327,3.760217,12.070951
1008.648438,-5.766557,-3.080291,4.258533,2.802947
1008.652344,-1.197823,7.997846,-4.742777,-0.023715
1008.656250,-3.690144,-6.484067,-1.321806,-8.058887
1008.660156,-3.181399,-3.801289,0.256817,-7.511234
1008.664062,0.140435,-8.158924,-10.534220,-8.018271
1008.667969,-11.831498,-10.030190,-11.575935,-6.724007
1008.671875,-11.996676,-6.806301,-12.464623,-2.269640
1008.675781,-9.564575,-8.801542,-16.501964,-12.774108
1008.679688,-11.103615,-10.382825,-10.466212,-10.545924
1008.683594,-8.003148,-9.529665,-10.578558,-9.085476
1008.687500,-4.775673,-12.237044,1.176918,-17.990704
1008.691406,-9.724466,0.470756,-4.715772,-9.076559
1008.695312,-5.900140,0.962308,-3.924372,-2.171526
1008.699219,-0.915295,1.329304,10.142148,1.460409
1008.703125,-1.381276,12.532810,2.761564,-1.686770
1008.707031,3.483168,7.126713,2.880561,6.669750
1008.710938,13.029216,3.733731,6.890078,-2.438141
1008.714844,3.053049,6.143149,4.960144,3.666293
1008.718750,10.955140,8.466282,11.885164,9.129807
1008.722656,14.238058,5.137550,11.922266,4.791946
1008.726562,9.098633,15.646579,9.672345,11.365174
1008.730469,4.694438,11.854976,12.729903,12.002261
1008.734375,6.481902,11.106333,13.144105,-0.174510
1008.738281,11.374719,5.410778,9.005862,5.368845
1008.742188,7.294387,4.672837,6.321940,4.635500
1008.746094,6.567553,0.893827,1.100773,5.764492
1008.750000,-6.032443,2.175603,1.554772,-2.583962
1008.753906,6.875481,-1.128648,0.140754,-4.946580
1008.757812,-8.674873,2.948842,-5.576692,-2.012256
1008.761719,-6.274957,-10.381777,-5.451362,-8.434700
1008.765625,-7.292748,-7.922547,-15.573384,-10.506716
1008.769531,-13.112502,-13.881290,-9.073235,-9.768909
1008.773438,-5.610134,-11.416802,-1.892446,-7.229645
1008.777344,-10.166904,-13.013413,-12.896667,-13.957361
1008.781250,-5.310669,-5.636337,-9.513796,-5.294194
1008.785156,-5.007955,-9.013531,-12.254880,-13.132231
1008.789062,-3.574074,-0.064954,-8.799051,-8.069539
1008.792969,-7.639828,-6.965806,-1.246538,-9.301050
1008.796875,-5.677898,0.955568,-0.495842,-3.760983
1008.800781,-2.164339,1.638549,-4.774076,1.237063
1008.804688,3.102845,3.675120,7.511155,-6.777083
1008.808594,-3.869028,10.296537,12.524985,0.332859
1008.812500,11.986955,11.287249,12.577552,13.692946
1008.816406,15.735307,6.560163,-1.059396,13.649042
1008.820312,6.512441,12.625780,8.370618,15.779400
1008.824219,7.580830,13.621119,6.112203,7.116029
1008.828125,9.165851,7.402204,8.751485,5.970623
1008.832031,8.159523,7.150805,9.458903,11.049403
1008.835938,10.354934,6.837186,10.121831,11.958266
1008.839844,7.327904,7.801895,11.497650,8.549901
1008.843750,9.711086,10.629344,1.261678,5.831754
1008.847656,-5.600762,-2.349156,5.862825,3.758713
1008.851562,1.429006,-2.405385,3.287708,-2.113169
1008.855469,-6.586582,-4.224060,-1.939021,-6.413603
1008.859375,2.026086,-9.012361,-7.470433,-15.598875
1008.863281,-9.844274,-9.059327,-7.511786,-5.178037
1008.867188,-1.036488,-3.774005,-5.963284,-9.722523
1008.871094,-7.793341,-13.850952,-12.100123,-15.145731
1008.875000,-10.735783,-13.319205,-17.507598,-8.088362
1008.878906,-4.427006,-9.651112,-10.099531,-7.006980
1008.882812,-14.820844,-10.271984,-3.406686,0.929894
1008.886719,-10.043078,-3.741959,-8.298608,-8.802818
1008.890625,-6.217894,-9.037731,0.378207,-2.674692
1008.894531,0.407555,1.662815,-11.318546,-4.853862
1008.898438,1.932210,4.769445,-1.995519,-7.845066
1008.902344,0.130726,1.278020,2.730894,0.159002
1008.906250,2.691402,5.047487,1.121756,6.842489
1008.910156,6.789914,3.037949,6.822200,7.619498
1008.914062,8.803625,11.400183,7.874605,8.688810
1008.917969,10.610074,13.327117,15.240330,14.893925
1008.921875,11.442876,18.485513,8.818040,14.757266
1008.925781,12.930857,4.265519,9.560764,4.560837
1008.929688,13.581531,9.268786,4.335449,11.502514
1008.933594,1.762684,12.740331,6.350052,10.171425
1008.937500,1.746679,8.727500,12.741827,8.459119
1008.941406,8.092596,6.010573,3.376387,4.590938
1008.945312,-1.265886,6.612026,0.425400,3.408359
1008.949219,-0.913367,0.147126,-1.507589,2.800920
1008.953125,-3.651528,-3.506439,-7.847615,9.963607
1008.957031,-1.817174,-11.226610,-5.004882,-4.080125
1008.960938,-10.007488,-9.257188,-8.376340,-5.713357
1008.964844,4.293860,-3.414576,-4.226376,0.675075
1008.968750,-12.868852,-12.531337,-7.929763,-5.596410
1008.972656,-5.941640,-10.996176,-6.476719,-14.784678
1008.976562,-9.768096,-6.487879,0.080105,-9.794538
1008.980469,-17.867395,-8.366367,-9.458538,-11.999833
1008.984375,-10.343226,-8.942055,-1.479859,-6.959153
1008.988281,-7.310774,-8.058552,-7.404404,-18.637142
1008.992188,-10.361102,-5.033904,-3.396511,-1.906551
1008.996094,-2.509243,-0.172788,-2.461321,0.978311
1009.000000,-0.090354,-3.212622,3.230053,4.849384
1009.003906,10.573379,-1.897727,3.784399,6.289188
1009.007812,4.868235,3.562829,5.058895,8.308162
1009.011719,8.749090,8.651339,10.309153,10.258270
1009.015625,9.896993,8.527978,3.523234,1.505366
1009.019531,5.851768,4.970583,12.142371,6.262428
1009.023438,8.084230,15.611079,12.254546,8.851257
1009.027344,4.402686,10.450046,6.150132,4.853880
1009.031250,9.735257,6.785866,17.524418,9.639736
1009.035156,14.064067,13.152271,-0.889401,6.773384
1009.039062,5.614095,9.625880,7.546264,6.190923
1009.042969,1.558338,10.724893,9.118891,-0.852553
1009.046875,1.427914,-0.563740,3.590083,1.219633
1009.050781,-7.812679,-1.841355,-1.456708,-1.249488
1009.054688,-5.952400,-4.523114,3.255845,-10.270166
1009.058594,-11.677030,-3.663886,-4.879603,-5.919318
1009.062500,-13.157574,-9.101350,-9.588822,0.167400
1009.066406,-8.685541,-9.767822,-1.264606,-5.971378
1009.070312,-4.153101,-17.276953,-13.935607,-9.472306
1009.074219,-7.675359,-6.981363,-10.250077,-4.742677
1009.078125,-10.654157,-7.646448,-3.588025,-14.703480
1009.082031,-9.348415,-10.601423,-16.350116,-6.115894
1009.085938,-8.416188,-0.147651,-4.426927,-7.663714
1009.089844,0.645994,-7.201908,-9.010361,-3.454631
1009.093750,-2.293063,-9.137912,-1.592248,-4.396466
1009.097656,-2.471681,-3.016708,-7.219375,-1.217389
1009.101562,2.865394,1.970079,-1.742569,-2.236512
1009.105469,9.669044,3.521936,1.166978,5.538074
1009.109375,0.337150,-0.017248,7.952981,6.561735
1009.113281,12.222428,9.499722,2.663321,1.990874
1009.117188,4.751203,7.862394,5.255920,6.469319
1009.121094,10.127356,3.753816,3.833010,8.833889
1009.125000,8.106664,12.200379,0.374117,8.536703
1009.128906,9.463592,1.781183,10.782165,13.000420
1009.132812,4.252261,5.992784,9.891259,7.190544
1009.136719,1.640201,5.190477,5.202723,8.354260
1009.140625,8.149405,-0.592800,5.369108,9.713829
1009.144531,7.635267,8.098354,-3.051604,6.979343
1009.148438,5.840258,2.924020,11.599651,-0.124570
1009.152344,-4.654387,-7.285176,-15.434860,3.220100
1009.156250,0.735103,-3.286128,-7.075890,2.001239
1009.160156,-0.429614,-2.994779,-1.534807,-5.834493
1009.164062,-7.716104,-10.366408,-0.904189,-6.735232
1009.167969,-4.304345,-13.590626,-4.850203,-9.305664
1009.171875,-3.737516,-8.760296,-4.975346,-12.088758
1009.175781,-6.205076,-12.436626,-11.098309,-4.677428
1009.179688,-12.167947,-8.385909,-5.087310,-5.258374
1009.183594,-9.813354,-15.797474,-9.953195,-11.837884
1009.187500,-6.405937,-3.830554,-8.625287,-9.394842
1009.191406,-1.313900,-6.305268,-5.953431,-8.678629
