timestamp,TP9,AF7,AF8,TP10
1000.000000,5.909841,0.678906,-1.217268,-5.895078
1000.003906,2.012079,4.987521,3.875946,1.700122
1000.007812,3.942328,1.949176,4.705970,8.401644
1000.011719,3.492240,10.622368,6.923288,4.718320
1000.015625,3.876792,6.729331,8.496294,2.062022
1000.019531,11.727336,13.055714,2.446729,5.655395
1000.023438,10.347482,12.180768,12.090646,16.017901
1000.027344,6.015779,9.896344,4.149110,7.618636
1000.031250,12.324682,9.534533,2.261782,8.353824
1000.035156,8.712699,0.065740,8.188842,5.951988
1000.039062,3.379984,7.681414,4.571693,11.802085
1000.042969,0.489464,4.367554,-3.892586,3.803540
1000.046875,2.217736,-0.191474,-0.399216,-6.746727
1000.050781,-0.397340,-2.387762,-1.316801,0.269450
1000.054688,-5.068594,0.705961,-2.606485,-2.085273
1000.058594,-2.187750,-2.953015,-5.252984,-2.638851
1000.062500,-5.538086,-5.312573,-3.259809,-4.526841
1000.066406,-7.074039,-7.412496,-7.142485,-8.489862
1000.070312,-12.034088,-13.216951,-19.170133,-11.553516
1000.074219,-11.077565,-7.282734,-4.606275,-13.081522
1000.078125,-9.379757,-14.235762,-8.540134,-11.996573
1000.082031,-8.705964,-9.479782,-11.463509,-13.293747
1000.085938,-9.669908,-4.077936,-10.022668,-5.251693
1000.089844,-6.160953,-9.675893,-2.359991,-8.015486
1000.093750,-6.921188,-7.087240,-6.222329,0.151930
1000.097656,4.037064,-2.613885,3.037197,3.551126
1000.101562,2.444937,-2.887152,-1.801500,-3.479587
1000.105469,4.799613,3.072289,0.544699,4.566878
1000.109375,5.909311,3.939453,2.070761,10.199218
1000.113281,6.026949,4.521638,14.357849,5.458659
1000.117188,13.248944,11.407551,7.178823,3.233551
1000.121094,1.315478,6.692513,6.313612,2.372434
1000.125000,6.555818,14.229238,6.971081,8.255785
1000.128906,8.140155,11.639040,12.852213,10.324319
1000.132812,14.984945,7.542235,3.059207,9.337932
1000.136719,3.735984,12.332487,2.899609,10.357785
1000.140625,12.571871,6.558923,9.330154,5.942134
1000.144531,4.375948,-1.299985,2.133953,5.471384
1000.148438,8.465296,-0.819400,3.319762,-4.250063
1000.152344,-0.955051,-8.581720,5.236194,-1.689584
1000.156250,-0.791815,-7.272527,-11.816709,-2.313835
1000.160156,-7.351688,-10.924932,-6.760941,3.565585
1000.164062,-7.993536,-12.890621,-8.398673,-10.534677
1000.167969,-11.751503,-7.676899,-8.696999,-7.726188
1000.171875,-13.407374,-7.068665,-11.431118,-1.352550
1000.175781,-7.093094,-13.815833,-10.541870,-9.250009
1000.179688,-11.353418,-12.613088,-10.576546,-12.322015
1000.183594,-12.624568,-7.707530,-9.933066,-13.766845
1000.187500,2.591746,-16.020752,-7.101660,-13.366900
1000.191406,-6.003876,-12.408075,-4.079189,-0.598651
1000.195312,-1.729083,0.087760,-8.257966,-2.915692
1000.199219,-3.649211,-0.076239,-0.953880,1.227279
1000.203125,2.275304,4.988520,-0.864373,-5.062925
1000.207031,7.134977,2.329379,5.932850,9.430990
1000.210938,6.180039,14.269855,8.326159,9.755543
1000.214844,15.129587,14.155719,14.023321,1.463101
1000.218750,8.840725,12.236459,10.685473,5.845635
1000.222656,7.952589,10.358181,6.854092,16.042887
1000.226562,-0.103326,12.904990,6.935960,7.473433
1000.230469,0.863446,5.684719,18.398883,10.944171
1000.234375,6.524540,5.814549,9.724360,5.621080
1000.238281,4.611719,16.745688,10.503682,9.436085
1000.242188,8.945640,10.675030,-5.535973,4.772303
1000.246094,5.418331,-4.357641,3.865725,2.954874
1000.250000,2.238745,2.932937,11.380740,-3.164959
1000.253906,-4.101970,1.382545,-2.944955,-1.142530
1000.257812,-7.822770,-8.088708,-1.195559,-9.680390
1000.261719,-8.619768,-5.790637,-4.610425,-11.685486
1000.265625,-11.881464,-14.001903,-7.581482,-14.039706
1000.269531,-7.862648,-6.391276,-10.377660,-10.892498
1000.273438,-11.788200,-10.417015,-6.977785,-15.987268
1000.277344,-11.996070,-8.492351,-12.571114,-6.492913
1000.281250,-11.767794,-7.158219,-7.528322,-7.090887
1000.285156,-11.254707,-9.684679,-5.363945,-8.075194
1000.289062,-5.947862,-4.760980,2.449870,-7.088335
1000.292969,-8.346476,-11.291892,-7.290138,-6.948757
1000.296875,1.725663,2.096821,0.804825,-6.181356
1000.300781,2.920538,4.297627,-4.206994,8.938813
1000.304688,4.592546,6.242672,0.023537,5.542446
1000.308594,-1.580098,3.860527,9.475729,2.897797
1000.312500,6.153711,9.672819,7.129790,6.994882
1000.316406,11.663608,7.805424,4.222662,4.543448
1000.320312,11.387981,10.504048,5.664113,12.947054
1000.324219,15.333638,11.409617,13.149642,10.373699
1000.328125,11.438723,11.278080,12.149128,12.556329
1000.332031,3.739890,3.828404,13.819596,2.108976
1000.335938,6.608825,13.387226,12.961932,10.227178
1000.339844,1.189287,3.989084,1.432151,6.084985
1000.343750,14.573989,8.581040,4.544679,4.353445
1000.347656,4.592857,3.188186,5.402321,4.844409
1000.351562,-1.214560,-9.273674,-5.544400,-4.692601
1000.355469,-4.261167,-7.672178,0.528022,2.121477
1000.359375,-0.123624,-6.390311,-7.402940,-3.304362
1000.363281,-6.264091,-11.455828,-5.373537,-16.644380
1000.367188,-9.075747,-3.741823,-10.466257,-14.269261
1000.371094,-11.891363,-4.448784,-11.806951,-6.486957
1000.375000,-9.425729,-10.884640,-9.675516,-2.026274
1000.378906,-12.707279,-7.308459,-2.766033,-13.439264
1000.382812,-11.078388,-9.152783,-14.353299,-6.846716
1000.386719,-5.061366,-8.827299,-15.062551,-14.500023
1000.390625,-1.835314,-4.984892,-1.510092,-7.040943
1000.394531,-0.206592,-2.874481,-2.203126,-3.915704
1000.398438,0.188597,-2.387247,-1.050349,-6.252274
1000.402344,0.961466,6.867587,5.993065,-1.898515
1000.406250,0.258605,3.915865,6.125713,4.492476
1000.410156,4.868439,6.078596,6.307373,14.986112
1000.414062,1.937288,3.280832,3.146283,7.054618
1000.417969,6.934459,14.799482,15.018443,13.905045
1000.421875,13.445357,5.898118,16.811798,12.582490
1000.425781,13.447500,14.040393,14.758079,10.696341
1000.429688,15.582931,1.753037,5.807396,4.589923
1000.433594,6.823598,10.905666,10.008021,11.747146
1000.437500,16.349425,14.046315,11.649905,2.070143
1000.441406,1.700766,1.001481,5.540352,1.566253
1000.445312,-1.162980,3.795213,-4.670874,3.262050
1000.449219,4.564154,2.305587,-3.444763,3.297593
1000.453125,-2.643686,-0.980262,5.759047,2.866513
1000.457031,0.169139,-7.718983,-0.771577,-5.806458
1000.460938,-9.045917,-12.080148,-4.437368,-3.843886
1000.464844,-20.040581,-13.957082,-11.237998,0.112326
1000.468750,-4.643546,-9.115273,-12.354676,-12.113504
1000.472656,-17.872920,-5.936909,-8.339155,-14.231057
1000.476562,-11.492947,-5.881708,-7.503840,-12.268086
1000.480469,-6.466826,-5.530430,-8.549113,-10.547828
1000.484375,-8.716170,-11.271435,-8.322078,-10.725859
1000.488281,-11.734831,-13.782217,-8.666860,-9.757475
1000.492188,-11.041396,-6.372738,-3.315237,-5.422938
1000.496094,-6.064564,-1.939977,-5.564160,-4.656648
1000.500000,-5.361747,-3.118438,-2.720637,8.615294
1000.503906,3.631682,9.220221,4.183945,1.867001
1000.507812,6.624169,1.121560,2.460997,4.630913
1000.511719,3.535194,5.314975,6.266609,10.560534
1000.515625,3.676428,9.215854,8.626825,-0.396228
1000.519531,8.520917,9.334839,9.565351,7.587674
1000.523438,9.721226,14.698236,4.815798,5.149876
1000.527344,17.990203,9.444097,15.317060,10.655066
1000.531250,6.216802,9.734764,11.939096,7.166572
1000.535156,4.994806,10.992754,6.152448,12.176994
1000.539062,12.200104,4.555554,8.883564,2.805874
1000.542969,2.772371,5.688151,5.918896,-1.241377
1000.546875,0.855518,-4.640306,3.371200,-0.173313
1000.550781,1.881248,2.283922,0.918190,1.393089
1000.554688,-8.165583,0.669656,-5.371951,0.369822
1000.558594,-7.999818,-13.026049,-8.842431,-13.506629
1000.562500,-11.024713,-6.525315,0.942692,-8.165289
1000.566406,-12.187781,-9.733261,-7.979787,-8.016159
1000.570312,-7.312203,-6.975711,-5.420366,-4.013245
1000.574219,-10.394083,-5.507695,-3.750500,-10.634005
1000.578125,-14.305659,-12.120958,-11.792179,-7.621029
1000.582031,-3.922402,-9.035598,-2.243560,-9.043454
1000.585938,-12.007237,-17.502728,-7.823805,-5.971118
1000.589844,-3.159666,-4.539671,-12.621180,-8.323641
1000.593750,0.261041,4.452362,-3.980842,-9.982044
1000.597656,-0.543182,4.372963,-4.167282,6.432294
1000.601562,-5.390835,1.712403,-5.589714,2.972643
1000.605469,7.886874,8.815816,6.316481,3.921778
1000.609375,2.235992,13.391202,11.616164,15.714438
1000.613281,1.372266,8.889921,9.453382,6.956282
1000.617188,3.322885,4.552640,7.847168,15.854090
1000.621094,12.486527,8.971854,7.127066,10.855161
1000.625000,4.683754,9.580190,7.348944,6.366996
1000.628906,10.717497,8.917695,13.706627,8.791975
1000.632812,8.553838,7.319709,7.673840,6.664492
1000.636719,8.054501,12.528657,6.687442,11.019905
1000.640625,4.203527,2.152706,-0.535018,7.122650
1000.644531,5.153033,0.984976,-4.414678,-3.700889
1000.648438,-0.863395,-0.927108,-7.744311,3.411235
1000.652344,-4.538061,4.503767,-4.562016,-6.959623
1000.656250,-3.469905,-1.757156,-6.649175,-2.313983
1000.660156,-10.463777,-5.786901,-10.502521,-11.681386
1000.664062,-7.241858,-7.338404,-9.504026,-13.416840
1000.667969,-6.389084,-2.304295,-6.251563,-10.189516
1000.671875,-15.232669,-5.140190,-11.648721,-16.606471
1000.675781,-13.428602,-4.722754,-9.505393,-4.153433
1000.679688,-12.857920,-11.339732,-9.583465,-11.507495
1000.683594,-6.326532,-4.885996,-15.797548,-14.018350
1000.687500,-4.003804,-12.280524,-9.000663,-15.579026
1000.691406,-10.037087,4.411535,-1.557981,-10.735940
1000.695312,1.814758,2.245250,-8.510680,5.049820
1000.699219,4.450392,-0.038449,-1.401747,-2.066344
1000.703125,-5.342352,-2.111252,-5.888235,3.884727
1000.707031,-5.287923,4.691688,13.364725,10.147299
1000.710938,3.448049,9.052923,1.392807,3.709768
1000.714844,5.477193,6.779237,12.603507,13.833964
1000.718750,5.687086,11.589976,-3.728445,15.609163
1000.722656,2.962194,9.410427,9.117166,16.082810
1000.726562,8.094904,11.015283,14.420093,11.082338
1000.730469,8.000213,10.814886,12.267892,5.324822
1000.734375,12.650289,3.174409,3.511898,8.880941
1000.738281,10.195916,3.411733,7.471247,9.720997
1000.742188,3.566105,-5.582960,-2.994454,7.044058
1000.746094,-2.144187,1.633149,4.327371,9.430952
1000.750000,3.314876,-2.601909,4.022573,8.532844
1000.753906,-4.381535,-6.069031,-4.995970,-1.911275
1000.757812,-9.477391,-2.562250,-7.768256,-11.074474
1000.761719,-7.762325,-10.383163,-5.105272,-6.215448
1000.765625,-12.189851,-3.392361,-5.337763,-5.836307
1000.769531,-14.018219,-6.534150,-6.194157,-11.606966
1000.773438,-4.895755,0.958529,-10.582937,-10.793349
1000.777344,-7.988556,-9.829995,-5.512006,-1.601682
1000.781250,-8.501779,-2.665815,-9.121393,-10.455244
1000.785156,-2.626811,-5.835370,-9.418180,-3.402887
1000.789062,-7.156798,-5.927721,-12.444393,-10.526848
1000.792969,-3.737845,-0.969725,-5.133702,-4.734916
1000.796875,-9.394164,-2.781253,-6.192669,-7.361164
1000.800781,-3.130525,2.366319,-1.668938,1.638057
1000.804688,-1.399761,10.825700,7.692827,-4.139610
1000.808594,0.450350,8.907014,0.847114,-0.225700
1000.812500,2.068545,11.034355,-0.390611,8.324696
1000.816406,10.739000,14.065158,0.678044,13.679737
1000.820312,10.137336,12.242608,3.507508,9.428929
1000.824219,5.573741,11.569856,13.296181,18.110156
1000.828125,9.685420,6.157785,9.786129,6.291633
1000.832031,4.724221,0.112479,9.811508,-0.745203
1000.835938,3.886069,10.841286,2.830122,11.052934
1000.839844,7.328124,0.387308,10.029116,6.191224
1000.843750,4.814353,4.841778,5.545732,4.621023
1000.847656,3.238503,-4.858524,-3.460974,0.042555
1000.851562,-1.588592,-0.174556,-0.598445,-4.699906
1000.855469,-7.897048,2.561432,0.784375,-1.972203
1000.859375,-5.377239,1.198468,-8.359553,-5.200483
1000.863281,-5.732533,-17.279665,-5.699099,-11.274015
1000.867188,-7.253916,-15.296438,-9.247230,-9.548674
1000.871094,-8.140601,-4.615147,-5.412762,-9.839425
1000.875000,-4.630899,-16.630471,-6.093861,-8.057817
1000.878906,-9.722072,-10.900349,-9.652434,-10.113376
1000.882812,-11.731219,0.239358,-8.118959,-11.603196
1000.886719,-6.518875,-5.734211,-9.955712,0.659019
1000.890625,-10.812523,-5.227795,-6.952801,0.732377
1000.894531,-3.115517,-3.708393,-3.294686,-1.865126
1000.898438,-0.062432,-3.503281,1.703856,0.343486
1000.902344,-2.973181,1.125096,4.663990,-4.939186
1000.906250,6.461256,5.749926,1.774233,11.458626
1000.910156,-1.408586,10.174271,5.708658,2.732602
1000.914062,7.395047,8.830656,8.283905,9.485747
1000.917969,5.600303,8.642748,4.460070,7.995030
1000.921875,11.149501,13.263877,14.968066,6.739902
1000.925781,9.708966,12.415512,12.245970,11.422804
1000.929688,4.821056,11.039507,6.819562,9.386234
1000.933594,6.294892,9.118773,18.706387,6.931473
1000.937500,5.655330,1.227687,10.076254,9.497549
1000.941406,4.836026,9.157605,-0.570963,3.462785
1000.945312,-3.082337,-0.760011,-0.939795,2.835521
1000.949219,2.154926,0.057849,2.800334,-1.928564
1000.953125,-6.200451,-6.017596,-9.599199,0.992158
1000.957031,-1.483956,-10.546156,-5.379577,-3.591017
1000.960938,-6.765023,-4.004682,-11.631353,-12.370134
1000.964844,-8.263823,-10.635864,-3.765200,-11.386001
1000.968750,-12.068064,-11.588701,-5.808856,-9.900653
1000.972656,-21.492247,-11.663933,-10.030915,-13.750635
1000.976562,-5.286202,-2.162644,-5.944323,-6.437340
1000.980469,-9.467355,-14.747413,-9.699140,-13.921470
1000.984375,-10.181338,-6.368099,-3.986410,-6.929634
1000.988281,-5.141361,-3.642741,-7.919575,0.575375
1000.992188,0.118123,-4.793563,-6.427338,-12.866258
1000.996094,-5.530923,-5.043728,2.508900,-6.593869
1001.000000,-2.211956,-3.943976,-1.952667,-0.089662
1001.003906,-8.024323,6.834438,-2.522118,-0.725630
1001.007812,4.927581,1.821930,2.736640,5.321480
1001.011719,5.365601,8.175485,12.384224,-0.862273
1001.015625,3.997044,10.249005,1.760254,1.503007
1001.019531,17.447474,6.631317,10.779453,13.151206
1001.023438,8.082419,10.271619,6.178237,9.730400
1001.027344,15.181663,11.172613,8.598122,2.525050
1001.031250,9.469059,7.383904,8.256357,15.947681
1001.035156,12.836139,7.599031,4.973497,11.777487
1001.039062,3.174873,3.200134,2.648664,6.638773
1001.042969,8.389015,12.715669,8.071675,4.708571
1001.046875,1.445203,4.876692,0.970059,5.459639
1001.050781,-2.167995,-0.975042,5.263963,0.793473
1001.054688,0.168086,-3.663565,-1.799812,-5.362479
1001.058594,-11.647438,-4.292101,-10.873254,-8.504266
1001.062500,-5.893757,-3.065772,-5.750369,-7.425429
1001.066406,-10.417760,-10.536129,-8.376692,-8.565182
1001.070312,-7.586589,-4.518105,-8.642062,-5.967730
1001.074219,-10.068247,-10.504400,-14.279286,-8.596704
1001.078125,-8.467239,-12.941588,-14.988088,-10.734017
1001.082031,-9.658724,-7.895535,-4.694349,-3.964209
1001.085938,-6.231422,-7.200582,-9.480470,-10.974334
1001.089844,-16.185971,-7.171484,-4.858244,-5.905936
1001.093750,-8.055983,-8.069426,-4.081570,-3.362780
1001.097656,-3.252610,-0.558220,-3.357133,-1.050013
1001.101562,0.997180,0.802094,-0.938399,-7.972085
1001.105469,-1.932272,3.517101,-1.113185,-2.578329
1001.109375,9.931558,4.469270,6.866481,9.691446
1001.113281,7.773314,17.852652,8.029507,0.488324
1001.117188,12.088693,9.993006,5.308772,9.107637
1001.121094,17.294938,9.960096,10.412013,12.478159
1001.125000,8.365694,10.423329,9.519832,14.395848
1001.128906,12.185134,14.327347,3.408224,12.834026
1001.132812,12.897551,4.312053,5.659115,7.709617
1001.136719,8.504333,7.875607,2.002456,3.145049
1001.140625,6.356387,2.025438,6.914285,5.011883
1001.144531,6.981518,2.338356,1.390840,6.702511
1001.148438,-3.445244,6.504891,2.402424,2.106543
1001.152344,-6.801374,-1.764025,-2.683890,-14.635752
1001.156250,-0.570848,-1.366639,-2.327215,4.215686
1001.160156,-7.435561,-7.098346,-8.904913,-6.811589
1001.164062,-12.304083,0.759341,-9.781167,-5.395487
1001.167969,-8.213333,-11.311766,-10.268843,-7.130744
1001.171875,-9.121187,-12.677220,-11.596382,-4.918389
1001.175781,-13.686159,-10.637070,-3.961059,-9.401280
1001.179688,-10.789270,-3.055536,-8.287299,-10.131376
1001.183594,-12.391877,-5.544512,-12.879866,-2.101538
1001.187500,-4.744969,1.848020,-11.429217,-2.231874
1001.191406,-2.743273,-13.206061,-9.298289,-8.681560
1001.195312,-6.922371,-3.714634,-4.251931,-5.913177
1001.199219,3.192652,1.262123,-8.543167,-0.639760
1001.203125,-4.745845,4.295676,1.464999,3.817402
1001.207031,6.287741,4.109889,5.583093,5.286084
1001.210938,6.380494,4.981925,6.706052,3.684516
1001.214844,6.760756,6.841753,9.821345,10.215053
1001.218750,13.024581,3.172560,11.395940,4.022102
1001.222656,9.259223,7.143050,10.172906,6.371789
1001.226562,4.609648,3.874321,9.171819,3.165582
1001.230469,13.476990,9.779966,11.936296,20.920125
1001.234375,5.261778,6.144258,9.947465,8.444292
1001.238281,8.835653,-1.997082,6.191339,7.048483
1001.242188,-2.117197,4.153986,2.875939,-0.594040
1001.246094,11.879634,-0.170864,-2.740497,2.830042
1001.250000,5.954689,-0.441006,-2.924664,5.961444
1001.253906,-3.421549,-1.357221,0.841786,2.328139
1001.257812,-2.453617,-1.090745,-7.626709,-9.045884
1001.261719,-4.128605,-5.931567,-9.024395,-11.116763
1001.265625,-5.955994,-2.040951,-8.420263,-9.202002
1001.269531,-5.553122,-11.263589,-13.677325,-7.349237
1001.273438,-4.572821,-3.430240,-14.438164,-7.132026
1001.277344,-9.163027,-9.236638,-3.839379,-9.338910
1001.281250,-4.545852,-8.756856,-10.171969,-10.104555
1001.285156,-3.701300,-12.694438,-9.747794,-7.479390
1001.289062,-7.389262,-1.488283,-4.387047,-4.982357
1001.292969,-10.948996,-9.152714,-3.937924,-4.284752
1001.296875,3.831166,-5.270253,0.025888,-4.808795
1001.300781,4.463553,6.808338,-2.000187,-8.367758
1001.304688,0.501987,5.797998,0.533309,3.991541
1001.308594,5.358474,2.955251,8.724274,7.219802
1001.312500,0.635373,0.582394,8.614487,11.577043
1001.316406,16.088777,6.422174,1.747821,10.128294
1001.320312,12.372731,6.998692,1.338992,9.287908
1001.324219,13.028822,9.579245,5.049326,12.516395
1001.328125,8.883976,10.555336,12.068741,9.029043
1001.332031,11.927786,19.356380,8.964153,9.359852
1001.335938,6.106901,9.007038,16.431830,9.798236
1001.339844,3.708621,-0.467673,6.441395,7.610666
1001.343750,1.174081,-3.399982,10.769037,-4.952649
1001.347656,1.926045,5.895827,5.699010,-6.999395
1001.351562,-5.009880,2.955207,-4.939797,-1.004910
1001.355469,-5.569759,-5.354977,-9.057894,1.444566
1001.359375,-8.062345,-6.097749,-6.043769,-7.347257
1001.363281,-5.065947,0.572570,-11.514491,-6.668153
1001.367188,-14.519125,-9.709662,-13.802683,-9.891448
1001.371094,-7.231525,-7.444152,-15.808881,-8.910629
1001.375000,-8.734829,-10.543427,-11.192245,-12.674071
1001.378906,-11.340069,-20.610459,-9.480496,-7.451536
1001.382812,-13.598194,-7.186144,-3.877327,-8.468890
1001.386719,-3.239896,-12.907815,-7.237317,-3.776262
1001.390625,-4.218937,-3.382459,-15.175892,-5.026841
1001.394531,1.256798,-3.649313,-4.061326,-5.451356
1001.398438,3.801885,-4.259081,-10.167869,-2.002227
1001.402344,2.989222,2.246538,-3.259862,4.721542
1001.406250,2.554020,2.247514,3.576950,3.849713
1001.410156,-3.385002,2.261029,11.070656,7.579889
1001.414062,10.726376,5.117211,6.680589,9.176210
1001.417969,7.693958,5.474942,11.849320,8.435764
1001.421875,13.199869,11.247438,7.316489,10.797444
1001.425781,8.592775,15.430716,10.733128,9.707656
1001.429688,5.471217,11.127843,11.351945,9.990299
1001.433594,4.034679,9.087528,9.936011,5.358730
1001.437500,3.488440,9.266386,5.992921,5.793186
1001.441406,3.659130,8.070665,11.534257,3.340655
1001.445312,-4.883431,7.607259,5.460358,-3.744885
1001.449219,3.722778,-2.396233,-4.760380,1.440164
1001.453125,0.914560,2.071997,-1.686309,2.356578
1001.457031,-10.404319,-6.017032,-7.539942,-3.454868
1001.460938,-12.135593,-4.441879,-6.729628,-6.051675
1001.464844,-11.429570,-3.612181,-3.779909,-7.240290
1001.468750,-20.172598,-7.613746,-9.010244,-10.427435
1001.472656,-13.527817,-6.841970,-7.330166,-8.382513
1001.476562,-14.228696,-6.765205,-15.637579,-10.160820
1001.480469,-10.099278,-13.187901,-10.710545,-16.661875
1001.484375,-9.868418,-16.094885,-15.598488,-7.895633
1001.488281,-2.314156,-6.587172,-5.280694,-13.616926
1001.492188,-7.242145,-2.613682,-9.167890,-2.713737
1001.496094,-2.131283,-2.831235,5.597392,-7.503830
1001.500000,-1.922737,-3.346518,-2.127250,-7.609295
1001.503906,1.660152,5.354578,0.921394,-2.653287
1001.507812,1.778454,-2.416188,2.395733,0.870451
1001.511719,8.124609,3.481228,7.242972,-1.125979
1001.515625,11.574026,6.103032,15.027442,13.282253
1001.519531,9.046553,11.908523,7.534175,15.269615
1001.523438,10.496779,13.098955,9.089802,11.146577
1001.527344,-0.210454,16.514605,10.822953,3.163679
1001.531250,13.079525,15.104346,10.605627,10.971041
1001.535156,11.815073,9.855157,8.903157,11.137576
1001.539062,5.463573,12.089302,13.284830,2.305437
1001.542969,6.773530,4.603540,11.372624,5.782599
1001.546875,3.200368,0.717474,-3.743908,2.917702
1001.550781,1.325152,-2.601402,-5.469793,-1.264254
1001.554688,-6.291462,-5.293688,-2.832911,1.687005
1001.558594,-9.060592,-5.444899,-7.004204,-5.142289
1001.562500,-10.931478,-10.698100,-15.133713,-0.153787
1001.566406,-4.701743,-14.472529,-7.045287,-0.915492
1001.570312,-17.747254,-9.604191,-7.664153,-7.651657
1001.574219,-10.870589,-12.105664,-7.592701,-11.035307
1001.578125,-12.136462,-7.374666,-8.557707,-3.154434
1001.582031,-11.159911,-14.909921,-11.313283,-7.535383
1001.585938,-8.198258,-1.550123,-11.551778,-13.606485
1001.589844,-9.221458,-9.038578,-7.417501,-7.871319
1001.593750,-3.509844,-3.407472,-1.278116,4.663449
1001.597656,-1.715205,3.448821,4.525337,-2.071266
1001.601562,6.355531,4.512631,1.215755,6.179589
1001.605469,-2.515445,5.054172,-1.803960,4.260785
1001.609375,11.050453,7.091782,8.505692,8.026536
1001.613281,4.033602,11.678103,10.021495,7.707010
1001.617188,12.530836,13.406904,5.508870,15.359775
1001.621094,5.701228,10.572729,13.037785,9.917212
1001.625000,8.670744,13.437074,3.576012,17.862775
1001.628906,14.901580,11.343270,12.999292,12.137802
1001.632812,12.349127,10.418099,4.542278,10.427798
1001.636719,1.655424,7.589113,8.638242,3.031180
1001.640625,2.716647,2.429197,5.790403,11.304113
1001.644531,3.837092,4.593573,11.685237,1.631351
1001.648438,3.301947,-3.155768,-0.193400,-3.219317
1001.652344,-4.163683,2.703698,-0.422806,-1.684947
1001.656250,-1.409881,-6.869354,1.511493,-4.423208
1001.660156,-6.537921,-9.035624,-5.529288,-5.298307
1001.664062,-5.158396,-13.148082,-7.812318,-5.132569
1001.667969,-16.728406,-11.405517,-13.529977,-3.130381
1001.671875,-1.083720,-12.317296,-13.933439,-11.402937
1001.675781,-8.675065,-10.624670,-8.195888,-13.749372
1001.679688,-16.594497,1.100745,-6.637031,-5.965101
1001.683594,-11.552227,1.233264,-11.963613,-6.114047
1001.687500,-4.771814,-0.495877,-4.802186,-14.683738
1001.691406,-6.662638,-4.747462,-5.015179,-7.149433
1001.695312,-11.612925,-2.943524,-1.238206,3.552541
1001.699219,1.219280,-3.995679,1.958671,-1.379856
1001.703125,-2.230347,4.583845,3.492410,-1.522151
1001.707031,3.632273,6.811430,6.275045,5.881396
1001.710938,7.863592,5.005975,4.628006,6.568964
1001.714844,8.274362,11.017980,7.426863,10.870625
1001.718750,17.623951,16.425559,9.755584,14.628436
1001.722656,5.871002,12.809347,4.458102,13.127066
1001.726562,14.028389,12.961487,12.733856,9.382643
1001.730469,10.030191,10.722011,19.733241,14.939991
1001.734375,1.904694,5.310548,3.914386,2.232178
1001.738281,9.367685,-4.133370,8.221474,11.579950
1001.742188,6.279479,7.718999,6.566746,0.003240
1001.746094,-2.299918,-1.850154,1.098956,-1.004544
1001.750000,-5.069481,-0.065885,-3.748892,-0.745898
1001.753906,-3.519375,-4.287103,-3.755369,0.783573
1001.757812,-2.233715,3.587131,-11.053876,-4.609652
1001.761719,-1.409081,-7.212387,-11.044377,-11.619169
1001.765625,-3.821787,-4.243406,-5.631327,-7.782264
1001.769531,-4.390247,-16.504645,-14.373637,-6.741077
1001.773438,-11.233078,-12.741197,-4.839571,-15.641721
1001.777344,-8.110932,-4.665213,-11.849361,-9.602994
1001.781250,-8.352462,-12.617456,-1.014809,-9.573044
1001.785156,-4.217660,-6.400139,-14.216343,-7.756293
1001.789062,-7.132623,-4.501106,-11.700649,-6.621404
1001.792969,0.778274,-5.846152,-9.633014,-3.878440
1001.796875,1.575267,-3.111623,-4.929841,0.633065
1001.800781,6.811667,-1.375916,-1.071792,4.884330
1001.804688,4.815510,5.181439,7.904014,7.182596
1001.808594,8.669843,13.530786,8.249629,10.180024
1001.812500,10.034680,6.796410,8.247185,5.683932
1001.816406,9.141816,4.675838,5.010780,10.497015
1001.820312,7.108660,11.360650,9.164926,8.720495
1001.824219,15.363338,10.335823,7.059355,11.615735
1001.828125,8.995641,10.118904,11.550031,13.648810
1001.832031,9.333291,0.907404,-0.462355,4.350942
1001.835938,2.729874,5.577315,13.883306,5.246054
1001.839844,1.352603,0.200105,5.883510,-0.579300
1001.843750,0.528375,4.287314,4.008047,-0.531282
1001.847656,2.484639,-8.466313,1.931547,10.746004
1001.851562,-4.613021,0.168325,0.204647,2.888296
1001.855469,-1.151557,-6.037271,-5.416430,-5.616160
1001.859375,-11.957249,5.739382,1.839138,-2.253133
1001.863281,-9.946709,-8.187999,-14.648323,-2.982447
1001.867188,-8.143514,-8.674084,1.325209,-10.933669
1001.871094,-11.453264,-16.749229,-5.294300,-10.859196
1001.875000,0.801044,-8.999794,-5.558906,-13.305485
1001.878906,-13.006451,-12.539473,-6.524850,-22.233974
1001.882812,-8.673897,-11.570393,-3.779198,-9.223327
1001.886719,-11.167706,-1.653306,-16.581387,-4.638338
1001.890625,-3.118900,0.128457,-5.776237,-12.166674
1001.894531,0.172101,-9.484849,-3.900465,-6.883254
1001.898438,-7.150465,-0.471582,-1.987291,-0.418645
1001.902344,3.886088,5.243391,3.348782,1.862743
1001.906250,8.412369,7.562191,2.769325,7.579991
1001.910156,-1.021200,-2.406055,16.835752,5.900358
1001.914062,12.594878,5.069643,6.053968,7.229968
1001.917969,7.439512,8.515554,2.677326,10.431124
1001.921875,13.882344,15.482557,12.783905,6.903211
1001.925781,14.183692,12.799556,10.317798,10.892822
1001.929688,15.363729,12.202164,9.290687,2.151045
1001.933594,2.551053,8.980294,10.137275,18.702458
1001.937500,8.375331,2.451403,14.856448,6.931024
1001.941406,8.643920,2.687708,-0.603525,7.910736
1001.945312,-4.734977,-0.122839,-2.832002,0.347553
1001.949219,3.231545,0.940885,-0.141945,3.214510
1001.953125,-2.787826,-5.631652,0.987277,-2.881952
1001.957031,-1.509671,0.842691,-10.118112,-1.047856
1001.960938,-10.344297,-5.321435,-4.928363,-16.236303
1001.964844,-10.128909,-7.132934,-11.376569,-11.718373
1001.968750,-6.620796,-7.353758,-9.224678,-8.742102
1001.972656,-19.885640,-10.380890,-12.788761,-12.556102
1001.976562,-11.691459,-15.301523,-9.617363,-13.785163
1001.980469,-6.682448,-7.169850,-12.541802,-9.657265
1001.984375,-6.919518,-8.456925,-9.301948,-9.353566
1001.988281,-12.006194,-0.659554,-15.297515,-7.577445
1001.992188,-7.096713,-0.246494,3.743145,-8.494463
1001.996094,-0.130844,-4.043831,1.594997,-0.529697
1002.000000,4.540691,1.791814,-4.708336,0.198331
1002.003906,2.448367,-0.647288,1.493251,-1.029886
1002.007812,2.713702,1.158145,0.324199,5.392941
1002.011719,13.744087,6.804696,3.947190,6.197167
1002.015625,2.074677,17.195113,6.402561,6.397618
1002.019531,13.369896,15.136283,5.707200,14.624950
1002.023438,12.257275,6.435071,4.270166,18.778799
1002.027344,10.643180,16.988902,10.782176,14.412384
1002.031250,9.640330,7.823512,2.013541,3.500585
1002.035156,6.776817,7.530330,15.010795,5.769191
1002.039062,0.491077,5.468672,0.910385,5.076085
1002.042969,14.710790,0.117694,5.640197,2.655524
1002.046875,2.288476,0.306921,0.877442,-1.146945
1002.050781,2.712110,7.284717,5.864017,-4.964057
1002.054688,-4.724183,-3.338660,0.384778,-2.696083
1002.058594,-2.257332,-0.609304,-5.304985,-3.918712
1002.062500,-10.213417,-13.809902,-0.215711,-6.643051
1002.066406,-7.692125,-3.717739,-8.599143,-6.177256
1002.070312,-5.412485,-12.619712,-11.483330,-10.625872
1002.074219,-11.756244,-12.917627,-9.953470,-10.086080
1002.078125,-14.460767,-9.453140,-12.414201,-5.621366
1002.082031,-10.206468,-11.766496,-7.803917,-12.571581
1002.085938,-6.917089,-8.720106,-4.840221,-15.723291
1002.089844,-5.727145,-1.901921,-0.398921,2.604460
1002.093750,-1.664331,-5.753734,-11.803417,-10.763822
1002.097656,-3.028501,4.473613,4.886580,2.782717
1002.101562,-3.776041,3.203446,3.398939,-0.394585
1002.105469,0.164199,0.858598,7.907365,6.486815
1002.109375,12.713426,7.228996,-0.596807,-2.945863
1002.113281,4.906793,0.355433,11.232659,11.867980
1002.117188,2.865988,8.317905,11.683412,12.983278
1002.121094,13.066666,5.388075,11.586661,12.721274
1002.125000,10.144482,6.885695,10.804320,9.132940
1002.128906,10.756804,10.843495,18.550233,7.525804
1002.132812,6.428496,8.426359,-2.883418,12.022465
1002.136719,-0.788949,7.070679,3.936440,12.359769
1002.140625,4.640879,5.614627,1.175685,11.228374
1002.144531,6.039688,2.887326,0.524649,6.222357
1002.148438,-7.375954,-6.866118,3.553909,-6.725337
1002.152344,-3.319291,-9.540898,0.216814,-4.909574
1002.156250,-2.434520,-2.900614,1.535990,-1.728912
1002.160156,-7.905278,-9.258100,-6.279386,-4.303228
1002.164062,-7.292744,-8.194153,-10.406012,-12.965729
1002.167969,-7.508054,-8.173507,-8.917960,-11.193961
1002.171875,-12.469854,-13.726506,-5.958181,-5.080320
1002.175781,-10.800405,-16.350655,-6.734584,-21.088902
1002.179688,-13.456543,-9.233434,-11.577898,-3.373134
1002.183594,-13.075565,-10.782743,-1.366720,-9.154346
1002.187500,0.858118,-5.563796,-2.524541,-4.049984
1002.191406,-10.973995,-5.216152,-2.304322,-5.162698
1002.195312,-4.379635,-4.470114,0.219347,-3.026979
1002.199219,7.538652,7.873875,1.761396,-3.540020
1002.203125,9.271986,-2.368306,9.096648,1.809557
1002.207031,5.610756,6.051070,2.748619,0.998200
1002.210938,8.242188,8.473038,0.203114,5.803023
1002.214844,9.056178,7.628913,12.723764,7.507603
1002.218750,10.697295,9.935698,7.819600,5.873062
1002.222656,13.426974,10.565381,13.519045,15.807556
1002.226562,9.608910,3.504873,15.080840,3.617630
1002.230469,4.538936,9.944783,5.125329,16.893235
1002.234375,10.841015,5.173534,10.631873,6.105338
1002.238281,14.362968,0.380813,9.337835,8.737677
1002.242188,5.138748,9.426470,-0.107660,1.632688
1002.246094,2.082187,2.662856,0.233876,2.190485
1002.250000,-6.559691,-0.694143,1.432007,2.932446
1002.253906,-6.221286,-7.409324,-3.848855,-6.902845
1002.257812,1.774677,-6.717668,-2.451652,4.071048
1002.261719,-9.666327,2.032550,-9.902891,-8.938750
1002.265625,-8.661648,-10.631158,-7.271575,-13.086960
1002.269531,-12.320546,-4.013446,-1.073376,-16.401009
1002.273438,-4.966163,-5.012246,-17.225021,-21.080806
1002.277344,-4.060232,-4.143211,-12.070165,-6.814083
1002.281250,-13.144558,-15.044217,-9.220160,-12.034400
1002.285156,-8.432579,-10.719981,-14.248978,-17.345355
1002.289062,-11.280856,-6.385003,-3.068055,-4.334141
1002.292969,4.770566,-5.484121,0.792635,-5.019621
1002.296875,0.840673,1.096604,-3.142744,-0.077446
1002.300781,2.077561,2.147940,4.443721,5.714846
1002.304688,-3.952824,5.182651,8.088235,8.422192
1002.308594,8.220240,0.320130,-3.809128,10.740970
1002.312500,3.439204,5.358972,14.558272,10.139633
1002.316406,11.441800,7.284803,10.717822,15.325494
1002.320312,3.858072,6.402243,6.864957,6.577447
1002.324219,12.561776,12.272773,13.151600,10.759939
1002.328125,12.723100,9.734186,10.182629,0.008197
1002.332031,7.704433,9.901377,1.751252,5.950746
1002.335938,12.346904,11.087190,6.388479,11.484394
1002.339844,5.986331,3.082120,7.096256,7.185260
1002.343750,5.662211,-6.794736,-0.928636,3.975976
1002.347656,6.554283,-9.770105,3.059212,5.297341
1002.351562,2.670162,0.601496,4.059768,-2.757193
1002.355469,-5.268810,-1.285379,-2.585057,0.641492
1002.359375,-4.011806,-7.158194,4.948868,-3.988976
1002.363281,-4.477998,-7.605175,-6.539211,-2.516790
1002.367188,-3.609155,-16.450589,-8.090831,-7.352208
1002.371094,-10.100203,-9.975302,-11.237390,-4.801990
1002.375000,-11.592822,-9.850466,-12.331792,-11.881367
1002.378906,-5.687821,-10.745447,-13.083166,-16.334565
1002.382812,-4.860910,-10.597181,-10.907312,-11.209850
1002.386719,-3.658417,-14.242322,-9.559372,0.654523
1002.390625,-5.448908,-5.123907,-4.561544,-1.261734
1002.394531,2.298644,-6.090964,-9.535484,-11.456315
1002.398438,6.092127,4.495036,-1.757743,-6.284956
1002.402344,2.774585,4.095887,1.739278,5.322439
1002.406250,13.039694,6.198994,6.966740,-1.278364
1002.410156,2.135387,4.223433,6.790897,-0.349256
1002.414062,9.889551,9.651381,12.671974,5.220112
1002.417969,4.463343,8.551003,16.357257,8.917577
1002.421875,10.247579,8.634514,13.422808,1.262523
1002.425781,5.482274,16.906083,6.589240,10.162196
1002.429688,5.417598,9.044635,3.980649,11.010856
1002.433594,10.234879,6.463245,8.427215,11.798522
1002.437500,11.742166,13.597801,8.660149,4.485668
1002.441406,-2.125448,5.099968,6.515041,6.162850
1002.445312,1.832823,0.184702,5.856880,3.691308
1002.449219,1.185146,-5.810531,4.286104,2.830748
1002.453125,-3.325164,-1.616782,-4.399334,-2.872300
1002.457031,-1.444284,-2.369413,-6.866238,-2.080478
1002.460938,-11.812328,-13.628028,-10.397412,-3.544668
1002.464844,-8.436448,-5.893213,-4.200833,-6.790807
1002.468750,-8.868624,-3.914702,-7.633731,-2.838993
1002.472656,-7.342129,-13.189811,-2.537227,-6.664471
1002.476562,-11.337241,-8.376525,-6.151439,-8.058225
1002.480469,-4.435316,-5.455289,-13.698236,-10.878486
1002.484375,-10.325953,-2.557063,-16.849710,-7.222782
1002.488281,-8.242825,-8.622393,-4.053909,-9.952960
1002.492188,-11.980857,-6.021665,-6.485892,-5.502949
1002.496094,0.575631,-3.886709,4.006946,-6.125818
1002.500000,-0.535080,2.274062,3.215875,-2.862899
1002.503906,-0.223065,-11.576524,9.117658,1.711482
1002.507812,6.941524,4.945789,12.451614,5.444184
1002.511719,7.791545,5.462676,4.330516,4.105923
1002.515625,6.952352,11.062456,13.093454,12.256377
1002.519531,9.063981,5.227118,2.711055,9.693329
1002.523438,12.095889,13.632849,6.578143,7.921511
1002.527344,12.927320,8.750791,7.644642,12.106478
1002.531250,11.985089,8.433755,11.941567,10.467855
1002.535156,12.565446,14.175032,10.897218,12.882861
1002.539062,9.813136,3.107430,11.452026,4.258253
1002.542969,4.288384,6.538616,-0.014531,6.083411
1002.546875,0.805159,5.499831,5.403310,4.962821
1002.550781,-2.043024,1.395251,-1.928148,-2.169616
1002.554688,-5.559546,-7.082676,-3.712283,-1.097762
1002.558594,-6.246333,-8.023005,-2.497119,1.298417
1002.562500,-2.986912,-12.498937,-7.231422,-5.427837
1002.566406,-6.268871,-3.919164,-9.807011,-9.769488
1002.570312,-12.181196,-10.227940,-17.514607,-12.203093
1002.574219,-7.659157,-6.601657,-10.965868,-12.749078
1002.578125,-9.900423,-9.101707,-11.703784,-11.176642
1002.582031,-7.527781,-13.638121,-7.933387,-10.056198
1002.585938,-6.673632,-6.631196,-4.439709,-13.854334
1002.589844,-2.467845,-10.546159,-10.044726,-11.126567
1002.593750,-9.923489,-4.982392,-3.426918,-1.320642
1002.597656,-9.123654,-1.201147,-1.373137,0.364342
1002.601562,0.211309,0.477524,3.453484,-0.320503
1002.605469,3.253427,6.410668,0.195376,1.927444
1002.609375,5.756440,12.404165,11.082044,8.354891
1002.613281,3.683489,8.359380,5.041130,7.833647
1002.617188,8.373260,8.070334,3.819961,5.804348
1002.621094,12.253899,11.427224,10.575501,11.932059
1002.625000,9.861144,7.150700,16.477132,15.636902
1002.628906,5.580380,13.421318,14.877264,0.561914
1002.632812,0.088604,13.609122,11.338597,-2.593921
1002.636719,11.242112,5.314473,8.331756,5.958905
1002.640625,4.867252,6.449796,10.663745,10.976499
1002.644531,-6.514544,3.779379,-2.299636,5.544829
1002.648438,-0.623421,3.441196,-0.460494,2.494515
1002.652344,-2.467947,0.612165,-4.318358,-3.094502
1002.656250,-1.049308,6.332336,3.990122,-0.034496
1002.660156,-2.493165,-5.899872,1.548186,-2.568984
1002.664062,-7.712049,-6.321962,-2.636324,-6.983670
1002.667969,-10.542186,-3.554189,-10.625441,-8.017014
1002.671875,-9.888206,-3.117618,-13.243777,-4.557912
1002.675781,-11.167711,-7.488805,-7.419749,-4.541305
1002.679688,-10.854608,-9.633343,-11.814652,-9.979207
1002.683594,-8.749307,-12.232726,-8.440082,-9.339317
1002.687500,-6.112011,-15.215972,-3.127058,-5.466107
1002.691406,3.109495,-2.569713,-2.339423,-8.763839
1002.695312,0.311141,7.544041,0.552478,-6.891668
1002.699219,5.495888,-2.717435,2.632887,8.625185
1002.703125,5.534391,0.652838,-0.469092,1.315541
1002.707031,6.110744,8.149963,7.079866,1.137198
1002.710938,9.710940,10.518571,2.453033,11.915374
1002.714844,12.833361,11.002321,4.468718,10.709508
1002.718750,13.758994,9.952070,6.913227,9.635764
1002.722656,6.679700,5.447965,5.915959,10.819366
1002.726562,17.636217,13.256407,6.393279,9.638787
1002.730469,12.141208,8.206174,9.109205,11.111441
1002.734375,17.832696,13.225367,9.710837,11.912504
1002.738281,5.712983,4.825633,5.869928,3.318978
1002.742188,6.310190,-2.593152,6.974762,8.402102
1002.746094,-6.461992,1.651367,-2.880563,7.525466
1002.750000,6.778316,3.069629,-1.146764,3.805009
1002.753906,-1.467207,-4.337994,-0.086546,-6.552668
1002.757812,-7.514280,0.402777,3.377738,-3.880362
1002.761719,-6.129650,-4.123200,-12.244846,-2.048642
1002.765625,-1.246663,-3.906025,-2.606192,-9.280844
1002.769531,-20.712251,-12.528938,3.134525,-8.690025
1002.773438,-9.094034,-6.820127,-5.910202,-12.883733
1002.777344,-13.857375,-7.145033,-12.847441,-7.228966
1002.781250,-6.397507,-12.662702,-7.516340,-9.555872
1002.785156,-12.852191,-7.735319,-7.635937,-5.967371
1002.789062,-8.199499,-9.269018,-8.305900,-1.798399
1002.792969,-0.520531,-5.347889,1.817745,-11.162153
1002.796875,1.833039,-6.807266,1.594175,-4.575717
1002.800781,3.998119,-0.082278,8.437743,-0.951488
1002.804688,0.720134,6.452561,-0.576787,1.864637
1002.808594,5.902252,4.506561,2.813656,7.921320
1002.812500,8.810968,8.482280,5.570086,5.909003
1002.816406,5.575134,1.623278,7.230670,17.534457
1002.820312,13.174355,6.056991,10.566973,12.230498
1002.824219,16.647873,13.902267,9.685925,2.009173
1002.828125,5.688743,0.708446,9.331667,7.196904
1002.832031,10.884421,12.259097,11.072842,14.653981
1002.835938,5.513388,7.487267,3.551737,8.108403
1002.839844,5.487781,2.440970,6.670144,2.437654
1002.843750,7.802898,1.692369,10.819486,1.994136
1002.847656,-1.633927,5.384786,-1.585784,-5.138736
1002.851562,-0.473250,-6.131200,-4.824979,-1.979998
1002.855469,-2.688043,-2.955284,-2.384679,-2.606137
1002.859375,-10.712128,-4.452240,-7.275457,-5.054317
1002.863281,-4.736747,-17.932241,-2.726645,-11.002438
1002.867188,0.014569,-11.893191,-13.865847,-9.346435
1002.871094,-14.431503,-14.707116,-12.898639,-9.031396
1002.875000,-11.317136,-11.186003,-3.724619,-12.279746
1002.878906,-16.644762,-6.981744,-14.389921,-9.354797
1002.882812,-11.163187,-8.134778,-7.054789,-14.120415
1002.886719,-3.075791,-8.479666,-11.612217,-12.968936
1002.890625,-6.403075,-0.634935,-10.614938,-5.928601
1002.894531,-3.095011,2.628324,4.841537,-4.950209
1002.898438,5.128461,-3.817780,-4.669621,2.661056
1002.902344,6.108055,4.068006,0.661824,3.715322
1002.906250,0.782056,-0.331426,1.464156,1.242791
1002.910156,-2.934328,13.328343,4.190127,4.313989
1002.914062,7.361925,16.558181,1.632385,4.347578
1002.917969,4.567655,9.623678,3.941851,7.810397
1002.921875,1.194251,9.465433,10.382065,11.764551
1002.925781,7.668023,14.264928,8.805949,7.408211
1002.929688,5.393609,5.956509,12.855897,5.882297
1002.933594,4.852506,7.744101,8.316434,5.882034
1002.937500,4.338822,9.313271,4.493721,9.113163
1002.941406,-1.689188,-3.297758,4.827473,11.331728
1002.945312,3.399331,-0.036603,1.046869,-1.737921
1002.949219,-2.363820,-2.464613,-8.898920,7.475290
1002.953125,-1.828942,3.228922,-0.934999,0.186192
1002.957031,-13.480182,2.108220,-5.646784,-2.127960
1002.960938,-4.608050,-3.957087,-9.381924,-4.714512
1002.964844,-10.196416,-7.150263,-11.081886,-11.799714
1002.968750,-8.774934,-10.310552,-7.646652,-9.908837
1002.972656,-9.381058,-9.517558,-7.113940,-23.385901
1002.976562,-11.281526,-14.870483,-4.333946,-7.151876
1002.980469,-13.179115,-4.438878,-8.956448,-10.615319
1002.984375,-8.744917,-16.206200,-7.302570,-8.311461
1002.988281,-6.893580,-4.344949,-7.323304,-1.464290
1002.992188,-14.535657,0.408392,-8.361263,-4.888831
1002.996094,-5.885726,4.056607,-3.106655,-2.378910
1003.000000,0.516658,-4.623924,9.656213,-1.516827
1003.003906,5.497138,-1.092226,6.394262,0.392595
1003.007812,1.695455,7.222119,2.467972,5.879746
1003.011719,10.847288,1.436127,11.285610,7.913016
1003.015625,5.092789,2.045931,9.900088,10.015940
1003.019531,15.559700,4.461175,9.015665,5.209819
1003.023438,6.633430,6.909915,14.216145,3.669965
1003.027344,20.060082,10.470216,14.471095,7.952660
1003.031250,5.575213,11.385921,13.489060,5.420236
1003.035156,8.378054,7.236495,4.423081,12.794743
1003.039062,5.143436,3.876721,6.306609,8.677591
1003.042969,-3.650839,8.644016,4.415450,8.782921
1003.046875,6.121533,-2.662471,-3.757488,5.311879
1003.050781,2.916357,-6.127126,0.267493,-0.741732
1003.054688,-8.658657,1.539305,0.686516,-0.671409
1003.058594,-3.438266,-9.295060,-2.659375,-8.223756
1003.062500,-8.779575,-4.926247,-5.789931,-6.499161
1003.066406,-10.012685,-12.228039,-9.387190,-4.840972
1003.070312,-4.629211,-6.643712,-12.347956,-9.265926
1003.074219,-6.244705,-4.345352,-16.087765,-18.252553
1003.078125,-7.486710,-5.132423,-12.760021,-12.945149
1003.082031,-6.166259,-6.879658,-10.014766,-17.465563
1003.085938,-3.324020,-13.973722,-5.636620,-9.189303
1003.089844,0.777670,-2.980882,1.646757,-8.096344
1003.093750,-1.489366,4.421404,-8.354244,-6.549902
1003.097656,2.510451,-7.171490,-0.706201,7.100025
1003.101562,6.826369,-2.845198,-1.956854,-0.830242
1003.105469,-0.524309,6.629504,8.764988,2.745496
1003.109375,8.108738,2.468065,7.130506,8.869291
1003.113281,12.280470,4.876155,7.080555,5.515948
1003.117188,1.233438,10.158327,7.384788,4.108591
1003.121094,8.323430,14.174417,6.431400,15.317434
1003.125000,7.272293,1.164261,6.639438,11.493422
1003.128906,4.724998,3.764386,3.841759,7.537036
1003.132812,4.121474,7.942322,10.970008,6.071597
1003.136719,11.565914,11.203965,-1.139153,13.566680
1003.140625,12.797312,11.632068,3.287386,4.330795
1003.144531,3.319348,4.434214,7.666911,-1.547697
1003.148438,-8.886545,-3.043348,-1.102669,4.427399
1003.152344,-3.816792,3.090493,-9.702680,-5.038816
1003.156250,1.680029,-2.951374,-0.299911,-8.097610
1003.160156,-7.201428,-8.973769,-5.138810,-4.054322
1003.164062,-11.629176,1.583392,-1.251533,-1.594109
1003.167969,-10.947307,-10.175980,-11.907804,-7.048852
1003.171875,-14.157103,-6.500881,-19.401896,-10.634693
1003.175781,-13.505854,-4.074809,-11.114624,-16.346654
1003.179688,-10.293873,-1.793003,-7.418912,-9.430375
1003.183594,-12.829930,-0.410303,-8.748080,-12.198836
1003.187500,-12.866467,-5.634816,-4.306758,-4.578505
1003.191406,-3.537336,-4.438586,-8.579625,-5.807262
1003.195312,-0.634916,4.862376,-2.266499,-3.801072
1003.199219,3.607755,1.069906,-7.575240,6.528881
1003.203125,-0.526312,2.631669,2.900229,3.516582
1003.207031,2.043480,8.692031,4.555688,3.936127
1003.210938,5.515532,6.671476,8.461837,-2.027021
1003.214844,8.663954,8.098761,9.418862,5.392503
1003.218750,6.955292,11.178392,13.728098,6.177209
1003.222656,7.134304,9.600788,9.987059,7.375195
1003.226562,14.525633,14.080258,9.602763,6.507068
1003.230469,1.053248,4.190048,11.766746,12.359017
1003.234375,6.533608,12.840127,7.775621,3.255570
1003.238281,-0.355561,3.773806,1.679435,3.972941
1003.242188,-0.426088,2.172874,7.763201,6.946107
1003.246094,0.047782,-1.191993,-7.846206,0.653380
1003.250000,4.379876,-7.130294,0.441281,6.931126
1003.253906,0.535127,-0.107417,-2.125555,0.093016
1003.257812,-8.526972,-9.253459,0.139802,-8.764004
1003.261719,-2.978261,-6.024949,-9.333449,-7.058623
1003.265625,-12.284687,-11.812459,-11.042675,-8.748048
1003.269531,-11.041903,-7.494283,-7.608487,-8.862373
1003.273438,-11.255036,-10.532768,-7.835459,-1.817654
1003.277344,-6.307826,-6.093361,-4.554594,-7.650226
1003.281250,-10.932429,-5.516205,-12.418416,-3.986000
1003.285156,-13.600737,-8.650858,-6.839137,-6.806113
1003.289062,-6.897833,-0.880748,-4.547976,-7.239475
1003.292969,-3.051166,-1.621630,-2.981718,-6.975802
1003.296875,0.729315,-2.156357,4.473198,1.949224
1003.300781,-5.015415,1.004898,-2.257383,-0.067382
1003.304688,6.910215,4.461309,3.056474,8.644076
1003.308594,11.313090,6.443636,13.174236,2.925162
1003.312500,4.467452,5.600366,10.455111,8.541023
1003.316406,9.358724,4.489882,12.521118,1.425165
1003.320312,12.630656,8.834318,8.782141,10.402862
1003.324219,6.191216,14.562412,9.477910,16.830406
1003.328125,4.251221,10.190538,14.333158,6.576902
1003.332031,8.030412,7.256074,9.213769,8.850410
1003.335938,8.433053,7.944512,10.782170,13.094041
1003.339844,15.863200,3.109234,6.372011,4.057624
1003.343750,2.016707,4.023531,5.706019,1.919960
1003.347656,-0.104823,-1.424007,-1.822706,3.028193
1003.351562,3.082081,3.767710,5.435670,-2.143000
1003.355469,-0.248573,-9.422900,-1.293966,-2.409631
1003.359375,-9.536759,-4.410558,-7.155106,-2.204911
1003.363281,-2.619880,1.102752,-8.070790,-6.316763
1003.367188,-19.486249,-5.182737,-7.141964,-13.220668
1003.371094,-6.971722,-8.094270,-11.341017,-11.027756
1003.375000,-14.362027,-19.621656,-2.529962,-8.639443
1003.378906,-14.455155,-12.107200,-4.403794,-4.251903
1003.382812,-13.197480,-9.594576,-5.809842,-15.565577
1003.386719,-9.106417,-13.413617,-4.324507,-4.151793
1003.390625,-1.585122,-4.980225,-2.323205,-1.390773
1003.394531,-7.936673,-3.067087,-12.884452,-2.790751
1003.398438,-0.111601,-1.481597,-9.862169,-4.834132
1003.402344,5.563177,-5.736521,-2.611229,-2.511636
1003.406250,3.501249,8.204616,12.282791,0.167795
1003.410156,7.246685,9.607475,10.315576,10.152453
1003.414062,1.324705,6.781813,7.303990,3.707902
1003.417969,1.654505,6.516986,5.595922,9.410032
1003.421875,8.776751,17.664769,7.444484,4.714905
1003.425781,7.528704,9.068467,23.094788,13.532309
1003.429688,5.667262,11.412034,9.888524,14.829198
1003.433594,7.659880,8.466105,5.896674,12.995080
1003.437500,7.506803,5.785541,3.267498,4.889251
1003.441406,6.836724,5.087684,6.680891,2.778051
1003.445312,4.000237,3.596991,-2.993002,5.760200
1003.449219,1.420197,3.964410,0.879749,3.354102
1003.453125,1.884618,-2.250968,-2.957244,-3.110972
1003.457031,-7.606119,2.048044,-2.124780,-1.998200
1003.460938,-7.580073,-9.520211,-7.214959,2.870314
1003.464844,-12.670798,-6.634588,-9.061824,-9.302097
1003.468750,-6.977422,-3.121780,-9.775826,-15.791429
1003.472656,-7.165456,-5.772183,-12.408390,-10.513979
1003.476562,-5.029071,-9.292283,-12.960811,-10.069269
1003.480469,-6.491764,-7.956327,-5.981368,-5.677939
1003.484375,-6.083309,0.484174,-8.816890,-2.009476
1003.488281,-9.354313,-10.078801,-9.341707,-5.323428
1003.492188,4.979407,-2.972013,2.464655,-8.208188
1003.496094,-3.238981,-3.412347,-3.178378,-0.493469
1003.500000,3.923971,0.465751,-4.358918,-0.583157
1003.503906,-4.311642,3.533773,-0.845019,5.850135
1003.507812,10.949453,0.626165,1.944075,3.126942
1003.511719,9.197323,10.577995,0.931926,5.419766
1003.515625,8.469275,3.743142,5.092780,13.374307
1003.519531,14.538733,10.450350,12.981035,4.078253
1003.523438,17.020850,10.061590,13.997651,12.087496
1003.527344,10.497310,14.910230,13.095176,3.629424
1003.531250,6.679082,8.000073,13.200798,13.925711
1003.535156,7.296878,2.046493,11.410342,11.335961
1003.539062,5.343199,6.949349,7.107612,10.815901
1003.542969,-1.749781,7.588671,-1.447818,5.852865
1003.546875,3.506600,9.720783,1.778561,-2.086828
1003.550781,6.922774,-4.092074,-5.168997,-11.349800
1003.554688,-6.137744,-1.717535,3.800403,2.216519
1003.558594,-4.296927,-3.658540,-4.324265,-7.820456
1003.562500,-4.895287,-8.522763,-13.980139,-10.963449
1003.566406,-9.751514,-13.657313,-10.332836,-1.342568
1003.570312,-11.353553,-12.160881,-6.042367,-11.219377
1003.574219,-13.375727,-8.947647,-8.164074,-3.736751
1003.578125,-15.376200,-5.873071,-10.827606,-15.198245
1003.582031,-5.437025,-11.585359,-9.098311,-9.335665
1003.585938,-1.438453,-1.824598,-5.625156,-7.705002
1003.589844,-5.723231,0.958293,-6.038028,2.340816
1003.593750,-9.591553,-4.385934,1.990531,-5.819257
1003.597656,-3.576361,-2.441358,-6.568449,0.217423
1003.601562,3.777810,-1.870453,-2.169246,-2.224672
1003.605469,-2.070919,-0.889795,0.846211,0.906875
1003.609375,3.460728,0.368652,3.436676,4.153690
1003.613281,9.474900,6.463208,5.887055,10.524884
1003.617188,9.505049,7.803825,13.392284,10.132375
1003.621094,12.588373,12.342541,8.919487,4.701967
1003.625000,8.579922,16.177679,11.473774,4.277965
1003.628906,13.265030,14.655043,10.303422,11.465144
1003.632812,15.430554,8.193253,10.856398,10.702007
1003.636719,10.024401,13.040562,3.606900,9.542012
1003.640625,2.330850,5.891125,6.013019,1.294508
1003.644531,3.930989,7.542426,-3.557703,-0.684408
1003.648438,3.949929,-1.621616,1.922967,-0.330565
1003.652344,-1.651481,-0.816814,-2.156973,2.064139
1003.656250,-5.548198,-14.709493,-1.890704,-6.920476
1003.660156,-3.949061,-6.052941,-5.592488,-3.884079
1003.664062,-11.109866,-2.062539,-9.254186,-5.283612
1003.667969,-7.332505,-3.074430,-6.557520,-10.203901
1003.671875,-10.692776,-12.355684,-15.601024,-13.271379
1003.675781,-7.007276,-9.720642,-14.575305,-12.203175
1003.679688,-5.193996,-13.446748,-12.460237,-11.740876
1003.683594,-11.248090,-10.243659,-1.087594,-4.055564
1003.687500,-12.458661,-4.862032,-7.168231,-13.996715
1003.691406,4.447013,-8.168002,-16.137783,-8.098912
1003.695312,-5.137568,1.917769,-8.958681,-1.926342
1003.699219,2.333900,-2.082406,-2.423331,-3.124255
1003.703125,2.537462,0.204811,2.670086,4.371432
1003.707031,6.985478,5.954428,0.430447,6.434167
1003.710938,10.244013,6.871897,5.845666,-1.902509
1003.714844,4.541419,4.125742,11.873952,0.862309
1003.718750,2.137101,6.374495,10.917698,7.837103
1003.722656,13.080128,12.766030,14.918613,12.006871
1003.726562,8.357788,9.221756,5.928287,12.905767
1003.730469,8.193088,12.446440,5.537518,9.267366
1003.734375,8.700282,5.051778,12.180033,5.319987
1003.738281,5.368779,16.616556,12.713536,7.730108
1003.742188,7.984424,9.959520,-6.621801,8.188992
1003.746094,4.358981,-1.841584,5.413749,6.008066
1003.750000,4.192560,-1.381234,-3.434436,4.561167
1003.753906,-3.822713,3.044720,-1.241348,-2.248666
1003.757812,-10.424740,-9.612956,-11.727575,-6.784316
1003.761719,-13.817670,-5.315496,-8.765520,-3.337971
1003.765625,-12.529367,-8.120924,-2.831271,-8.357889
1003.769531,-10.544520,-12.388608,-11.704940,-6.241336
1003.773438,-13.931859,-13.056568,-15.329401,-8.682413
1003.777344,-6.452627,-14.668976,-14.144074,-14.895827
1003.781250,-8.967297,-7.054332,-8.573112,-8.519178
1003.785156,-10.681376,-6.863393,-4.290509,-14.317169
1003.789062,-2.172138,-1.900656,-7.214990,-6.077455
1003.792969,-4.053833,-5.043644,-6.946384,-3.216514
1003.796875,-0.409496,-0.711679,0.013542,-4.331890
1003.800781,8.628714,-1.709850,-4.209030,3.090625
1003.804688,4.099704,2.416802,1.632691,1.864153
1003.808594,6.225992,5.813042,8.901651,10.033317
1003.812500,8.736969,0.774543,6.918691,7.426914
1003.816406,6.727677,8.182318,10.853597,10.344861
1003.820312,14.593724,13.861678,9.100879,4.458975
1003.824219,18.556723,7.887433,12.677003,5.402372
1003.828125,9.224229,13.015417,7.023487,3.632902
1003.832031,15.572451,7.026442,4.341558,1.842026
1003.835938,5.359540,12.041187,3.751007,6.799661
1003.839844,7.043584,9.919393,8.252384,10.111433
1003.843750,1.718451,-3.285894,5.981464,5.537795
1003.847656,5.609547,0.356810,3.419364,-2.746005
1003.851562,0.222840,1.049715,-7.713547,-8.845673
1003.855469,-4.573130,-8.025199,-3.025242,-5.633533
1003.859375,-4.884469,-7.820816,-6.811557,-8.428366
1003.863281,2.636415,-6.850446,-8.801175,-8.480065
1003.867188,-13.626155,-16.300486,-10.509328,-5.666493
1003.871094,-3.373920,-13.759067,-7.782738,-6.641132
1003.875000,-7.992249,-7.780133,-9.602829,-12.389066
1003.878906,-12.377914,-12.547462,-2.830247,-11.147969
1003.882812,-4.505212,-9.422592,-9.991356,-8.971526
1003.886719,-12.720652,-10.751128,-11.210888,-5.027272
1003.890625,-2.054637,-2.590834,-6.316751,-3.175853
1003.894531,-3.591060,-3.357511,-2.237478,-5.061679
1003.898438,-1.623553,3.007809,-6.421527,-6.252399
1003.902344,-1.571492,7.135089,0.161349,-1.599300
1003.906250,-0.542444,0.561390,12.608806,2.631064
1003.910156,5.126419,4.417485,10.346369,11.816577
1003.914062,3.087054,7.811691,5.394413,5.656683
1003.917969,4.682040,7.688560,14.204213,4.029895
1003.921875,11.679067,10.960321,12.000407,7.796829
1003.925781,9.539792,4.453807,12.892274,8.412949
1003.929688,16.583360,10.269479,1.984339,8.690500
1003.933594,10.601852,11.477998,9.085197,4.275383
1003.937500,11.827321,11.596830,5.197184,4.010368
1003.941406,7.659712,2.032347,-1.706265,5.380579
1003.945312,3.860889,-1.821773,3.879437,11.533398
1003.949219,4.135186,-4.795147,-0.528911,1.452884
1003.953125,-4.812973,-7.359123,1.041053,-1.036198
1003.957031,-8.730612,-2.965818,-4.840377,-7.888591
1003.960938,-9.915134,-8.687113,-7.741430,-12.721022
1003.964844,-2.076389,-5.267078,-12.211215,-8.520128
1003.968750,-4.222584,-3.338882,-10.257139,-5.202877
1003.972656,-6.514607,-8.842522,-8.844103,-16.869698
1003.976562,-10.066661,-4.268066,-12.648500,-11.585893
1003.980469,-6.084950,-14.651407,-8.960404,-10.333857
1003.984375,-10.977804,-14.699326,-14.088066,-5.141288
1003.988281,-6.139505,-10.855620,-2.188140,-7.605065
1003.992188,-9.897526,-1.054018,-1.849369,-10.112611
1003.996094,-1.900708,-1.103875,0.733437,2.452429
1004.000000,5.742353,-2.853587,-0.309415,4.557544
1004.003906,8.786790,3.714516,-1.296182,2.370520
1004.007812,7.474127,2.082943,2.489669,7.328674
1004.011719,13.039578,3.261518,6.973758,9.076408
1004.015625,6.035810,7.204093,4.517420,6.321551
1004.019531,15.228098,16.084511,13.370402,8.437458
1004.023438,14.733980,4.400677,9.550212,15.235129
1004.027344,15.003466,12.992290,7.011491,1.562611
1004.031250,7.744982,0.003511,10.598861,4.196032
1004.035156,8.122236,9.960145,10.698291,10.084681
1004.039062,4.963013,4.753204,10.950708,2.530531
1004.042969,7.116214,6.994845,3.162596,5.513266
1004.046875,4.370822,5.009869,4.527655,-1.537281
1004.050781,-2.628919,2.512269,2.732285,0.951976
1004.054688,-1.620619,-0.695241,-6.550277,-1.369872
1004.058594,-4.753128,1.626389,0.214735,-6.505823
1004.062500,-5.995539,-16.486348,-13.239195,-6.836109
1004.066406,-8.292107,-12.726010,-6.030305,-9.547329
1004.070312,-1.930933,-7.497565,-5.023261,-13.319301
1004.074219,-10.590620,-9.743811,-3.207802,-2.535921
1004.078125,-10.842246,-15.630441,-10.973807,-10.144043
1004.082031,-11.257322,-10.704725,-9.343617,-4.147620
1004.085938,-6.888379,-7.248732,-8.354092,-9.923219
1004.089844,-7.444836,-9.788856,-8.317106,-7.024265
1004.093750,-3.123216,4.860598,-11.597017,-5.146829
1004.097656,1.907560,-6.459282,-0.981604,2.925741
1004.101562,7.191390,-0.747088,0.644418,0.110710
1004.105469,9.117575,-0.063642,8.516572,7.587363
1004.109375,5.706307,3.147443,2.869560,6.831834
1004.113281,6.684017,1.743798,2.807847,9.679905
1004.117188,10.655609,13.599364,6.278333,5.404739
1004.121094,10.949042,11.182403,16.863567,10.695081
1004.125000,13.789696,10.419339,5.392606,15.430782
1004.128906,4.858535,2.327096,12.422319,9.234128
1004.132812,13.916083,6.475030,3.879316,4.734491
1004.136719,4.857020,8.509934,1.393364,10.307770
1004.140625,4.548110,5.066294,13.189167,0.982263
1004.144531,0.382939,0.210828,9.176054,-4.216119
1004.148438,2.045220,5.174281,2.604196,-0.424503
1004.152344,-5.470084,-6.010057,-4.966246,4.093293
1004.156250,-4.200145,-3.653316,-0.572053,0.222691
1004.160156,-4.628427,-11.654423,-4.737413,1.574051
1004.164062,-3.196027,-13.100911,-9.720303,-3.558270
1004.167969,-6.368167,-8.642414,-6.216372,-0.771806
1004.171875,-17.616057,-3.281976,-6.924425,-10.341580
1004.175781,-11.165656,-8.655589,-12.010968,-8.717292
1004.179688,-8.909790,-12.448764,-18.686052,-1.480320
1004.183594,-6.794066,-6.861400,-1.636095,-10.939578
1004.187500,1.738350,-7.781192,-5.392344,-7.011384
1004.191406,-7.152409,-4.743117,-8.882918,-0.293115
1004.195312,-4.615746,-5.682471,-1.851087,-1.238082
1004.199219,8.136407,-0.373217,3.982312,-1.679710
1004.203125,4.897153,-1.215129,9.333315,-0.629052
1004.207031,0.206456,2.794558,4.127124,5.265345
1004.210938,5.651868,4.829657,11.531031,8.758943
1004.214844,4.823046,7.292958,15.705106,6.450012
1004.218750,10.510894,12.190301,3.545788,10.456413
1004.222656,17.272077,7.731277,19.213789,13.069331
1004.226562,5.299726,3.625270,4.375873,7.420246
1004.230469,13.004169,11.837183,3.468358,12.665797
1004.234375,3.395417,9.037417,4.389420,12.129260
1004.238281,3.869455,8.561009,3.384402,6.118906
1004.242188,9.808775,-6.082450,8.094858,2.824879
1004.246094,-0.581998,4.097281,4.505637,-1.544051
1004.250000,-1.935337,-4.289839,-2.341941,4.006012
1004.253906,9.842932,-2.309241,-8.825201,-1.521513
1004.257812,-4.472437,-1.200454,-7.995657,-2.456772
1004.261719,-16.367765,-10.028582,-8.425561,-8.239462
1004.265625,-10.162578,-3.685043,-10.177633,-15.614594
1004.269531,-16.069492,-6.173300,-7.509785,-18.952425
1004.273438,-11.099897,-6.369525,-12.432691,-5.911816
1004.277344,-9.190991,-0.177014,-9.467806,-13.639122
1004.281250,-14.276157,-12.258540,-7.729519,-6.809755
1004.285156,-6.884790,-8.166058,-6.338471,-1.572839
1004.289062,-2.637850,-6.518689,-1.565783,-9.661117
1004.292969,1.778364,-2.568365,-3.389373,-1.468550
1004.296875,-5.689752,-0.932738,-1.637394,3.957021
1004.300781,5.916801,-2.203503,5.113793,0.717892
1004.304688,1.291089,-5.836724,4.638365,13.142379
1004.308594,5.083911,7.676710,7.028341,12.609154
1004.312500,4.193042,8.374219,8.355388,5.406076
1004.316406,4.042465,7.138133,9.793085,13.724035
1004.320312,8.260241,7.735995,8.025309,9.965476
1004.324219,15.683816,17.143741,13.968323,7.162806
1004.328125,4.699434,4.497368,9.234486,17.935903
1004.332031,6.120378,7.340785,15.396568,8.641228
1004.335938,8.711335,8.833373,2.627242,4.308863
1004.339844,-1.308372,11.080246,6.547169,3.535020
1004.343750,5.285654,5.650351,1.451323,0.162255
1004.347656,4.284861,1.434682,1.397266,11.390867
1004.351562,-3.020939,-0.226899,-4.287557,5.077803
1004.355469,-3.634620,-5.598308,-0.502734,1.352193
1004.359375,-7.373619,-6.806249,-2.017865,-5.864888
1004.363281,-2.731548,-6.337816,-6.254109,-7.408323
1004.367188,-7.147373,-9.741847,-8.312834,-14.375529
1004.371094,-14.050728,-10.926904,-10.576279,-16.287225
1004.375000,-6.362247,-7.230574,-15.641177,-10.572144
1004.378906,-8.467475,-12.826224,-12.537144,-15.868978
1004.382812,-6.987891,-17.565884,-4.721566,-9.080273
1004.386719,-3.624996,-2.885417,-5.624902,-9.486311
1004.390625,4.177288,-6.695841,-10.132497,1.357022
1004.394531,-3.525089,-6.796733,-3.410110,1.044498
1004.398438,4.157954,-1.307084,-3.234967,2.452436
1004.402344,5.696735,4.345423,-0.722787,-6.372600
1004.406250,5.709360,-1.207902,7.126145,0.438693
1004.410156,5.201344,1.488907,9.909858,4.698257
1004.414062,8.491799,4.892358,6.803716,9.428029
1004.417969,4.016219,8.903009,9.692810,9.886143
1004.421875,12.203561,10.647038,3.879488,11.814199
1004.425781,6.043408,16.851024,5.661239,8.050149
1004.429688,8.690638,10.721776,5.845814,11.880310
1004.433594,7.960791,1.902316,14.334972,8.208107
1004.437500,7.102625,5.430266,8.954509,7.368180
1004.441406,9.936573,3.375767,8.399600,5.059364
1004.445312,3.783603,4.289291,-5.316969,1.410861
1004.449219,-3.178656,4.343058,-2.700974,-1.211565
1004.453125,-3.828363,0.979807,6.007411,2.504698
1004.457031,0.002956,-5.472188,-5.354571,1.771292
1004.460938,-3.494342,-6.891551,-11.384288,-7.884382
1004.464844,-15.414280,-10.729832,-3.613360,-3.090763
1004.468750,-8.739371,-8.303427,-13.541471,-8.558938
1004.472656,-7.105738,-7.898296,-8.087341,-9.120669
1004.476562,-10.964728,-10.307472,-13.568137,-14.519835
1004.480469,-11.310318,-11.059318,-10.880134,-7.132422
1004.484375,-13.144458,-0.055969,2.389577,-6.204591
1004.488281,-4.757725,-3.278032,-2.127429,-10.111537
1004.492188,-3.177041,-3.768314,-10.878765,-5.112934
1004.496094,-5.599768,-8.371529,-3.933262,-2.520416
1004.500000,-3.132540,-2.250205,-4.709373,2.328826
1004.503906,4.431106,4.247290,0.638612,3.219357
1004.507812,-0.769070,1.612278,1.600120,6.998288
1004.511719,5.494908,5.143472,5.727065,5.550407
1004.515625,9.883693,14.438716,5.685306,13.238312
1004.519531,14.759940,11.369983,8.929016,10.148726
1004.523438,13.067788,12.693768,8.791997,13.080707
1004.527344,10.081672,10.376402,7.057478,7.692124
1004.531250,1.917645,-1.062018,7.925584,3.718449
1004.535156,7.822466,11.858736,13.071419,12.797843
1004.539062,4.721916,4.782072,6.278156,13.424885
1004.542969,6.370219,7.578368,7.042351,2.643445
1004.546875,3.043295,1.299593,2.705467,-4.600927
1004.550781,3.646166,-3.452632,-6.064194,2.272437
1004.554688,-2.954965,-4.796437,0.184681,-4.911568
1004.558594,-6.564897,-5.984072,-8.607726,-5.838881
1004.562500,-7.563576,-5.027254,-8.241365,-14.495629
1004.566406,-8.070809,-5.975101,-21.479577,-5.123044
1004.570312,-8.891987,-7.515042,-4.295342,-12.937130
1004.574219,-4.267399,-8.686658,-9.748878,-11.440674
1004.578125,-7.441977,-1.978620,-2.008268,-11.846815
1004.582031,-14.101899,-9.168059,-9.248048,-8.787115
1004.585938,-8.250852,-9.840437,-3.516357,-8.515586
1004.589844,-6.567881,-5.056887,-6.123259,0.705608
1004.593750,-1.679564,-0.992103,2.976685,3.448284
1004.597656,2.376820,2.576177,-0.440655,-1.933320
1004.601562,1.476167,7.194575,-5.486395,-2.788152
1004.605469,0.664440,2.714367,2.712799,1.239186
1004.609375,3.551154,8.569123,5.835336,3.680402
1004.613281,8.902381,9.690875,7.745179,0.973967
1004.617188,2.354519,5.597960,7.997385,4.680825
1004.621094,12.893954,9.552292,16.484613,15.093427
1004.625000,0.867538,13.645336,7.196937,10.186046
1004.628906,7.247364,7.949520,7.603149,15.203965
1004.632812,6.995189,2.494963,9.702670,6.265582
1004.636719,10.136070,6.013560,11.298952,9.969784
1004.640625,-0.058534,8.577786,6.523578,6.430554
1004.644531,2.790944,-0.023367,2.655458,2.461760
1004.648438,2.004307,-4.538044,-7.040687,6.486295
1004.652344,-3.532955,-0.954503,0.730497,0.488078
1004.656250,10.679296,-0.044294,-1.296693,-15.426308
1004.660156,-13.485664,-10.967288,-1.014432,-1.951910
1004.664062,-7.389746,-8.896326,-3.402638,-10.822310
1004.667969,-12.966133,-4.817469,-13.761598,-0.205976
1004.671875,-3.945304,-14.785215,-13.186985,-16.295529
1004.675781,-8.189778,-10.369847,-12.112511,-11.659351
1004.679688,-3.638824,-9.652818,-10.217167,-10.552940
1004.683594,-6.822368,-4.982284,-16.425358,-6.713265
1004.687500,-2.733962,-3.487041,-12.511043,-6.234517
1004.691406,0.097327,-5.427309,0.029849,-2.509306
1004.695312,2.472059,-3.666626,4.069006,-7.512475
1004.699219,-1.613442,-1.611722,-2.450004,-6.271150
1004.703125,9.831047,9.362006,-0.652210,2.457756
1004.707031,4.535944,0.953679,3.605536,11.504998
1004.710938,9.737754,7.562913,15.354996,7.066081
1004.714844,12.767719,17.245585,8.304054,7.011910
1004.718750,12.619427,13.556898,11.628785,9.377300
1004.722656,12.094791,11.259887,11.626670,14.428930
1004.726562,18.666873,7.025698,14.037458,8.046338
1004.730469,9.975318,8.984289,17.003042,12.332393
1004.734375,4.689520,6.086022,14.056132,5.848175
1004.738281,4.457617,4.473812,9.197320,10.494941
1004.742188,4.996350,0.779157,3.309638,4.761874
1004.746094,10.248737,10.173054,-2.724815,6.551352
1004.750000,7.072155,-7.313903,-2.337551,-1.529783
1004.753906,-3.964787,0.006340,6.112200,-6.885348
1004.757812,-4.347926,-4.407570,-6.246876,-4.495653
1004.761719,-4.719532,-3.513461,-2.904069,-8.213579
1004.765625,-11.884202,1.974286,-11.762075,-4.606757
1004.769531,-9.915634,-5.431381,-5.605421,-11.501916
1004.773438,-13.687262,-11.821443,-10.147552,-10.454805
1004.777344,-9.014768,-14.816687,-4.687050,-13.613233
1004.781250,-8.775118,-11.629574,-9.036032,-11.145737
1004.785156,-9.068962,-11.054523,-14.409759,-12.078345
1004.789062,-9.530331,-13.024667,-7.817161,-2.408239
1004.792969,-0.701289,1.839968,-8.389761,-10.309441
1004.796875,-5.466704,-7.934389,-3.695453,-2.871549
1004.800781,-1.086948,-1.382584,4.781737,5.508214
1004.804688,6.901448,12.062366,7.079613,2.953604
1004.808594,8.863440,-2.101353,8.698367,3.828032
1004.812500,10.192080,4.636459,1.607900,7.354274
1004.816406,12.333322,6.366439,8.518480,6.327860
1004.820312,7.136252,11.477455,5.890269,7.890590
1004.824219,12.553228,5.096358,7.061968,7.900326
1004.828125,9.649021,7.756257,10.060935,13.434122
1004.832031,13.915292,6.480927,3.597998,13.396669
1004.835938,11.368687,0.088980,3.254468,13.107427
1004.839844,9.272525,0.597391,1.373505,4.977056
1004.843750,9.667459,4.850802,5.610267,1.255456
1004.847656,-4.354630,-0.986886,0.564356,0.579383
1004.851562,1.806126,-2.654874,-5.143168,-5.183699
1004.855469,2.561697,1.414129,-8.472534,-10.923386
1004.859375,-10.776705,-7.753462,-11.108316,-5.825343
1004.863281,-8.803966,-3.298025,-11.314534,-10.341308
1004.867188,-13.509395,-11.000172,-14.066751,-8.382057
1004.871094,-13.250616,-7.949377,-9.084404,-8.211465
1004.875000,-14.040912,-8.455706,-15.026087,-14.133324
1004.878906,-12.670183,-8.563318,-9.028260,-11.957374
1004.882812,-5.647279,-15.531730,-10.640261,-4.307685
1004.886719,-7.105857,-6.824469,-12.771359,-10.253436
1004.890625,-5.823104,-3.622306,-4.426423,-7.556772
1004.894531,-4.732865,-1.525507,-3.253611,-1.390392
1004.898438,0.922396,3.767608,-4.593496,-2.041437
1004.902344,5.511896,-3.843636,9.083676,3.686428
1004.906250,0.929397,8.015990,0.724789,3.985082
1004.910156,11.118772,11.935405,8.557463,2.766504
1004.914062,5.036593,6.873522,10.513027,11.687532
1004.917969,9.625530,9.366562,10.144563,12.646351
1004.921875,11.566859,10.530158,8.155584,11.514637
1004.925781,12.716203,15.593245,13.237444,15.561840
1004.929688,4.456203,8.821941,9.733885,10.139387
1004.933594,2.729893,2.812443,7.370149,2.835689
1004.937500,7.958526,7.766358,13.005262,8.371081
1004.941406,3.121660,8.696767,1.170984,6.799544
1004.945312,7.787184,-0.528749,6.845155,1.662440
1004.949219,-1.400422,7.892435,1.611361,3.835879
1004.953125,-6.402588,0.970661,-4.467734,-1.146562
1004.957031,-12.279028,0.270985,-0.840990,-3.474836
1004.960938,-11.324570,-3.044860,-4.743387,-8.039360
1004.964844,-9.117708,-3.554401,-0.233671,-9.509320
1004.968750,-9.689955,-4.960058,-8.161201,-7.132482
1004.972656,-12.612072,-5.688536,-4.259768,-7.786510
1004.976562,-12.466251,-12.167945,-11.711145,-14.527979
1004.980469,-12.204171,-6.221131,-15.886120,-13.603282
1004.984375,-10.826877,-5.440615,-8.388917,-9.364617
1004.988281,-12.566434,-8.333090,-8.085787,1.635720
1004.992188,-7.052939,-10.838401,-9.625467,-10.263254
1004.996094,-3.198907,2.580625,-3.235254,4.065454
1005.000000,-0.319738,-2.707565,7.926112,5.232844
1005.003906,2.802765,4.056146,3.771533,-9.908420
1005.007812,8.350523,7.497299,8.055295,9.378642
1005.011719,6.421549,14.677455,7.767159,10.397207
1005.015625,7.993292,13.662609,11.221525,4.687428
1005.019531,9.957614,8.961713,6.220637,6.030096
1005.023438,7.484287,15.467379,18.371422,3.773581
1005.027344,7.887067,5.082270,8.963624,12.281505
1005.031250,11.504835,6.418636,10.517420,13.120623
1005.035156,8.364938,10.669517,10.642194,9.980770
1005.039062,10.516228,8.145906,12.165688,9.062315
1005.042969,4.677201,10.562495,2.993889,-1.286849
1005.046875,1.575917,-0.460040,1.464368,5.425505
1005.050781,-4.660740,-3.421665,7.039241,-4.331496
1005.054688,3.244541,0.341832,-5.068404,-4.809355
1005.058594,-3.601759,0.597369,-7.711198,-6.296782
1005.062500,-1.510859,-3.935193,-7.168599,-10.936753
1005.066406,-14.612011,-8.638460,1.994507,-9.466330
1005.070312,-11.803426,-8.303144,-8.567195,-7.782046
1005.074219,-10.671080,-11.573491,-11.278838,-6.861635
1005.078125,-3.809962,-8.874547,-18.609912,-11.176870
1005.082031,-9.209148,-12.743420,-12.100238,-9.310733
1005.085938,-4.497548,-0.814157,-14.384602,-10.935797
1005.089844,-9.098822,-7.621207,0.163888,-8.928325
1005.093750,-7.458524,-7.319060,1.013946,-1.607419
1005.097656,-2.978804,-7.613305,1.759274,-2.182159
1005.101562,-1.764595,2.496830,-2.540161,1.109135
1005.105469,4.890526,3.592150,10.470888,3.541038
1005.109375,8.287023,7.596920,3.148234,6.354425
1005.113281,12.839016,8.515016,8.592081,6.669114
1005.117188,8.795533,4.255595,11.336291,4.505101
1005.121094,11.946033,18.116077,12.100568,7.311826
1005.125000,8.598830,6.958761,4.581711,0.500625
1005.128906,7.386562,5.194665,5.843919,7.189064
1005.132812,9.183673,5.873763,9.432311,8.374234
1005.136719,6.249742,9.033278,14.409947,11.617019
1005.140625,8.298107,2.106788,3.472870,7.464270
1005.144531,2.275170,0.726683,10.018550,5.323570
1005.148438,5.205955,10.529164,-5.021868,6.674978
1005.152344,-4.412548,-2.950914,-3.677831,0.106051
1005.156250,-1.920726,-4.882974,-5.893289,-4.582551
1005.160156,-9.439346,-10.025988,-0.745511,-2.235729
1005.164062,-14.305692,-2.983762,-7.844203,-8.969056
1005.167969,-14.981104,-10.950588,-9.069062,-9.438979
1005.171875,-14.073430,-12.378545,-12.923060,-7.725527
1005.175781,-9.070928,-12.738477,-11.356781,-4.599587
1005.179688,-5.773815,-15.537951,-15.365662,-16.724627
1005.183594,-2.601817,-3.513021,-14.451991,-6.204307
1005.187500,-7.138410,-9.665982,-4.788452,-12.358033
1005.191406,-5.651997,2.235834,-5.830333,-5.983290
1005.195312,-1.071184,-2.760193,0.044857,-1.648633
1005.199219,-1.721644,-3.649496,-2.367166,-0.487433
1005.203125,4.915097,0.616720,2.782457,0.506904
1005.207031,7.614019,1.152132,6.212031,9.221153
1005.210938,10.580156,5.825182,0.925157,6.941079
1005.214844,5.624513,10.065225,10.372162,12.709351
1005.218750,8.904792,10.329281,7.297682,15.220034
1005.222656,19.952020,6.327485,15.225390,4.208838
1005.226562,12.252091,2.484234,6.728519,11.359825
1005.230469,10.754192,10.400064,3.569944,13.331617
1005.234375,13.387753,7.046549,13.928180,12.060897
1005.238281,6.367486,5.566375,-0.097291,12.955886
1005.242188,-2.778609,6.439851,10.324790,-1.679432
1005.246094,-8.989721,2.653041,0.321817,2.892048
1005.250000,-4.718418,2.135942,0.943565,2.330866
1005.253906,-2.054593,2.193295,-4.157805,-3.137063
1005.257812,-2.698663,-1.600296,-2.394346,-3.067380
1005.261719,-10.056381,-11.475465,-6.847403,-9.685044
1005.265625,-8.018539,-8.162664,-7.204841,-5.250120
1005.269531,-13.262174,-7.847727,0.276440,-8.084502
1005.273438,-12.257353,-12.104670,-3.758229,-10.281708
1005.277344,-6.746070,-5.065761,0.559199,-12.200055
1005.281250,-11.174895,-7.011750,-9.195142,-1.534414
1005.285156,-10.386177,-8.879544,-11.940522,-9.774872
1005.289062,0.549034,-7.763178,-6.154538,-11.659052
1005.292969,-6.876662,-11.692808,0.853217,-3.363912
1005.296875,0.188566,-4.005889,-0.306836,-3.922711
1005.300781,1.459985,-0.647031,-0.887194,-0.235211
1005.304688,6.098124,-0.451359,1.208185,7.287002
1005.308594,4.147646,5.583391,2.022440,4.598309
1005.312500,8.760307,5.081091,0.649508,4.939405
1005.316406,10.032965,11.742598,15.506050,1.530240
1005.320312,16.547987,4.232469,19.164314,13.124950
1005.324219,13.496911,7.572207,14.612983,10.920821
1005.328125,15.416011,6.166339,11.852528,11.552152
1005.332031,2.445316,8.028687,10.296564,6.098612
1005.335938,2.137885,3.119488,8.567367,11.065267
1005.339844,9.450154,-4.893989,-2.882709,8.773811
1005.343750,2.332005,2.437299,8.953447,4.436114
1005.347656,10.478076,-4.458342,-1.010366,-5.675761
1005.351562,2.542713,3.605633,1.231895,-4.954042
1005.355469,-14.929499,1.789662,-2.080372,-12.288085
1005.359375,-5.614523,-5.677420,-9.809195,-3.580877
1005.363281,-7.593923,-17.348395,-9.955204,-2.831172
1005.367188,0.323079,-12.178837,-5.651170,-5.037587
1005.371094,-6.574754,-5.251941,-10.207707,-11.754242
1005.375000,-8.598787,-10.899857,-15.309356,-11.684685
1005.378906,-7.026998,-4.261785,-18.120210,0.569184
1005.382812,-10.181723,0.222095,2.796435,-10.975781
1005.386719,1.703407,-8.423772,-5.142341,-6.100452
1005.390625,-2.325398,-12.385431,-9.027877,-1.642395
1005.394531,-2.105963,-3.541675,-1.699245,-8.309301
1005.398438,5.466015,-4.978749,5.068000,-2.828490
1005.402344,5.380212,-1.528981,3.630147,6.238278
1005.406250,5.980990,4.642570,-1.176456,4.499727
1005.410156,10.494099,8.852843,5.223626,3.044811
1005.414062,4.461919,10.434161,8.398935,8.656399
1005.417969,6.076478,6.720798,15.006831,-0.582841
1005.421875,13.396929,11.585526,3.347586,15.244571
1005.425781,10.035328,9.541329,17.018980,6.664004
1005.429688,6.480054,10.496955,20.252071,7.346926
1005.433594,2.191562,11.769225,12.393374,9.000911
1005.437500,7.506136,8.057933,10.722985,7.181160
1005.441406,6.203330,7.825481,1.616750,2.525929
1005.445312,2.026831,8.160730,9.794004,-0.025784
1005.449219,-0.511068,-1.251178,4.585080,-2.657633
1005.453125,-3.302998,-1.682384,-7.013234,3.360420
1005.457031,-5.616857,-2.854708,-1.273350,1.384083
1005.460938,-11.879483,1.509943,-2.436904,-1.738476
1005.464844,-7.398660,-10.216791,-3.388446,-11.955293
1005.468750,-11.066798,3.593889,-11.849147,-11.935393
1005.472656,-8.273965,-12.735062,-9.710857,-8.608202
1005.476562,-4.861380,4.245558,-3.108387,-9.748806
1005.480469,-11.026426,-4.603848,-6.363589,-12.646519
1005.484375,-15.101802,-6.223885,-1.182116,-8.961350
1005.488281,-3.438719,-10.423046,-7.281480,-5.678886
1005.492188,-4.438584,-13.488282,-2.933064,-10.003738
1005.496094,1.266457,-0.343881,-7.412930,1.319328
1005.500000,-0.648388,2.066546,2.961637,-1.723565
1005.503906,5.046756,-1.333633,3.100642,2.166144
1005.507812,7.818496,3.109913,4.024586,2.751820
1005.511719,4.140201,6.872225,12.550739,-5.089147
1005.515625,9.307682,4.925895,7.856883,9.023989
1005.519531,21.693356,7.950912,2.197736,7.842710
1005.523438,5.963390,14.770015,7.341698,9.268057
1005.527344,13.478629,9.503988,6.209181,4.502377
1005.531250,14.688688,7.961168,4.641590,10.929968
1005.535156,10.828114,15.858452,7.546712,12.112287
1005.539062,5.846531,1.192797,3.808048,4.395881
1005.542969,13.085360,-6.492786,7.290731,8.331018
1005.546875,5.868019,-3.642975,9.371666,-4.486006
1005.550781,2.276996,5.480554,-5.550912,-2.385884
1005.554688,-6.685003,-6.186636,-7.695971,-0.932548
1005.558594,-7.801355,-6.075069,-3.609021,-12.090096
1005.562500,-2.212878,-4.069452,-6.005630,-5.610268
1005.566406,-13.105790,-5.489617,-7.254513,-21.285009
1005.570312,-10.642875,-7.104095,-11.593584,-8.173717
1005.574219,-13.074376,-9.488921,-6.880607,-6.642523
1005.578125,-11.413519,-7.312164,-21.580410,-9.926779
1005.582031,-4.936067,-8.467611,-10.217086,-9.640302
1005.585938,-7.930217,-4.298070,-7.615931,-9.148409
1005.589844,-10.452443,-10.195680,-7.944524,0.264187
1005.593750,-12.952514,-3.180173,-9.457552,-3.094910
1005.597656,1.587689,7.298870,-2.760761,-2.389280
1005.601562,-0.027461,-3.366112,-5.073764,3.667573
1005.605469,0.428282,9.520258,5.969795,-0.660737
1005.609375,3.942103,4.769615,14.867414,8.338909
1005.613281,7.414115,5.356023,14.587237,8.263446
1005.617188,11.742087,9.721947,9.215844,1.438199
1005.621094,15.898730,7.256392,4.871624,7.662882
1005.625000,13.122918,9.802840,5.876783,10.240112
1005.628906,8.913867,9.077207,8.593506,8.432974
1005.632812,2.737391,15.122082,12.889249,5.876484
1005.636719,11.592979,4.793295,1.125901,1.260838
1005.640625,9.227627,9.682723,4.664113,2.860884
1005.644531,6.079058,6.988627,2.842362,4.922621
1005.648438,5.639471,-1.640573,2.770346,-0.614392
1005.652344,0.581084,-3.445740,-4.677585,0.166614
1005.656250,1.084832,-7.299669,-3.414149,-7.178374
1005.660156,-2.202695,-5.460701,-10.467265,-7.128575
1005.664062,-7.254020,-12.256895,-13.741584,-12.801458
1005.667969,-15.717044,-10.319529,-7.857631,-6.604663
1005.671875,-17.499225,-22.065360,-8.913331,-14.059572
1005.675781,-12.985481,-15.159663,-11.989286,-11.465899
1005.679688,-9.906228,-14.057753,-16.403265,-4.772720
1005.683594,-9.940537,-11.890971,-7.416022,-13.754805
1005.687500,-10.426060,-8.683514,-11.700855,-2.871974
1005.691406,-5.657262,-2.497807,-13.337509,-8.226375
1005.695312,-0.616328,-5.976340,-8.551885,-1.531552
1005.699219,-0.709244,-0.054870,4.365045,-6.442213
1005.703125,-1.887165,-3.009841,-1.613172,4.015537
1005.707031,8.170572,4.679321,-0.304267,8.095822
1005.710938,3.850592,16.166182,7.536617,12.377805
1005.714844,7.581662,8.100991,8.418050,12.411283
1005.718750,6.463713,7.427821,9.789121,9.502335
1005.722656,13.576915,13.309470,2.973082,7.003865
1005.726562,8.773703,16.742542,15.247549,11.565695
1005.730469,9.291978,21.635318,14.397473,15.336247
1005.734375,10.959410,10.242223,5.861366,3.907661
1005.738281,2.140606,3.995585,6.815638,7.118071
1005.742188,5.729396,2.880161,8.095003,-0.698763
1005.746094,3.662256,2.009487,5.686965,-0.443599
1005.750000,-1.285351,1.774489,-1.993763,2.766163
1005.753906,1.690619,-1.108099,-2.424820,1.218027
1005.757812,0.365860,-6.331490,-9.557326,4.861776
1005.761719,-12.778301,-1.721630,-5.352011,-13.331629
1005.765625,-9.417321,-0.437932,-7.679153,-9.472474
1005.769531,-4.549201,-13.186209,-10.392189,-14.041665
1005.773438,-10.395079,-4.674411,-18.153829,-9.822446
1005.777344,-14.684976,-14.292441,-6.254103,-7.556650
1005.781250,-14.556803,-7.208838,-11.935927,-13.742807
1005.785156,-12.799182,-6.872334,-10.206604,-5.629968
1005.789062,-1.461177,-3.927730,-5.380225,-2.906173
1005.792969,-11.525312,-2.130254,-0.159382,-7.451531
1005.796875,-6.523865,-1.886201,0.126253,-2.075181
1005.800781,3.568873,-1.296777,0.389591,1.135827
1005.804688,4.051414,2.697753,4.532357,2.602856
1005.808594,12.333211,3.220170,3.780764,8.907018
1005.812500,5.507784,7.282268,1.703415,7.621192
1005.816406,9.748580,7.251824,11.074815,8.723202
1005.820312,7.567277,9.943778,9.114131,7.301247
1005.824219,10.239858,6.024627,9.095591,8.372781
1005.828125,12.023280,14.533082,11.316452,9.635443
1005.832031,2.990897,11.954546,3.011288,11.838299
1005.835938,1.084251,5.422785,11.032568,12.103742
1005.839844,7.166801,7.170331,15.373205,3.594886
1005.843750,-0.623474,6.115600,0.152690,2.022724
1005.847656,-1.603840,7.134069,-4.379638,1.721467
1005.851562,-4.171662,-2.977442,-4.547083,-0.048602
1005.855469,-4.326089,1.728312,-7.922184,-0.329126
1005.859375,-0.857272,-7.282219,-4.933776,-5.164539
1005.863281,-6.312877,-8.083594,-8.256228,-6.265763
1005.867188,-4.864532,-6.117333,-6.193155,-9.515388
1005.871094,-20.393458,-9.330896,-13.137689,-9.019240
1005.875000,-19.732487,-16.811017,-15.024663,-16.461168
1005.878906,-8.837400,-13.056695,-3.724210,-5.867082
1005.882812,-4.949674,-19.749089,-4.607257,-6.450509
1005.886719,-11.804381,-11.797844,-6.420065,-7.754998
1005.890625,-8.040059,0.447682,-13.522216,-8.121291
1005.894531,-6.317687,-5.957454,-1.138012,-1.408526
1005.898438,-0.867571,5.851863,4.179362,-0.891050
1005.902344,-1.166975,-0.730884,4.006527,-0.122505
1005.906250,0.069422,9.995951,5.262574,2.492535
1005.910156,9.349124,3.526890,13.266127,5.978578
1005.914062,5.767194,5.233048,7.454176,10.367601
1005.917969,10.762607,9.166635,17.426857,12.424395
1005.921875,10.463854,16.567900,9.568935,8.219630
1005.925781,4.235554,4.849023,4.037955,17.641117
1005.929688,16.204799,9.201480,5.359198,9.344464
1005.933594,5.682926,6.736743,3.432376,15.017162
1005.937500,13.670496,15.990637,7.090884,8.743261
1005.941406,4.359088,2.767696,0.806287,10.068050
1005.945312,5.154089,4.783783,7.405033,6.303846
1005.949219,8.033315,-7.289413,1.958774,2.458318
1005.953125,-1.824125,-1.778773,-1.802907,-0.982759
1005.957031,-3.069578,-5.533633,-1.692627,-2.417667
1005.960938,-12.748515,-7.601655,-10.023098,-1.117397
1005.964844,-7.356429,-4.867331,-7.490425,-8.294891
1005.968750,-9.466601,-6.939965,-16.336159,-9.908467
1005.972656,-18.623420,-4.367673,-6.333307,-7.985711
1005.976562,-11.333501,-10.471556,-13.350426,-12.044149
1005.980469,-9.905127,-8.587830,-5.172513,-6.965704
1005.984375,-5.835299,-12.926362,-2.933488,-10.651681
1005.988281,-11.771487,-4.200809,-9.668249,-10.904357
1005.992188,-2.591354,-7.122164,-1.618923,-5.377299
1005.996094,-3.732409,-4.359700,-5.026970,-0.532849
1006.000000,7.384828,6.398384,1.518036,-0.808728
1006.003906,4.858311,0.506021,1.112672,0.045131
1006.007812,4.075242,6.913114,3.169723,8.051007
1006.011719,-1.020191,6.228490,11.350281,6.812771
1006.015625,5.799455,9.337521,6.135246,11.012924
1006.019531,8.744339,8.372966,9.905637,10.626198
1006.023438,13.196979,3.042818,3.427395,11.790294
1006.027344,14.673352,7.010492,7.606061,16.394139
1006.031250,10.776594,5.377040,5.364854,7.901145
1006.035156,12.824160,6.742128,10.269016,9.038958
1006.039062,6.392844,8.464777,3.007481,8.917298
1006.042969,-4.511251,6.887458,-1.733113,5.453968
1006.046875,3.841582,5.089238,-0.206677,3.880380
1006.050781,-0.250233,-5.687918,-0.124604,1.987766
1006.054688,-5.136528,-1.980147,-3.332932,-8.168675
1006.058594,-6.610822,-7.732166,-1.164044,-12.104340
1006.062500,-3.283494,1.280512,-3.943640,-6.208885
1006.066406,-4.300876,-5.607096,-4.788084,-10.987876
1006.070312,-8.293170,-7.363473,-7.665448,-4.591418
1006.074219,-14.945082,-9.999985,-10.211662,-12.599301
1006.078125,-14.145406,-11.011449,-3.807649,-14.201201
1006.082031,-6.256219,-4.898620,-4.458271,-6.551869
1006.085938,-0.664158,-1.527618,-10.820913,-6.320606
1006.089844,-4.169520,-7.115949,-3.767925,-1.985262
1006.093750,-0.858687,-2.979775,3.136072,2.068979
1006.097656,-7.245211,-4.394973,-1.632002,-2.311773
1006.101562,-2.213672,-0.656665,2.158875,6.720899
1006.105469,3.630422,0.113455,-1.322272,-3.056289
1006.109375,3.422598,7.907406,6.460706,1.103581
1006.113281,18.283418,14.703047,4.629918,7.148007
1006.117188,7.213645,9.169378,9.860058,6.314666
1006.121094,8.384317,8.779864,8.083519,10.921375
1006.125000,4.619476,6.178752,7.662983,7.004752
1006.128906,7.984886,12.042445,7.530662,11.319455
1006.132812,3.551705,5.638334,7.499684,10.526062
1006.136719,8.385197,11.547841,11.870477,8.358695
1006.140625,-1.067510,4.714154,5.865065,2.498634
1006.144531,-4.213065,13.412780,3.048111,8.267783
1006.148438,-2.617057,5.506725,-1.666860,1.685103
1006.152344,4.242839,-3.772099,-3.308969,-2.019399
1006.156250,-5.454402,-0.491185,-3.729393,-4.179292
1006.160156,-6.632562,-6.801368,-2.161520,-8.122930
1006.164062,-10.454548,-13.594348,2.808774,-3.888294
1006.167969,-10.816569,-12.365611,-15.704151,-1.740705
1006.171875,-2.784435,-10.254588,-8.608702,-10.465086
1006.175781,-10.963228,-15.428117,-11.914959,-7.611090
1006.179688,-12.747639,-16.300558,-6.568894,-13.477887
1006.183594,-14.943593,-13.497975,-6.819670,-5.383080
1006.187500,-8.684362,-6.981533,-4.973542,-13.758423
1006.191406,-8.779464,-5.818924,1.453911,-5.051401
1006.195312,-3.398829,-7.355658,-1.532411,-5.111624
1006.199219,1.570382,6.879359,2.815368,-7.540571
1006.203125,3.236814,-0.373530,2.035791,-0.468727
1006.207031,10.951498,9.679898,5.701645,9.950343
1006.210938,3.905892,11.869157,4.119252,0.197484
1006.214844,2.432967,12.718859,10.763682,6.388695
1006.218750,10.381703,11.995584,12.830765,8.006747
1006.222656,16.236233,3.900047,9.774040,14.968474
1006.226562,4.006894,8.869307,9.443808,11.268855
1006.230469,5.439947,6.330597,8.672300,12.346783
1006.234375,1.791211,-0.852705,9.593553,11.327877
1006.238281,9.180838,3.511738,11.961854,8.580824
1006.242188,-1.029125,4.708473,6.703282,3.507905
1006.246094,-2.000334,3.142734,11.065299,-0.096950
1006.250000,2.426788,3.091127,7.110431,0.267186
1006.253906,-4.513095,-11.461472,-1.137697,-5.447130
1006.257812,-3.643208,-9.081450,-3.442816,-2.340967
1006.261719,-7.743367,-6.782741,-1.296155,-4.657414
1006.265625,-6.448754,-12.363547,-11.392112,-2.313135
1006.269531,-11.692606,-12.222004,-10.930775,-8.546924
1006.273438,-9.160345,-8.387640,-9.799898,-6.222948
1006.277344,-11.769541,-17.625131,-9.899161,-21.235838
1006.281250,-10.540358,-6.594691,-17.606744,-10.412226
1006.285156,-4.932504,-11.909012,-5.908259,-3.332677
1006.289062,-11.183692,-1.261563,0.850454,-9.508942
1006.292969,-1.831456,-4.676166,-15.401726,-8.482835
1006.296875,3.503949,-1.913373,2.777989,-5.677805
1006.300781,-0.023651,2.986840,-0.283413,6.379012
1006.304688,1.757126,2.954409,-1.885446,5.002136
1006.308594,-0.175153,4.812748,4.697304,-2.144085
1006.312500,5.686757,5.034719,2.986658,14.076501
1006.316406,2.982228,6.457779,3.555816,3.864685
1006.320312,8.073840,4.836986,5.835088,3.163786
1006.324219,6.862663,12.523206,6.989700,18.184614
1006.328125,15.090924,10.214506,10.518104,16.347049
1006.332031,6.361480,14.311141,11.797003,10.659880
1006.335938,7.750267,8.911679,15.527183,9.173949
1006.339844,4.751124,-1.251153,7.187545,3.432683
1006.343750,1.543548,-0.299081,-0.388097,-0.861642
1006.347656,8.677444,-1.403343,5.162881,3.237758
1006.351562,10.346133,-0.730029,-9.972190,0.989893
1006.355469,-3.182602,-3.300845,-1.762967,1.027549
1006.359375,-8.053357,-3.723380,-11.082032,-7.803375
1006.363281,-4.472278,-5.723564,-10.267296,0.210393
1006.367188,-6.875826,-8.526161,-9.994781,-14.387497
1006.371094,-17.118958,-13.033414,-9.660024,-5.387130
1006.375000,-12.274360,-9.053805,-14.224753,-10.285091
1006.378906,-8.699473,-8.339433,-3.868819,-4.717421
1006.382812,-9.856095,-11.163499,-11.015399,-8.885811
1006.386719,-7.823348,-11.507766,-12.057404,-4.728354
1006.390625,-6.016141,-3.230526,-7.596676,-12.969354
1006.394531,-11.216559,-3.575627,1.129781,-4.877823
1006.398438,0.958000,0.465397,-4.398671,7.004673
1006.402344,-3.468998,1.654433,2.019470,1.648110
1006.406250,3.500537,3.538410,0.625686,5.436330
1006.410156,5.629409,-2.625391,0.268940,6.466816
1006.414062,10.613593,11.087893,5.150016,8.410197
1006.417969,7.872460,15.626284,9.998538,1.073395
1006.421875,9.856105,6.987614,7.447519,13.225360
1006.425781,2.442163,10.648621,12.637922,8.965136
1006.429688,8.389265,8.175970,7.342935,4.243678
1006.433594,4.582535,10.104816,10.735046,21.071599
1006.437500,12.026987,3.591744,10.203621,2.697160
1006.441406,1.096689,5.208744,3.610852,17.001054
1006.445312,3.520180,10.136731,1.758410,9.757713
1006.449219,5.344161,2.524931,-6.286971,1.550304
1006.453125,0.158909,-8.299258,0.456776,-12.116324
1006.457031,-2.946303,-2.679116,0.410476,-17.106819
1006.460938,-2.275406,-9.676594,-6.648484,-9.603196
1006.464844,-12.455842,-6.051155,-10.271824,-4.957162
1006.468750,-11.299125,-5.740741,-8.461682,-0.347630
1006.472656,-12.063564,-11.798662,-7.245200,-11.074203
1006.476562,-12.749182,-14.293994,-10.208481,-19.973753
1006.480469,-9.038230,-4.060698,-7.103673,-6.257295
1006.484375,-8.594069,-14.852248,-11.349842,-9.735462
1006.488281,-8.212718,-8.710411,-6.383023,-14.152760
1006.492188,-2.851249,0.228810,-7.246994,-2.955017
1006.496094,-11.468856,1.209057,-7.365299,-2.811163
1006.500000,0.124692,-7.027871,-8.610817,-3.007975
1006.503906,2.295251,-5.380202,-0.547651,-2.125210
1006.507812,10.089331,3.317234,0.523278,3.753797
1006.511719,3.954244,4.408042,-0.368678,5.210741
1006.515625,12.743316,7.719166,10.350942,7.114129
1006.519531,6.280971,10.162103,7.555294,5.593368
1006.523438,15.917928,13.673307,7.458351,13.866214
1006.527344,8.517372,11.513433,12.773730,11.642235
1006.531250,14.478143,9.612067,14.049528,5.595160
1006.535156,4.637482,8.134709,9.460683,7.701402
1006.539062,5.147766,6.659829,5.955121,10.643262
1006.542969,4.735865,6.297181,-2.779838,3.898504
1006.546875,1.711156,-3.825365,-4.913665,-4.533738
1006.550781,-6.932068,-4.620190,-4.124400,1.628340
1006.554688,-7.150534,-10.437384,-0.852812,-3.738507
1006.558594,-6.223724,-6.894697,-11.234442,-4.937284
1006.562500,-9.208469,-8.369073,-6.169720,-8.402821
1006.566406,-4.641894,-7.010694,-8.336723,-8.335385
1006.570312,-11.503585,-6.348603,-11.124335,-8.844751
1006.574219,-10.583495,-8.365759,-10.034720,-11.279902
1006.578125,-12.956522,-6.679234,-12.651382,-14.723592
1006.582031,-7.645362,-5.571584,-12.932682,-11.161823
1006.585938,-4.660534,-9.986518,-7.765991,-13.139063
1006.589844,-4.746768,-15.270702,-6.953762,-2.916069
1006.593750,-1.245442,-0.974404,-1.223497,-6.208390
1006.597656,2.549418,3.573582,-2.636207,1.408208
1006.601562,2.837498,-6.225898,-3.562441,-5.473966
1006.605469,6.044882,5.670403,4.941932,-1.427796
1006.609375,4.108428,9.269297,2.996164,11.139060
1006.613281,10.643358,13.631056,5.255103,7.213049
1006.617188,14.288849,10.626868,17.899589,12.764858
1006.621094,2.293623,7.869220,6.200914,10.787814
1006.625000,7.246216,10.457092,5.705014,6.387375
1006.628906,12.534021,12.218597,11.262452,6.933538
1006.632812,18.289110,11.570281,5.656710,10.484377
1006.636719,10.027358,10.139569,11.292063,1.061781
1006.640625,9.883376,8.934145,7.021870,0.551524
1006.644531,3.755556,7.644792,0.256528,1.224231
1006.648438,-1.391314,2.338355,0.020864,0.044888
1006.652344,-3.006038,3.038374,-8.196257,-3.202494
1006.656250,-6.572540,2.410067,-15.615081,-5.195639
1006.660156,-10.599705,-10.758678,-8.792281,-4.526799
1006.664062,-4.365742,-6.297817,-11.122955,-12.901582
1006.667969,-4.949768,-14.104749,-11.329981,-3.626611
1006.671875,-12.066950,-8.006168,-8.703632,-1.076363
1006.675781,-12.385995,-0.766604,-7.461433,-13.321993
1006.679688,-13.647778,-7.586601,-10.741760,-3.854362
1006.683594,-10.583775,-8.090561,-8.213173,-13.533950
1006.687500,-7.574814,-4.702915,-9.467086,-3.883961
1006.691406,-7.095771,-4.039954,-8.791692,-2.320706
1006.695312,-1.231291,-11.349208,-4.581461,-0.472126
1006.699219,-3.655483,-3.848058,7.370781,-5.593936
1006.703125,5.381885,2.326202,8.027884,4.552723
1006.707031,7.292818,9.188058,10.367503,11.187986
1006.710938,11.582158,0.973310,4.015690,6.801731
1006.714844,9.168445,5.720584,10.535286,0.914580
1006.718750,11.158567,10.493213,13.580091,6.988021
1006.722656,7.224339,4.406751,12.896472,3.538396
1006.726562,10.807404,8.043702,6.898832,9.188006
1006.730469,6.632349,12.126994,13.507686,16.713053
1006.734375,11.017175,14.781715,9.153078,5.178809
1006.738281,16.456842,3.407831,5.483492,14.936580
1006.742188,-2.847682,-0.415081,8.451630,5.629102
1006.746094,10.052444,2.354931,7.968641,5.012584
1006.750000,-2.403849,1.665214,-0.415579,-9.772844
1006.753906,-10.022806,8.061143,-4.603479,-1.144452
1006.757812,1.445002,-9.145263,-3.272660,-7.999207
1006.761719,-5.189213,-9.320858,1.255712,-2.640103
1006.765625,-15.991629,-6.273108,-3.783709,-6.834739
1006.769531,-9.040266,-8.528242,-9.868716,-17.103313
1006.773438,-11.228413,-13.131238,-13.737172,-13.723634
1006.777344,2.628053,-10.947758,-8.125252,-7.738797
1006.781250,-8.893949,-12.708539,-8.869635,-3.480863
1006.785156,-5.721453,-9.889492,-9.946484,-7.682737
1006.789062,-7.076301,-11.851438,0.303003,-10.869538
1006.792969,-4.719823,-7.722148,-3.840864,-5.183671
1006.796875,-6.024190,-5.242888,1.589435,-0.956339
1006.800781,-4.359932,1.837106,4.088903,6.672541
1006.804688,2.657136,3.576478,-3.427060,-3.421512
1006.808594,1.876725,10.115487,12.412483,9.198138
1006.812500,9.523015,7.710348,2.650566,5.357061
1006.816406,12.621673,8.114862,2.775078,7.483133
1006.820312,6.442431,7.499166,8.854824,9.775326
1006.824219,14.867635,9.416213,11.677349,12.327223
1006.828125,5.826076,6.371057,10.534945,11.189175
1006.832031,0.558041,7.549959,7.687663,13.505599
1006.835938,11.250070,-1.742147,4.085181,3.328976
1006.839844,5.863645,6.761878,1.881536,3.654805
1006.843750,0.261492,8.020946,5.834429,4.054884
1006.847656,0.747986,-4.447488,-4.109252,-2.803056
1006.851562,-1.865577,3.463937,-1.395902,-0.955059
1006.855469,-11.396708,-5.352927,-3.745422,-3.773417
1006.859375,-5.697711,-2.328256,-1.388403,-6.149711
1006.863281,-9.008902,-2.365995,-6.538622,-11.751401
1006.867188,-10.679702,-7.740442,-12.870566,-8.465933
1006.871094,-11.658895,-11.395726,-11.770891,-10.480205
1006.875000,-12.349698,-11.728890,-5.816993,-16.075244
1006.878906,-5.343250,-7.061947,-7.926169,-9.343821
1006.882812,-1.381044,-12.620381,-10.926904,-4.710990
1006.886719,-13.461380,-12.002692,-12.582993,-8.306893
1006.890625,-6.781088,-3.585474,-5.435073,-4.012125
1006.894531,-2.211943,-3.521238,6.253841,-0.427477
1006.898438,-6.015412,-4.750294,0.840734,4.911833
1006.902344,-1.118779,3.400574,-3.787953,2.981080
1006.906250,4.035446,2.802578,3.736026,-1.282172
1006.910156,0.542997,0.974118,2.296849,4.859660
1006.914062,6.647121,8.353646,11.595254,1.388357
1006.917969,12.115283,5.330666,2.543877,7.730377
1006.921875,11.117295,12.571010,12.297777,15.915124
1006.925781,12.334093,12.107593,12.606744,9.346434
1006.929688,8.681405,10.807110,9.725133,11.867532
1006.933594,9.179435,10.559734,8.197793,9.779009
1006.937500,6.178035,9.824522,11.251261,10.231358
1006.941406,3.509605,3.014527,6.610542,4.536633
1006.945312,0.221166,-7.730131,5.485889,5.936444
1006.949219,1.696216,1.895341,5.680658,0.395424
1006.953125,-0.781228,-4.956868,-3.930394,0.892501
1006.957031,-9.426562,-5.396269,-2.280479,-4.478837
1006.960938,-4.296009,-8.837215,-8.418317,-8.120638
1006.964844,-2.838732,-5.870918,-10.056730,-7.991505
1006.968750,-10.951133,-3.282817,-9.360658,-0.173824
1006.972656,-2.985896,-14.109215,-9.640825,-7.266792
1006.976562,-9.126396,-8.034668,-6.999788,-14.341714
1006.980469,-7.182649,-8.448663,-10.622413,-5.648364
1006.984375,-10.035326,-2.951001,-3.784760,-8.166528
1006.988281,-7.230334,-9.606385,-2.040753,-7.009912
1006.992188,-13.290312,-5.220442,-10.131146,-7.007750
1006.996094,-12.144279,-0.115401,-8.942441,0.133434
1007.000000,-1.027670,7.047739,-9.306909,-0.387368
1007.003906,4.983160,3.432777,6.514962,4.989024
1007.007812,-0.420844,11.069581,5.314177,1.928273
1007.011719,10.251356,4.354634,9.689547,7.269956
1007.015625,9.416350,15.628728,10.517316,3.716438
1007.019531,12.497004,8.281496,11.231293,13.732001
1007.023438,11.121615,8.735238,3.045559,2.825546
1007.027344,12.934722,16.837321,10.386697,9.595447
1007.031250,8.284578,15.312575,6.055647,9.163850
1007.035156,6.307089,7.358885,7.482785,3.304447
1007.039062,10.181056,-1.653269,10.613190,8.466155
1007.042969,-8.073205,1.714519,-6.234016,4.915930
1007.046875,-2.000085,7.764342,3.666667,4.718497
1007.050781,-0.879201,1.884932,-3.923378,0.668055
1007.054688,-1.832369,-6.701368,-2.181708,-3.135091
1007.058594,-7.110539,-7.170877,-10.530572,-11.490863
1007.062500,-6.369159,-6.974387,-10.595342,-1.852667
1007.066406,-5.912578,-10.967336,-8.820702,-6.503762
1007.070312,-0.291649,-2.429788,-13.874439,-11.314111
1007.074219,-16.894556,-16.007474,-9.338887,-13.277684
1007.078125,-12.179957,-5.726306,-2.995656,-7.339067
1007.082031,-5.396906,-8.759662,-8.875073,-10.713697
1007.085938,-2.136577,-6.827686,-9.138997,-1.570824
1007.089844,-0.487317,-6.085924,-0.743108,-12.873074
1007.093750,-5.503015,-4.445368,0.185391,-6.530528
1007.097656,-4.339338,-8.053320,-2.581101,-1.116433
1007.101562,4.198209,-1.018338,6.426451,-2.654805
1007.105469,2.677598,-1.592993,2.340441,-1.550171
1007.109375,1.005717,-0.821145,4.123476,8.233099
1007.113281,7.468803,-1.168899,14.967754,1.909390
1007.117188,7.434591,9.123107,11.757438,14.677749
1007.121094,4.442565,10.581946,14.301699,14.450588
1007.125000,11.626571,7.809477,3.021565,4.675631
1007.128906,4.715633,5.140478,10.756684,7.967575
1007.132812,1.930648,4.471368,10.693076,8.818938
1007.136719,12.799975,16.807752,8.729095,6.416859
1007.140625,5.046512,4.852609,2.316192,4.269988
1007.144531,-0.003327,-3.004819,1.174732,-2.940554
1007.148438,-3.229834,-0.497556,-7.432889,5.596923
1007.152344,-4.535399,1.589126,-5.700046,1.315602
1007.156250,-2.022443,-3.582938,-8.114411,-2.127996
1007.160156,-0.793746,-2.326054,-5.663531,-5.545221
1007.164062,-5.077989,-7.663924,-11.430017,-4.388777
1007.167969,-9.968383,-12.944195,-5.039942,-9.847107
1007.171875,-11.258249,-8.381561,-10.386027,-8.148388
1007.175781,-3.380218,-9.954334,-17.951563,-15.119524
1007.179688,-7.620671,-9.803094,-10.172454,-6.098010
1007.183594,-13.049108,-12.439440,-6.468509,-4.287685
1007.187500,-11.764370,-6.060681,-15.441764,-5.799184
1007.191406,-9.689062,3.539476,-1.253920,1.374234
1007.195312,-7.826980,-7.292652,-2.754675,0.608125
1007.199219,-2.688176,-3.654465,2.138199,-3.458586
1007.203125,-3.497093,8.641738,1.274632,2.173925
1007.207031,2.398129,11.377009,0.237664,7.534020
1007.210938,3.220712,6.161078,4.452826,6.309621
1007.214844,7.558515,2.982952,7.761344,12.005802
1007.218750,6.559751,6.191931,5.208493,8.620290
1007.222656,9.512911,9.153714,10.125954,9.735016
1007.226562,10.005269,10.605430,-0.311536,18.445041
1007.230469,13.863862,7.333640,14.014332,10.861368
1007.234375,7.038805,4.077676,2.592573,7.600590
1007.238281,5.153029,14.346398,12.723051,4.906268
1007.242188,4.780256,3.844789,0.803851,0.969980
1007.246094,11.001513,4.818844,4.073161,3.559114
1007.250000,8.515253,1.854270,0.501107,6.262210
1007.253906,3.606158,-6.056554,-4.597800,-9.450416
1007.257812,0.757981,-9.249031,-8.402013,-13.176271
1007.261719,-11.463161,-3.247936,-7.901393,-6.276754
1007.265625,-6.646903,-8.179525,-1.831755,3.023129
1007.269531,-3.251508,-14.962946,-12.091588,-12.005096
1007.273438,-9.351110,-16.298059,-16.833182,-19.093569
1007.277344,-13.381513,-6.275295,-6.996617,-5.846518
1007.281250,-7.047903,-4.244206,-7.817038,-14.793424
1007.285156,-8.612657,-1.752023,-6.348452,-5.537560
1007.289062,-7.515004,-7.904826,-8.213178,-5.791954
1007.292969,-5.891686,3.477704,-4.385523,6.322272
1007.296875,-6.165575,-5.132619,1.602560,-4.255511
1007.300781,-3.282911,-4.183150,3.240454,-0.101130
1007.304688,7.063092,4.051139,3.964551,-6.221940
1007.308594,4.326406,8.790240,-4.030303,2.330398
1007.312500,3.537354,5.595152,4.510087,6.793601
1007.316406,12.879618,5.887424,8.262358,3.760132
1007.320312,9.754264,6.621971,13.193401,-2.399343
1007.324219,7.926489,5.893081,9.899702,15.581143
1007.328125,11.903326,13.634243,13.703331,8.179702
1007.332031,5.704421,10.813163,9.141865,11.161298
1007.335938,13.137593,6.788363,6.335660,4.293295
1007.339844,12.692283,4.019211,1.276639,4.218976
1007.343750,6.560012,6.135667,2.294418,5.511825
1007.347656,-2.351140,3.098100,5.700955,-2.402143
1007.351562,-2.027414,-3.388458,-1.883537,1.556976
1007.355469,1.682567,-0.783860,1.030369,-2.951115
1007.359375,-6.340628,-2.941192,-9.464102,-5.671453
1007.363281,-6.317813,-9.449509,-4.083284,-4.113204
1007.367188,-15.346781,-5.529391,-8.136100,-11.184225
1007.371094,-1.682997,-11.600662,-15.467567,-7.642844
1007.375000,-7.036416,-16.358917,-12.362738,-11.748542
1007.378906,-9.428180,-8.979149,-12.211497,-10.726458
1007.382812,-3.671613,-14.503555,-12.520527,-4.380421
1007.386719,-10.515659,-5.701041,-6.684040,-4.649119
1007.390625,-4.392823,-9.218858,-1.511473,-1.120870
1007.394531,-0.252627,-5.216920,-11.213163,-1.832273
1007.398438,-8.085914,-0.538192,-0.460932,-4.787593
1007.402344,-3.130071,3.519718,8.696562,-1.706582
1007.406250,7.760602,7.669598,9.187373,3.950092
1007.410156,11.671210,7.386227,3.101037,7.024313
1007.414062,7.351642,7.006439,10.861547,0.105290
1007.417969,8.809863,8.472371,4.931407,10.690589
1007.421875,10.009291,6.925505,9.327903,12.632519
1007.425781,4.357966,14.702887,7.312230,9.994254
1007.429688,11.375693,11.415477,8.474421,14.187207
1007.433594,15.699717,-2.611498,11.032998,7.455714
1007.437500,7.259749,0.858868,8.617955,9.078419
1007.441406,1.579938,6.708754,3.786487,9.248701
1007.445312,2.526527,2.017670,1.365108,2.613222
1007.449219,-2.467619,3.153775,6.434597,-1.550511
1007.453125,0.232434,-6.319020,-4.301634,1.685368
1007.457031,-4.838292,-2.086401,-4.281441,-0.936518
1007.460938,-16.054235,-14.501767,-10.580121,-9.344284
1007.464844,-7.876061,-6.261793,-7.849527,-7.390647
1007.468750,-11.157038,-15.167486,-3.817764,-5.221469
1007.472656,-12.657007,-3.629846,-7.573961,-10.292180
1007.476562,-13.141289,-13.016814,-10.399630,-10.669463
1007.480469,-3.209777,1.834965,-9.103619,-7.399505
1007.484375,-4.398959,-10.178315,-6.644421,-5.892092
1007.488281,-5.330983,-5.199218,-7.577570,-4.402569
1007.492188,-5.148312,-11.248757,-4.242435,-10.362463
1007.496094,-7.058031,0.932731,-2.460394,-6.546979
1007.500000,3.767271,-3.529189,-5.919576,1.401848
1007.503906,-2.575386,-0.661691,5.621485,5.916832
1007.507812,1.024403,7.122791,5.032002,-2.773637
1007.511719,5.245784,4.814387,7.696191,9.482852
1007.515625,10.320435,6.045466,10.619317,4.850091
1007.519531,9.870101,8.731840,0.633093,12.543958
1007.523438,3.938334,12.313220,12.775464,12.801349
1007.527344,7.298542,13.382280,13.456584,6.605180
1007.531250,0.578602,10.443086,6.687928,9.136599
1007.535156,9.337461,10.917123,16.022604,9.959703
1007.539062,3.332364,8.308638,6.856649,8.906932
1007.542969,6.670635,1.469073,3.181830,9.611052
1007.546875,-1.183540,2.135912,1.687374,1.861159
1007.550781,0.553672,2.572387,1.525817,-6.731753
1007.554688,0.355747,0.477139,-0.418907,-1.546820
1007.558594,-15.477887,-9.447883,-5.753022,-11.555479
1007.562500,-8.251108,-9.260493,-12.924150,-0.964125
1007.566406,-2.603822,-12.747809,-8.158862,-13.232492
1007.570312,-9.742040,-6.980064,-6.626616,-6.122192
1007.574219,-19.097602,-7.376234,-9.677173,-9.534001
1007.578125,-4.083160,-9.512696,-16.236256,-14.956101
1007.582031,-14.111997,-8.690432,-1.912481,-12.257797
1007.585938,-9.163717,-13.274997,-13.463129,-5.843777
1007.589844,-2.890770,-7.104834,-0.356579,-11.481404
1007.593750,-1.624987,-9.828538,-8.588284,-10.583699
1007.597656,-4.094342,-3.351044,-0.526435,-3.629374
1007.601562,0.948929,1.277415,-0.992079,4.218274
1007.605469,1.390477,-1.173932,-0.717748,17.267002
1007.609375,5.279617,5.653445,4.650557,4.868585
1007.613281,1.168905,10.372256,7.193605,4.484664
1007.617188,13.488074,7.364362,4.662560,9.946789
1007.621094,9.716478,13.063749,3.405198,7.114411
1007.625000,13.439417,7.339972,7.900913,12.107436
1007.628906,9.265518,16.553167,8.556674,9.446680
1007.632812,11.110184,16.353059,9.292625,6.271575
1007.636719,12.526895,5.706188,7.825782,11.072075
1007.640625,2.389172,3.586301,-0.532390,0.841101
1007.644531,4.212135,7.227983,1.069321,-0.150003
1007.648438,1.312455,1.213291,3.991215,4.827795
1007.652344,1.969250,-3.048644,2.664091,3.120802
1007.656250,1.958056,-6.525568,-2.268702,0.144416
1007.660156,-8.452109,-8.873247,-6.819253,-4.845940
1007.664062,-5.738144,-7.105844,-7.128907,-12.376126
1007.667969,-11.013622,-11.475162,-18.659272,-17.521073
1007.671875,-14.525168,-5.878880,0.873433,-5.434614
1007.675781,-11.714555,-5.433801,-12.183794,-14.866135
1007.679688,-8.678417,-10.037804,-5.344298,-5.301225
1007.683594,-8.731683,-6.134597,-7.557074,-10.959228
1007.687500,-8.389687,-15.180626,-3.070140,-10.741895
1007.691406,-10.099582,-3.108793,-10.037455,-9.826775
1007.695312,-7.915046,1.559549,-2.040527,-0.877559
1007.699219,-6.531056,0.132604,-4.883216,4.682780
1007.703125,-0.527067,-4.389259,-0.646491,-6.374248
1007.707031,4.098751,2.820522,4.222268,8.295123
1007.710938,7.450863,5.431177,7.283676,1.817151
1007.714844,9.781880,15.023711,8.736281,8.667058
1007.718750,6.323667,2.165313,4.704699,6.465568
1007.722656,5.712081,7.525988,9.398880,12.326008
1007.726562,14.793173,6.659603,13.263963,14.616108
1007.730469,13.327065,7.156257,14.574715,12.133051
1007.734375,8.239178,3.826830,7.331948,12.233385
1007.738281,8.918371,9.795553,10.160549,2.088352
1007.742188,5.579498,4.900583,5.540251,1.446334
1007.746094,-1.740548,7.811434,1.297567,2.795739
1007.750000,5.386269,1.511572,-6.915099,-1.150681
1007.753906,-0.590371,2.413116,1.003675,-4.802633
1007.757812,-7.000053,-6.540034,-8.201382,-7.523878
1007.761719,-6.535073,-4.851646,-5.135882,-1.677551
1007.765625,-3.049912,-5.287450,-3.320366,-7.904579
1007.769531,-4.333093,-12.934558,-13.639494,-8.817754
1007.773438,-14.770647,-5.316041,-6.769182,-8.797989
1007.777344,-12.588939,-12.178648,-11.396632,-4.621690
1007.781250,-4.511716,-8.526140,-10.209116,-4.180144
1007.785156,-12.262549,-9.843516,-12.734580,-5.451329
1007.789062,-10.007538,-5.496294,-3.972010,-9.796163
1007.792969,-7.326738,-2.853417,-6.838279,-1.858663
1007.796875,-4.031059,-4.264300,-8.590386,-1.241256
1007.800781,-0.506859,-0.266955,2.190525,7.682962
1007.804688,1.642125,3.753644,-0.974208,6.072081
1007.808594,0.595605,6.746607,0.513635,4.403181
1007.812500,6.718664,3.214679,7.092668,7.915185
1007.816406,5.217672,7.319536,11.356433,11.954156
1007.820312,8.215541,14.018590,7.288846,17.014717
1007.824219,10.844840,6.538121,14.141724,10.874474
1007.828125,7.908150,7.653704,15.868456,14.837292
1007.832031,2.117626,8.284571,11.728716,7.306634
1007.835938,5.612827,11.999297,13.436224,11.413121
1007.839844,2.862196,-4.503886,11.459596,12.911208
1007.843750,11.589324,4.084525,0.936398,5.553420
1007.847656,1.611683,7.588289,-3.073500,4.564937
1007.851562,-6.690178,2.415844,-2.990653,-1.971121
1007.855469,-3.481270,-1.870391,-4.583853,-1.238202
1007.859375,-6.673594,-9.153930,1.589939,-3.256002
1007.863281,-7.023206,-1.780090,-9.495322,-8.021623
1007.867188,-15.212678,-9.434668,-13.893369,-6.066357
1007.871094,-8.129917,-17.679152,-14.822426,-3.232116
1007.875000,-11.218806,-12.282244,-9.991770,-9.170764
1007.878906,-7.422453,-9.014819,-10.563693,-14.122007
1007.882812,-2.937720,-6.892672,-7.514464,-17.284756
1007.886719,-4.582693,-0.045876,-6.988157,-10.083852
1007.890625,-2.227478,2.376929,-4.000971,-3.382030
1007.894531,-4.139247,-3.242791,-8.405018,-2.819233
1007.898438,2.630370,-0.597845,0.352773,-1.598666
1007.902344,-2.132087,1.124627,1.583061,3.112107
1007.906250,-0.416241,2.102709,-1.632982,6.415702
1007.910156,6.951235,5.625692,4.441508,1.082110
1007.914062,4.170872,15.108263,21.985760,8.430864
1007.917969,14.595686,4.775795,8.621509,11.966043
1007.921875,11.389238,12.413276,3.997170,10.109014
1007.925781,12.832279,10.517192,10.297111,11.001484
1007.929688,4.498707,7.405520,6.741295,7.348043
1007.933594,6.655922,6.071936,8.325436,12.065980
1007.937500,2.804671,6.382750,16.780663,13.721785
1007.941406,3.056466,6.152814,6.263590,5.719125
1007.945312,7.767806,4.046219,-2.607357,10.600904
1007.949219,-0.075411,7.348571,0.003375,1.342548
1007.953125,3.003837,-4.746236,-1.730244,1.663741
1007.957031,0.063335,-5.602936,-2.492852,-10.614317
1007.960938,-5.860530,-6.798906,-12.251721,-0.643136
1007.964844,-12.900151,-6.914701,-9.345590,-5.735542
1007.968750,-13.074622,-12.192754,-6.380799,-9.109055
1007.972656,-3.875560,-12.344962,-15.908467,-6.349826
1007.976562,-13.637934,-7.607204,-13.866474,-10.758576
1007.980469,-4.037758,-9.625741,-10.847671,-12.414684
1007.984375,-5.238340,-10.590360,-9.138378,-7.605134
1007.988281,-7.352845,-9.311253,-7.726999,-6.713607
1007.992188,-4.623213,-6.578354,-8.657008,-8.442677
1007.996094,-1.433476,-0.853474,3.050842,-1.014917
1008.000000,4.869984,3.428542,-6.886706,0.549438
1008.003906,7.162137,4.985409,5.435213,1.081912
1008.007812,9.593138,7.332543,6.028902,5.026973
1008.011719,8.242708,0.608019,11.060262,4.005051
1008.015625,14.464408,7.916431,5.377858,2.785331
1008.019531,0.649607,12.515162,11.439646,5.625129
1008.023438,11.303858,3.743095,12.811004,6.702581
1008.027344,5.238756,8.076049,7.938113,11.360782
1008.031250,4.675624,10.253146,8.177261,11.905154
1008.035156,7.435492,0.998611,10.468259,4.977485
1008.039062,1.471467,5.164750,10.522443,3.766359
1008.042969,6.278261,8.750111,5.957775,-2.721416
1008.046875,2.073678,7.065197,-3.412397,4.605543
1008.050781,-1.900356,-0.970194,-0.438847,1.172626
1008.054688,-6.861672,2.528902,-7.006978,3.467730
1008.058594,-4.175432,-6.222589,-5.611500,-10.436751
1008.062500,-9.832389,-4.658854,-8.287832,-4.474318
1008.066406,-4.493433,-4.467504,-0.448061,-7.549236
1008.070312,-8.901739,-11.077803,-8.205986,-8.901218
1008.074219,-9.798358,-11.297753,-11.018889,-7.919909
1008.078125,-4.372029,-15.001517,-12.157018,-2.445433
1008.082031,-7.457407,-7.166613,-8.715812,-3.793919
1008.085938,-4.935010,-9.117131,-10.578996,-7.474118
1008.089844,-1.810772,-2.079218,-5.069169,-2.854314
1008.093750,-0.916022,-6.344427,-0.806406,-4.268983
1008.097656,-6.886412,-2.116888,-3.573507,-3.410924
1008.101562,7.729699,-1.978574,-1.891245,-1.990658
1008.105469,5.764855,7.605350,7.587909,6.105057
1008.109375,5.081268,8.090059,6.986363,8.424112
1008.113281,3.801491,11.641824,8.118875,7.450246
1008.117188,3.515258,10.226557,12.315625,9.506712
1008.121094,11.737989,2.263890,11.343140,7.393291
1008.125000,6.425527,6.376886,7.649848,18.810074
1008.128906,10.711338,11.253726,5.436494,14.287107
1008.132812,-2.370505,5.238885,15.186262,11.584358
1008.136719,3.037306,7.208332,6.678503,3.913205
1008.140625,9.559926,8.591628,9.449935,5.122809
1008.144531,8.942558,5.709427,11.838985,6.167280
1008.148438,-0.541438,0.756659,2.312600,-1.046599
1008.152344,4.283568,0.256607,1.178729,-3.851079
1008.156250,-1.860641,-3.484813,0.235247,-5.853568
1008.160156,-6.451272,-5.748567,-9.991101,-5.296402
1008.164062,-7.567804,-8.576951,-8.380125,-10.462982
1008.167969,-2.548615,-4.426942,-0.782286,-8.573978
1008.171875,-10.056145,-5.396278,-5.679651,-5.047436
1008.175781,-4.275149,-1.767067,-11.578163,-14.823326
1008.179688,-10.950203,-13.881874,-11.821876,-10.868404
1008.183594,-10.705633,-11.269550,-9.887113,-6.372303
1008.187500,1.990032,-14.708101,0.591439,-9.557454
1008.191406,-2.197618,4.093243,-4.267628,-9.376335
1008.195312,-4.600504,4.787596,-2.837592,-7.594188
1008.199219,-6.146746,0.041654,-0.084264,-1.160283
1008.203125,10.003309,5.430060,-4.135884,5.296646
1008.207031,1.216209,0.414751,2.640714,2.910071
1008.210938,1.895349,10.528076,9.597699,5.905091
1008.214844,5.993034,6.053692,18.785896,9.029314
1008.218750,9.102947,15.477936,6.891652,9.089893
1008.222656,10.704103,17.925180,14.528113,12.350064
1008.226562,11.625970,16.570332,8.920354,1.354683
1008.230469,13.978498,10.248533,11.507113,8.898343
1008.234375,12.998426,13.349196,12.188587,10.694976
1008.238281,12.638907,6.242563,13.405288,6.385378
1008.242188,9.746364,6.187833,5.649438,5.204625
1008.246094,-0.146343,-1.329858,6.724467,2.216742
1008.250000,5.768283,2.259439,-2.748468,4.459900
1008.253906,2.128398,-3.328480,-10.458631,2.777099
1008.257812,-1.900897,-16.018231,-5.423886,-4.065945
1008.261719,-5.275688,-4.407450,-9.282811,-6.774224
1008.265625,-7.782652,-10.873264,-13.886946,-12.111128
1008.269531,-9.378789,-9.859405,-14.464709,-12.668098
1008.273438,-12.579945,-15.398716,-7.625208,-12.972288
1008.277344,-5.053301,-0.549910,-8.616132,-7.694930
1008.281250,-5.294015,-14.224579,-9.039876,-10.095570
1008.285156,-12.252976,-5.000546,-6.134765,-5.378972
1008.289062,-7.165280,-2.856345,-5.473771,-14.411070
1008.292969,-9.774852,-1.787872,3.386765,-4.767733
1008.296875,-2.900636,5.906596,2.225169,-2.179704
1008.300781,0.842947,1.914696,2.712814,-1.643897
1008.304688,-0.452611,1.695913,-4.247965,1.662236
1008.308594,4.384101,5.014541,9.116821,2.107078
1008.312500,6.630364,14.743660,6.051352,10.730911
1008.316406,9.751268,8.435564,8.481875,10.425718
1008.320312,7.038299,9.648915,9.493392,11.699589
1008.324219,8.046423,12.779352,8.391611,10.686677
1008.328125,13.083476,6.342324,5.631483,10.001963
1008.332031,9.347962,8.869792,13.040313,9.502836
1008.335938,9.084936,17.997310,9.944999,11.509050
1008.339844,0.166677,6.399000,5.457034,2.547588
1008.343750,-0.482722,-1.929103,6.581058,-0.581338
1008.347656,5.326054,6.830826,-0.223803,-0.350180
1008.351562,9.373556,4.426396,-1.028701,-5.234813
1008.355469,-5.585974,-0.543650,-8.148078,-0.107364
1008.359375,-7.221123,-2.886495,-1.523218,-7.777094
1008.363281,-14.509303,-1.511904,-12.050126,-5.837719
1008.367188,-2.648990,-10.459549,-5.943492,-13.135032
1008.371094,-15.364164,-14.620703,-3.564718,-7.082556
1008.375000,-4.071345,-13.612378,-14.809575,-9.610815
1008.378906,-5.370901,-12.422929,-6.419568,-10.048293
1008.382812,-4.737460,-14.361014,-15.140096,1.318426
1008.386719,-0.333758,-4.238282,-6.608301,-2.304430
1008.390625,-1.603270,-11.035425,0.273828,-3.048275
1008.394531,-2.066191,-8.167616,-8.834910,-1.312526
1008.398438,-0.540942,4.606108,-0.203397,-0.113690
1008.402344,0.155911,0.824937,0.825753,5.026548
1008.406250,5.241930,9.430938,6.657094,5.949279
1008.410156,12.572157,10.430654,0.281408,3.260976
1008.414062,4.932165,5.725197,7.485584,5.281004
1008.417969,4.226471,9.419510,10.254809,9.630848
1008.421875,6.842512,12.189563,13.290339,7.795704
1008.425781,11.434489,10.497819,17.076422,3.588929
1008.429688,15.651861,5.878666,12.869542,13.077258
1008.433594,4.765007,9.339249,7.567371,15.412504
1008.437500,-0.728289,4.799712,5.601499,14.271543
1008.441406,4.591797,0.996717,2.595635,3.843172
1008.445312,6.203474,7.684001,9.634538,7.473051
1008.449219,0.679461,2.322620,-2.316122,2.888929
1008.453125,-6.341429,-0.932892,4.399307,3.770359
1008.457031,1.433201,-8.374847,-6.218281,-5.508435
1008.460938,-2.370008,-13.083723,-12.255715,-8.701039
1008.464844,-14.250707,-6.835688,-3.293778,-7.981646
1008.468750,-10.925738,-7.089240,-14.351367,-7.628072
1008.472656,-9.532631,-6.174235,-9.698417,-10.527705
1008.476562,-9.589383,-5.729851,-11.136501,-9.169167
1008.480469,-8.146614,-13.618486,-6.512310,-20.528419
1008.484375,-9.891409,-10.918097,-13.899016,-11.496408
1008.488281,-5.440063,-6.997811,-5.796168,-10.383946
1008.492188,-6.598912,-9.319499,-16.421577,-5.176007
1008.496094,-7.336044,-5.952311,7.030840,-1.712496
1008.500000,1.107146,1.872411,-3.083332,-2.494630
1008.503906,4.747323,1.257826,8.863344,1.705168
1008.507812,5.771614,6.720915,6.577918,6.608442
1008.511719,2.927219,-1.585377,4.041986,4.240547
1008.515625,8.019814,9.165195,9.765172,10.529870
1008.519531,19.538418,11.874574,10.246125,11.544913
1008.523438,0.460493,14.860915,5.349905,2.849622
1008.527344,8.038010,12.088854,5.530823,13.415080
1008.531250,14.066558,10.365017,-0.383243,7.511687
1008.535156,4.554735,11.383329,4.785413,12.446674
1008.539062,15.631816,11.951537,13.308703,3.881828
1008.542969,2.234693,6.321705,14.082500,6.562721
1008.546875,7.365583,-5.507305,-1.484505,-0.471710
1008.550781,-7.217873,1.018743,2.242676,-0.352273
1008.554688,-12.228729,-4.161541,-3.745700,-1.534573
1008.558594,-8.448922,-11.600684,-5.642229,-3.561354
1008.562500,-8.071690,-8.201582,-9.084216,-2.503551
1008.566406,-6.759129,-1.223951,-6.861802,-12.951741
1008.570312,-12.985396,-4.215413,-10.166434,-11.086603
1008.574219,0.079538,-15.809381,-10.789034,-12.382473
1008.578125,-10.414051,-4.787229,-12.931693,-16.389078
1008.582031,-12.513465,-8.684457,-5.773041,-11.181321
1008.585938,-4.923868,-10.211400,-9.401558,-3.772705
1008.589844,-10.729953,-3.119675,-4.774682,0.946711
1008.593750,-5.097787,-2.414583,-10.672242,-3.131043
1008.597656,-7.018667,1.959900,5.556533,-3.845401
1008.601562,1.102806,0.372723,-2.313047,-0.601939
1008.605469,4.689903,0.310126,6.846609,3.011986
1008.609375,0.477308,9.105813,8.270031,6.066810
1008.613281,11.106913,8.638420,11.285627,2.522717
1008.617188,14.188024,11.410170,11.504851,7.608999
1008.621094,4.306282,4.338144,6.669650,18.914244
1008.625000,12.632551,13.802534,10.488945,10.064602
1008.628906,6.982811,8.207752,10.143795,12.207751
1008.632812,3.253504,5.182686,13.310830,5.228613
1008.636719,7.247655,3.494297,6.111243,4.560923
1008.640625,2.234650,10.103217,4.806386,6.521586
1008.644531,3.543701,-3.623937,8.515223,7.108173
1008.648438,7.423678,-0.403083,4.134197,4.065710
1008.652344,-0.945323,3.821776,-2.390952,1.445932
1008.656250,-1.978868,-7.971009,-7.677472,-5.408189
1008.660156,-12.354797,-11.099878,-2.834667,-10.519776
1008.664062,-8.413316,-4.843697,-8.996263,-7.189536
1008.667969,3.321428,-15.821915,-16.749302,-8.932173
1008.671875,-8.155659,-8.842679,-11.792730,-6.677320
1008.675781,-6.951737,-14.648024,-4.347217,-9.415354
1008.679688,-5.583008,-10.922124,-13.740215,-7.306847
1008.683594,-5.295941,-11.082546,-9.255566,-8.756342
1008.687500,-4.869862,-13.001305,-5.062920,-11.097705
1008.691406,-10.381895,-6.559040,-0.812645,-8.725528
1008.695312,-9.966093,-2.682231,-3.812037,-1.848936
1008.699219,-5.387072,2.944071,-7.423957,4.154558
1008.703125,6.002062,3.183625,7.865325,5.075929
1008.707031,4.824785,2.700441,1.940735,5.155241
1008.710938,9.409472,8.257188,8.844347,11.983715
1008.714844,12.642919,5.347724,16.397842,11.871579
1008.718750,4.130775,14.319357,8.099322,6.491212
1008.722656,9.067492,10.544775,13.800026,8.124340
1008.726562,12.219163,13.673066,8.050179,9.288889
1008.730469,10.472687,8.065361,17.109648,6.347039
1008.734375,4.382298,3.346980,4.750409,10.642134
1008.738281,6.092870,4.009114,3.829546,10.871722
1008.742188,11.592446,4.087885,14.684365,2.954566
1008.746094,13.279609,-3.289438,4.985686,6.952884
1008.750000,-4.040532,8.180215,-0.417074,-6.019571
1008.753906,3.340431,-1.870277,-6.080971,3.962274
1008.757812,-1.982684,4.781607,-5.010338,-8.973842
1008.761719,-10.873383,-8.843621,-2.893796,-11.058206
1008.765625,-6.570723,-5.021366,-13.336528,-7.394701
1008.769531,-12.229735,-15.302777,-9.018003,-12.391990
1008.773438,-9.642846,-8.491858,-13.202064,-6.371543
1008.777344,-10.657636,-6.669273,-8.096525,-9.489532
1008.781250,-9.274409,-14.213283,-2.801242,-14.597006
1008.785156,-7.741612,-8.889026,-1.714415,-11.194828
1008.789062,0.167320,-9.272760,-4.453644,-7.237640
1008.792969,-0.642453,-9.656145,-10.074608,-7.844303
1008.796875,-3.633675,-1.266103,-6.241306,-1.773546
1008.800781,-5.130284,-1.966036,-1.282089,1.465062
1008.804688,0.338542,5.588040,3.095982,1.297207
1008.808594,11.337909,4.581642,10.122207,4.083633
1008.812500,13.079157,7.811569,11.058344,7.466937
1008.816406,11.509167,12.604595,10.654842,11.471673
1008.820312,15.082718,8.392957,15.946976,10.254954
1008.824219,14.741732,13.382119,12.958787,12.334192
1008.828125,15.477654,9.031502,8.373064,5.183560
1008.832031,4.478560,9.778615,7.926602,10.962016
1008.835938,10.634283,1.775943,8.079277,8.814412
1008.839844,5.202191,15.758533,2.348026,11.755359
1008.843750,6.521815,-1.235775,5.264992,2.502464
1008.847656,3.230994,-3.618594,4.107878,4.412167
1008.851562,0.541363,-7.089097,1.639178,-1.295480
1008.855469,-1.983716,-1.558826,-2.161266,-0.865881
1008.859375,-3.850989,-7.196867,-9.497362,-8.709187
1008.863281,-5.874943,-2.606016,-6.524557,-10.263798
1008.867188,-11.400782,-8.167068,-7.718899,-6.544538
1008.871094,-12.379715,-15.328671,-12.816399,-2.713293
1008.875000,-12.001183,-11.521857,-13.628624,-14.562576
1008.878906,-10.692791,-9.990437,-7.120676,-5.737732
1008.882812,-9.323346,-4.319820,-6.299130,-7.807692
1008.886719,-5.560282,-7.651403,-10.281418,-5.712981
1008.890625,-1.321522,-10.667286,-4.552763,-4.791504
1008.894531,-9.663541,-5.449715,2.661903,-1.503527
1008.898438,-4.599036,-7.156179,1.838337,3.589584
1008.902344,6.333164,-2.267131,-1.572424,8.633267
1008.906250,5.803644,12.528477,1.805383,4.429640
1008.910156,13.726620,5.926836,4.084443,10.946343
1008.914062,3.969802,7.519001,5.529695,2.230894
1008.917969,9.546180,6.296963,6.459617,4.022840
1008.921875,13.363701,6.955101,16.108990,8.755745
1008.925781,14.547253,11.007949,11.071228,12.328376
1008.929688,8.596516,3.017485,9.671611,9.113302
1008.933594,21.060345,9.047007,5.104224,6.572505
1008.937500,7.276343,4.826364,2.346140,5.440424
1008.941406,5.560262,8.083028,4.083675,4.847199
1008.945312,2.687605,5.872133,-6.559154,7.257730
1008.949219,6.677717,5.136821,4.115470,1.706774
1008.953125,-5.631435,-5.548900,-2.105297,-2.052096
1008.957031,-6.186516,-3.538584,-3.354136,-4.511191
1008.960938,-4.564952,-9.109314,-7.788796,-8.691128
1008.964844,-10.145749,-4.403842,-4.057215,-10.006339
1008.968750,-12.252665,-5.311344,0.077978,-9.678855
1008.972656,-9.782508,-13.024268,-12.262611,-7.760149
1008.976562,-9.174097,-12.582239,-15.747624,-7.838122
1008.980469,-15.505290,-7.090078,-9.346188,-5.704763
1008.984375,-9.441416,-8.623578,-6.042478,-8.449239
1008.988281,-0.657161,-6.028732,-13.267988,-8.621187
1008.992188,-3.828792,1.380852,-4.916152,-5.676741
1008.996094,-12.298930,-1.623013,-5.785185,4.099774
1009.000000,-6.139640,2.224465,-0.725607,6.262103
1009.003906,4.531673,-2.553329,-2.100818,-1.503429
1009.007812,3.188120,10.243929,4.332338,6.162817
1009.011719,7.409316,-3.894529,2.141535,-0.363200
1009.015625,13.252615,0.199294,10.825072,5.048814
1009.019531,6.523589,6.239581,6.239489,11.063668
1009.023438,15.175375,10.597158,12.979187,6.991364
1009.027344,12.608592,19.994218,12.889678,12.577938
1009.031250,6.464514,10.849840,11.119220,6.232244
1009.035156,7.012007,7.239643,9.819611,6.244282
1009.039062,12.803334,7.429399,5.914750,9.197530
1009.042969,5.649083,11.199340,11.295212,6.593143
1009.046875,3.884415,6.256606,0.302834,5.182707
1009.050781,-2.566040,2.954166,5.398729,-0.550521
1009.054688,-5.326499,-9.643681,-4.158043,-9.252391
1009.058594,-4.887031,-3.558863,1.154425,-2.473125
1009.062500,-8.880200,-7.229729,-4.828920,-6.305911
1009.066406,-9.670123,-4.152818,-10.079178,-2.295597
1009.070312,-9.591960,-11.303774,-11.945692,-13.936838
1009.074219,-8.819216,-11.341986,-16.174437,-14.541513
1009.078125,-8.900823,-7.676838,-7.526329,-9.764298
1009.082031,-7.973456,-0.466553,-17.672858,-7.929623
1009.085938,-10.968866,-11.108667,-7.956238,-10.629950
1009.089844,-0.132876,-5.358259,-0.006469,-13.893720
1009.093750,-9.747609,1.517266,-5.214935,-4.892030
1009.097656,-1.977834,-3.550899,-5.550577,3.782930
1009.101562,4.590289,-3.040222,4.722812,4.795328
1009.105469,4.386144,6.374901,-0.089950,7.749851
1009.109375,0.983742,6.852352,8.563917,10.675977
1009.113281,9.412459,5.087525,3.500588,6.510501
1009.117188,2.894887,8.323400,2.569197,7.249983
1009.121094,7.566283,10.282020,9.533437,16.016927
1009.125000,14.226945,6.139944,8.064049,5.658525
1009.128906,8.322113,15.973809,7.730432,15.174746
1009.132812,8.350642,17.435482,11.507461,14.186292
1009.136719,4.001788,4.511577,7.013331,7.414121
1009.140625,6.887633,0.538238,5.554328,10.516670
1009.144531,-0.913227,-4.597613,0.562600,10.172451
1009.148438,0.608720,-4.902478,-2.232967,4.714314
1009.152344,-5.613909,-5.270131,-2.646834,-5.457747
1009.156250,-4.358550,-3.374454,-3.401032,5.937180
1009.160156,-4.042733,-4.119237,-11.174301,-0.457191
1009.164062,-13.265386,-10.056585,6.473559,-9.574946
1009.167969,-14.544180,-3.828021,-13.221672,-11.127300
1009.171875,-7.294130,-10.400882,-7.981410,-12.235331
1009.175781,-8.537808,-12.286294,-14.401234,-11.214492
1009.179688,-9.195940,-11.075823,-1.863080,-6.499485
1009.183594,-14.673806,-1.079165,-8.168978,-11.046963
