timestamp,TP9,AF7,AF8,TP10
1000.000000,7.845338,-1.152911,6.084295,-0.987039
1000.003906,1.222438,5.789044,6.395765,-0.822587
1000.007812,1.029350,1.103373,-1.051616,2.546878
1000.011719,4.958075,4.187631,3.421355,11.547741
1000.015625,5.682626,3.616684,6.033040,8.604343
1000.019531,5.931649,8.756417,8.052584,8.737755
1000.023438,10.152604,19.894567,6.629101,10.760405
1000.027344,11.446882,9.313305,11.325232,9.333477
1000.031250,4.672332,7.171295,10.332096,14.487934
1000.035156,11.028175,12.502435,12.389853,6.935281
1000.039062,4.877336,12.193758,3.284736,6.351276
1000.042969,7.617889,7.412834,1.947801,9.734494
1000.046875,4.092044,0.332969,1.070184,4.799054
1000.050781,-0.120240,-3.884592,-2.849037,-0.877873
1000.054688,-4.740339,-1.443994,3.161293,-9.719811
1000.058594,-2.695875,-1.914362,-8.406376,5.626494
1000.062500,-6.788562,-3.326904,-11.161265,-4.318195
1000.066406,-17.498245,-7.852989,-9.448229,-3.729154
1000.070312,-8.169332,-3.835032,-11.273072,-7.341842
1000.074219,-6.175394,-13.623780,-8.851197,-10.313836
1000.078125,-8.005880,-2.994761,-11.112451,-8.260187
1000.082031,-14.368364,-12.132963,-1.728442,-4.510683
1000.085938,-4.477465,-1.709835,-1.998192,-6.108254
1000.089844,-8.889860,-3.538185,-7.235640,-4.011377
1000.093750,5.080238,-5.570532,-0.445577,-5.766097
1000.097656,-1.223348,-2.173221,-9.832926,3.504403
1000.101562,1.689925,0.983299,2.206015,-0.996786
1000.105469,7.866627,0.008592,0.688298,3.036041
1000.109375,11.708481,7.158685,3.480890,15.675662
1000.113281,7.178633,2.986021,5.136026,2.687451
1000.117188,6.108365,7.030109,10.546603,8.624632
1000.121094,1.253377,9.971891,12.120246,5.020520
1000.125000,10.217404,8.891262,6.620302,10.173932
1000.128906,9.208191,3.998230,12.042642,13.379263
1000.132812,7.682304,10.076717,11.079019,13.554177
1000.136719,3.057932,2.229740,6.662474,3.046836
1000.140625,9.714561,5.080214,9.736420,12.007083
1000.144531,5.217320,-2.653336,2.203544,0.049710
1000.148438,-7.632662,5.715289,2.936140,-2.594031
1000.152344,3.514030,-2.595705,2.238247,2.083690
1000.156250,-8.267768,1.058256,-2.732935,3.950770
1000.160156,-12.334138,-2.280530,-2.156708,-2.609676
1000.164062,-7.478400,-0.394399,-12.493665,-10.654649
1000.167969,-4.427241,-11.366697,-11.144465,-7.432839
1000.171875,-8.794180,-8.021840,-7.131401,-17.495067
1000.175781,-11.184063,-14.025641,-11.189476,-12.582510
1000.179688,-15.899204,-8.020166,-8.948972,-7.423953
1000.183594,-12.356988,-11.027878,-7.894897,-11.497806
1000.187500,-8.812038,-9.975188,-6.390994,-11.894771
1000.191406,-10.422155,-5.073363,-3.667207,-3.104147
1000.195312,-8.896387,0.041707,-2.303753,0.810794
1000.199219,-1.041546,3.213985,1.818085,-0.560434
1000.203125,7.012686,9.824821,1.469267,0.297598
1000.207031,6.157112,9.149502,8.227308,5.016346
1000.210938,9.941042,13.692683,0.588763,5.616976
1000.214844,2.912795,7.229411,4.976365,6.111786
1000.218750,7.023620,9.971266,17.138925,11.836515
1000.222656,10.968237,11.756036,12.160940,5.959369
1000.226562,12.600500,7.943099,10.929053,8.513818
1000.230469,11.691875,13.259377,7.864112,14.169271
1000.234375,4.629950,15.896057,7.131904,5.988331
1000.238281,8.303249,1.496379,7.916420,7.120774
1000.242188,3.998937,9.137276,9.694647,6.252910
1000.246094,-1.804613,-3.428801,1.487487,-1.584903
1000.250000,3.039508,4.398989,-2.463798,-4.148984
1000.253906,-0.834762,-11.810775,-2.426888,-0.248945
1000.257812,-5.440664,0.863239,-3.944524,-7.010069
1000.261719,-11.418539,-2.317898,-2.642413,1.135005
1000.265625,-4.796434,-9.255389,-4.982446,-8.806548
1000.269531,-16.312265,-4.335417,-3.303565,-17.512252
1000.273438,-2.055743,-6.882566,-7.763437,-10.787943
1000.277344,-9.442355,-5.654236,-9.188868,-6.880348
1000.281250,-12.670806,-12.094922,-7.371639,-12.362463
1000.285156,-4.161341,-9.700909,-3.281579,-4.485432
1000.289062,-1.971547,-12.873792,-9.980791,-16.792092
1000.292969,-7.360422,1.894138,-10.721855,-5.872748
1000.296875,1.764647,-3.497635,-4.622516,2.595108
1000.300781,5.072634,-7.339668,-3.071826,-4.218695
1000.304688,-3.224891,0.178963,2.333496,3.585949
1000.308594,12.652711,5.341901,12.411173,2.706135
1000.312500,2.990843,5.467384,4.606071,15.503724
1000.316406,6.079226,12.643218,5.605668,6.599155
1000.320312,4.150216,-3.707586,9.678567,10.194708
1000.324219,8.680440,5.915730,6.909244,4.873617
1000.328125,17.387459,13.629601,12.473963,11.708781
1000.332031,7.648879,6.444021,11.337520,2.178155
1000.335938,10.467559,7.371564,13.931249,7.470009
1000.339844,3.193138,6.308689,3.719846,6.651069
1000.343750,7.381332,8.437358,-4.121185,-2.161077
1000.347656,2.212988,1.677156,3.832648,-5.082400
1000.351562,0.823462,-1.728766,-6.309247,-10.615675
1000.355469,-1.462940,-4.516567,-2.219469,-4.711949
1000.359375,-11.908202,-8.502079,-4.638946,-7.529493
1000.363281,-13.040897,-5.858188,-11.471338,-10.600481
1000.367188,-4.872050,-16.643962,-9.390656,-6.156766
1000.371094,-8.216605,-10.728688,-12.592378,-10.788395
1000.375000,-7.208801,-14.651493,-5.898794,-15.392292
1000.378906,-14.900942,-16.479782,-3.782393,-10.446265
1000.382812,-8.797090,-11.542727,-7.121951,-7.605365
1000.386719,-8.973007,-2.228176,1.329680,-8.536002
1000.390625,-11.380352,-6.122219,3.149868,-7.170621
1000.394531,-1.460165,-3.272439,-4.166917,4.218291
1000.398438,3.366682,-2.298214,1.636586,0.569981
1000.402344,2.680197,-2.436432,-0.026794,1.495937
1000.406250,6.958277,0.772965,1.597368,8.765481
1000.410156,10.411157,5.610365,11.502036,9.791549
1000.414062,6.127457,4.016380,6.578417,13.394986
1000.417969,10.169906,11.864931,13.678738,5.191010
1000.421875,20.253250,7.630275,12.942558,12.111867
1000.425781,5.138129,14.740889,16.800174,9.697008
1000.429688,15.035357,10.494204,9.617610,8.933121
1000.433594,8.566132,5.807266,10.648766,6.006214
1000.437500,9.085875,3.962574,5.608488,7.302754
1000.441406,7.237043,4.508894,5.850131,4.856683
1000.445312,1.692161,2.609857,0.764175,2.855245
1000.449219,5.407322,1.435662,-6.450743,2.181099
1000.453125,0.154363,0.237003,-4.843986,-4.138652
1000.457031,-7.824040,0.604267,-2.965421,-0.807916
1000.460938,-0.491239,-10.464373,-7.707220,-5.257194
1000.464844,-15.109654,-10.123170,-13.049080,-8.050722
1000.468750,-1.842561,-10.780022,-4.834264,-9.217905
1000.472656,-7.097185,-11.793166,-7.187181,-11.561749
1000.476562,-9.266968,-10.918070,-10.286030,-11.293427
1000.480469,-9.853093,-6.998119,-8.705916,-12.571451
1000.484375,-6.715467,-11.148337,-9.107680,-2.626940
1000.488281,-4.921900,-6.529870,-0.704382,-4.691101
1000.492188,-10.057115,-6.626118,-2.796904,-4.359320
1000.496094,-1.739639,-7.433582,-4.512523,-5.196513
1000.500000,1.885931,-0.544406,9.446636,-0.661515
1000.503906,6.239204,-0.541782,2.948609,-0.090329
1000.507812,2.466829,5.890539,5.403221,10.843685
1000.511719,11.968668,16.040895,4.114015,4.131092
1000.515625,10.697393,9.123854,12.211435,3.423841
1000.519531,6.664931,1.660412,7.750554,10.232737
1000.523438,12.845650,10.286786,13.668879,5.309736
1000.527344,6.701694,10.687487,12.458070,7.193865
1000.531250,6.567384,2.096400,12.123656,9.722301
1000.535156,11.889001,13.249706,7.119769,14.222051
1000.539062,5.201567,5.169256,14.228848,-1.896436
1000.542969,5.741923,5.180887,1.205368,8.243420
1000.546875,-0.961362,1.631498,0.753775,-1.714105
1000.550781,-2.903257,1.823617,3.457731,-2.573083
1000.554688,5.576797,3.368622,2.726862,-3.151194
1000.558594,-6.515484,-4.599666,-10.391060,-4.727060
1000.562500,-5.446994,-5.337489,-6.433582,-12.177160
1000.566406,-6.575648,-8.207329,-16.442333,-8.342203
1000.570312,-3.792562,-8.788070,-9.317400,-15.740793
1000.574219,-17.102522,-9.065343,-3.541397,-9.238675
1000.578125,-15.667377,-11.679123,-9.903906,-10.749994
1000.582031,-6.218876,-4.009405,-8.378995,-16.723692
1000.585938,-6.720496,-10.325133,-0.093600,2.182642
1000.589844,-13.510342,0.126336,-5.229762,-7.128051
1000.593750,-2.651614,-2.173293,1.661717,-9.145503
1000.597656,6.803318,-0.175662,-9.684268,-1.841223
1000.601562,4.878995,-4.792590,2.070904,0.022745
1000.605469,-1.039002,4.631635,3.577038,5.904830
1000.609375,-0.248699,5.904649,-0.646958,6.559313
1000.613281,3.729672,9.884122,8.070885,7.260700
1000.617188,7.813677,0.917721,8.335498,8.258357
1000.621094,7.865263,18.347723,5.293749,9.914942
1000.625000,5.483511,12.552564,4.291246,13.181652
1000.628906,10.427360,6.843667,10.544700,13.649917
1000.632812,4.433077,7.338466,7.551733,9.661702
1000.636719,8.430159,-2.751354,8.588654,7.044200
1000.640625,3.661066,2.997201,8.100999,-1.004060
1000.644531,0.100590,9.008235,5.161231,0.601970
1000.648438,-5.385268,0.199656,-1.254585,-5.357837
1000.652344,-6.766108,0.372641,3.755342,-9.807786
1000.656250,-4.377312,-10.651679,-4.798373,1.983450
1000.660156,-4.692977,-5.136398,-4.584253,-4.966048
1000.664062,-5.636471,-11.472448,-7.254519,-2.350359
1000.667969,-9.034246,-10.019356,-5.168591,-11.997067
1000.671875,-6.585063,-9.584724,-10.269324,-7.788713
1000.675781,-13.436121,-4.764146,-6.376480,-13.464509
1000.679688,-13.610663,-6.496885,-12.503036,-10.705971
1000.683594,-7.954811,-10.836067,-6.991777,-6.587541
1000.687500,-9.059602,-12.616653,-5.339015,-13.329310
1000.691406,2.458358,-6.967600,-3.617626,-8.449173
1000.695312,-4.996299,-1.209802,-2.302757,-6.149498
1000.699219,-0.016584,-3.667087,-5.498334,0.952922
1000.703125,5.839989,3.393316,11.160577,3.846319
1000.707031,6.569070,4.188041,4.035177,-2.995977
1000.710938,7.534580,3.576454,4.802665,5.737476
1000.714844,1.075699,15.749237,17.225514,6.838154
1000.718750,13.350472,10.948847,5.003877,2.801526
1000.722656,7.247307,7.376065,16.535346,8.684990
1000.726562,18.662886,12.496609,10.159065,10.978612
1000.730469,8.456171,13.012181,8.442290,13.959061
1000.734375,9.572158,13.631124,11.310596,12.474596
1000.738281,9.712576,4.972432,9.583919,3.508893
1000.742188,1.189695,3.857419,3.543103,8.057085
1000.746094,-6.599560,6.686998,-6.025528,4.910323
1000.750000,1.740157,-3.295929,-1.023929,-1.326540
1000.753906,-3.065370,5.358866,-8.096790,6.289967
1000.757812,-3.269534,-5.983337,0.113609,0.439872
1000.761719,-5.306676,-1.378962,-9.479960,-18.414059
1000.765625,-9.184112,-0.487287,-7.091368,-6.390180
1000.769531,-13.124478,-6.283810,-6.342624,-9.890813
1000.773438,-6.465157,-2.301265,-17.553700,-10.947620
1000.777344,-8.743674,-4.067916,-10.033703,-10.405084
1000.781250,-11.290275,-14.240654,-11.794869,-12.263388
1000.785156,-10.166897,-7.840744,-13.403849,-9.038259
1000.789062,-6.164252,-4.492491,-10.445531,-0.237199
1000.792969,2.577863,-4.552570,-6.661158,0.303667
1000.796875,4.756206,-2.996216,0.306980,-5.904135
1000.800781,-7.277848,2.913774,6.175700,0.792937
1000.804688,6.730557,9.086759,6.122504,7.422237
1000.808594,5.587571,-2.687979,9.081245,2.782357
1000.812500,7.971649,8.177667,0.949528,8.957424
1000.816406,13.749405,4.298121,12.546349,3.411515
1000.820312,9.733153,14.881994,2.356001,6.692192
1000.824219,7.783882,7.049087,6.293826,7.580141
1000.828125,5.756067,6.207662,5.535488,14.770620
1000.832031,12.035937,5.038751,8.896598,11.581402
1000.835938,9.164820,10.426270,11.957883,9.198133
1000.839844,4.890744,8.249767,10.745141,4.734558
1000.843750,5.876084,6.830571,-2.102802,3.040686
1000.847656,-1.272722,12.247726,1.431674,5.193595
1000.851562,4.128562,0.961681,-3.347653,0.051434
1000.855469,-2.200587,0.529684,-9.814869,-2.217530
1000.859375,-1.265994,-3.741603,-4.835360,-3.208617
1000.863281,-10.557603,-6.031616,-3.932352,-1.849256
1000.867188,-5.224287,-11.101664,-11.801080,-11.853520
1000.871094,-12.182457,-11.426558,-11.972612,-11.404498
1000.875000,-14.816742,-5.548264,-10.840409,-12.956818
1000.878906,-11.754039,-19.129590,-9.748878,-9.538988
1000.882812,-10.155191,2.407388,-12.695916,-16.977342
1000.886719,-13.910119,-13.507209,-1.659696,-9.165229
1000.890625,-6.671973,-3.961067,-6.741618,-4.203978
1000.894531,-5.590504,-2.718191,-0.330954,-5.918640
1000.898438,0.535127,5.122708,-3.905326,-3.547984
1000.902344,1.721537,-0.272995,0.772728,10.009100
1000.906250,6.088083,7.654579,-4.857441,8.702482
1000.910156,4.596468,-3.850235,12.375133,9.434668
1000.914062,13.416241,8.920222,12.560454,14.893545
1000.917969,13.501662,11.345294,13.736068,11.770577
1000.921875,5.117292,11.949917,12.181390,10.934339
1000.925781,6.211991,1.966275,14.627420,13.289598
1000.929688,10.392185,13.185613,16.484462,7.716942
1000.933594,7.499506,7.170318,8.963347,0.570510
1000.937500,13.394755,6.968817,9.811890,2.770270
1000.941406,11.495119,7.581676,10.170208,10.199277
1000.945312,1.704038,-0.086505,5.639699,-2.183174
1000.949219,-1.316280,6.187754,4.111209,-2.844465
1000.953125,3.923756,2.415410,-1.793583,-3.798473
1000.957031,-8.862060,-4.370736,-7.431422,-7.663137
1000.960938,-6.207950,-8.797816,-6.646982,-12.727068
1000.964844,-14.106986,-3.609082,-8.205284,-12.331381
1000.968750,-10.740146,-8.545229,-11.929219,-12.848893
1000.972656,-11.764349,-8.006012,-4.377217,-7.424641
1000.976562,-9.653169,-7.344822,-10.361921,-9.685360
1000.980469,-7.138854,-10.124266,-10.441262,-12.313573
1000.984375,-9.915426,-17.502710,-8.049694,-18.867716
1000.988281,-8.985763,-8.184602,-7.488084,-6.659244
1000.992188,-7.265466,-5.162942,-3.419818,-11.691948
1000.996094,-8.709179,-3.441521,-4.520212,-5.340889
1001.000000,-0.545379,-7.287718,3.264655,-10.365183
1001.003906,-1.557330,6.377243,4.658157,8.223365
1001.007812,5.100266,4.322538,8.535368,2.531557
1001.011719,11.525009,6.704832,7.332475,0.179994
1001.015625,6.460315,11.843272,9.923078,6.949515
1001.019531,6.023296,4.743618,7.442611,3.001641
1001.023438,12.372115,8.931883,9.469603,12.745376
1001.027344,13.834200,12.245827,9.032294,12.260392
1001.031250,9.057455,5.979260,7.787238,12.089835
1001.035156,11.834897,11.850231,3.672435,8.126306
1001.039062,3.188171,8.562780,8.130592,10.680871
1001.042969,3.968472,7.671510,9.387756,5.333694
1001.046875,3.835903,1.400803,6.700506,3.038519
1001.050781,-1.912501,1.188618,-1.797524,-2.525571
1001.054688,-0.843509,0.275424,0.546806,-1.803481
1001.058594,-4.753513,-13.165359,-9.550771,-7.336527
1001.062500,-3.907346,-10.301941,-9.706738,-6.042087
1001.066406,-14.293304,-4.360354,-1.526890,-15.010308
1001.070312,-8.987199,-4.092995,-13.142064,-8.250311
1001.074219,-10.959846,-10.036706,-16.245128,-3.808989
1001.078125,-2.868741,-15.846732,-12.530683,-16.862236
1001.082031,-10.898230,-5.506420,-9.414523,-8.211461
1001.085938,-3.105407,-18.630259,-3.833967,-7.524372
1001.089844,-7.123287,-7.704108,-6.194470,-5.377865
1001.093750,0.823050,-7.183406,-8.746154,0.157940
1001.097656,2.821982,2.752068,-1.182891,5.965012
1001.101562,-1.338998,5.589464,0.052405,-1.759495
1001.105469,8.133684,5.110558,6.340114,4.884080
1001.109375,7.988221,2.205584,4.341898,5.249444
1001.113281,7.715592,11.039193,9.429830,15.351708
1001.117188,10.308022,5.295916,12.505657,4.248662
1001.121094,11.617617,14.344925,15.118698,5.173984
1001.125000,7.387733,7.076229,9.756488,9.254021
1001.128906,10.268118,6.128286,7.281699,9.083475
1001.132812,5.590737,10.568586,3.918760,13.379951
1001.136719,1.688179,10.130648,3.550341,6.686622
1001.140625,11.944935,4.381267,6.512685,12.813424
1001.144531,5.601020,4.738332,-1.598017,5.476536
1001.148438,-2.632405,4.842865,-2.134946,-0.747266
1001.152344,1.700237,-2.396192,0.947321,-2.534029
1001.156250,0.097034,-0.677302,-3.707658,2.855922
1001.160156,-1.876835,-4.161589,-5.316091,-0.235309
1001.164062,-10.264268,-6.640731,-8.796878,-8.433691
1001.167969,-4.912526,-11.187517,-8.345081,-9.201322
1001.171875,-13.503654,-8.977984,-14.699205,-6.317265
1001.175781,-9.521143,-15.219517,-11.664061,-20.955768
1001.179688,-9.164790,-6.055724,-5.038063,-12.706356
1001.183594,-15.466159,-4.252424,-7.035165,-6.955326
1001.187500,-2.541893,-5.800050,-1.430688,-7.835090
1001.191406,-4.228241,-0.930960,-2.298920,-6.180358
1001.195312,-5.089121,3.881440,4.224004,-2.851441
1001.199219,3.459059,-3.810054,-0.345453,-0.505184
1001.203125,-3.381031,-1.086027,-2.469521,3.294785
1001.207031,8.432820,11.377336,-2.216562,5.582590
1001.210938,0.523305,5.314753,4.932962,-3.507491
1001.214844,9.904293,4.524621,4.750588,13.472877
1001.218750,2.470802,12.033732,11.151072,4.336627
1001.222656,6.251356,7.411119,23.137476,12.246884
1001.226562,7.062920,17.134986,18.082840,9.852239
1001.230469,7.984885,5.673190,11.953340,11.416041
1001.234375,8.918320,7.175054,14.909810,7.929773
1001.238281,1.118962,6.109684,7.808923,6.055473
1001.242188,6.649861,3.320498,4.074550,7.992443
1001.246094,0.838890,11.188991,-3.181156,3.922445
1001.250000,-3.604295,1.864312,-3.809854,0.005185
1001.253906,-4.391605,-0.221117,-1.921858,-1.262501
1001.257812,-11.995032,2.234670,-12.152114,-2.295994
1001.261719,-12.045256,-12.968587,-10.421640,-5.719803
1001.265625,-8.173024,-8.891305,-8.547299,-6.082425
1001.269531,-7.863680,-5.279982,-13.292308,-13.048757
1001.273438,-13.323069,-6.667222,-10.740584,-11.545499
1001.277344,-4.906809,-10.266596,-3.182479,-13.459765
1001.281250,-9.588829,-6.057519,-7.151878,-4.948450
1001.285156,-6.335802,-13.115834,-7.376145,-10.978728
1001.289062,-0.365574,3.289609,-9.179343,-18.140664
1001.292969,-1.179984,-8.765543,-2.619258,-10.729553
1001.296875,-2.386117,-3.286731,-2.386099,2.545892
1001.300781,0.074597,1.127902,-2.673519,0.690240
1001.304688,0.622120,-4.432759,8.776106,2.861787
1001.308594,3.224226,5.368635,12.061393,4.540770
1001.312500,13.032964,1.258478,16.678224,4.929176
1001.316406,4.696917,5.563851,13.988251,4.958121
1001.320312,7.881873,0.874063,3.840527,9.193278
1001.324219,7.365108,5.713534,9.989148,11.625732
1001.328125,6.784025,6.797065,4.570960,3.508599
1001.332031,2.487679,15.526826,10.829124,3.263753
1001.335938,12.206347,19.319922,10.429478,3.249409
1001.339844,3.174654,4.255881,2.096920,3.416843
1001.343750,7.228122,0.222283,2.593879,1.435200
1001.347656,0.071247,1.683821,5.558362,10.201007
1001.351562,1.286399,2.164073,-5.735822,-1.208623
1001.355469,-4.771586,-5.041044,-2.866435,-1.580323
1001.359375,-5.221778,-1.611672,-13.934085,-13.405739
1001.363281,-8.344357,-7.517963,-6.101507,-7.688459
1001.367188,-7.622985,-4.767161,-7.755362,-9.998694
1001.371094,-12.471326,-3.899901,-3.179982,-3.119640
1001.375000,-18.036465,-14.974960,-7.196571,-8.341765
1001.378906,-10.106472,-3.779909,-11.920313,-8.948310
1001.382812,-15.709768,-6.652255,-17.617608,-7.805002
1001.386719,-3.011121,-3.656171,-5.427235,-8.850220
1001.390625,-2.705248,-5.918410,-7.577601,-9.670914
1001.394531,-5.935371,-2.413632,0.342517,-6.775161
1001.398438,0.737935,0.351600,4.939877,-7.662276
1001.402344,-2.166906,3.376169,9.267354,4.940536
1001.406250,10.587266,9.202645,1.986879,6.981418
1001.410156,1.888435,4.498569,0.920585,12.022458
1001.414062,5.991882,2.665298,5.095317,12.718295
1001.417969,7.767189,5.860608,15.682586,9.622013
1001.421875,11.792688,10.038395,11.791795,8.936652
1001.425781,12.753020,9.717910,15.632559,8.607966
1001.429688,17.687284,5.745672,9.059501,5.847632
1001.433594,4.201623,6.451675,7.001641,12.841786
1001.437500,12.108568,5.270578,-1.217912,11.476250
1001.441406,1.501543,6.561420,4.248076,-0.252747
1001.445312,5.776144,-5.534573,0.542599,4.511923
1001.449219,1.142944,-4.920783,-1.406005,1.529866
1001.453125,0.180472,-3.122169,-4.219678,3.655767
1001.457031,-0.344416,1.011759,-1.695044,-3.633454
1001.460938,-8.528585,-8.283598,-10.898115,-4.643764
1001.464844,-13.354827,-7.410058,-13.445965,-7.025530
1001.468750,-1.253768,-11.242412,-15.371189,-9.097672
1001.472656,-12.188084,-5.976624,-10.855356,-7.886296
1001.476562,-14.754327,-9.499560,-6.797419,-13.126864
1001.480469,-15.812261,-10.648661,-14.170449,-15.443851
1001.484375,-7.232701,-7.394663,-14.375906,-14.982290
1001.488281,-13.525398,-0.826840,-8.434347,-6.195672
1001.492188,-12.799133,-9.013045,0.518365,-4.573395
1001.496094,1.370925,2.830984,-4.070154,0.475493
1001.500000,-3.292765,-4.862083,7.690165,-0.044192
1001.503906,5.763616,2.547107,3.225018,4.075878
1001.507812,6.068526,3.868449,-0.903815,11.423688
1001.511719,8.029814,6.051414,1.199371,4.784664
1001.515625,7.244600,5.914621,12.824441,15.613896
1001.519531,6.714981,21.197051,10.511173,4.583132
1001.523438,7.295895,10.780561,10.685531,6.497948
1001.527344,11.689499,12.906425,8.801752,6.497605
1001.531250,3.920945,6.336795,10.716263,4.975025
1001.535156,2.735809,9.048120,9.352105,4.838307
1001.539062,12.072275,1.518412,10.366739,3.990736
1001.542969,-0.420987,-0.522238,3.821208,7.294909
1001.546875,1.268686,0.121751,6.012558,4.195815
1001.550781,2.424182,-0.491268,-4.369873,0.377511
1001.554688,-8.386875,-12.147294,-5.562008,1.484287
1001.558594,-4.091886,0.515932,-3.409711,-6.454454
1001.562500,-2.450514,-8.109760,-10.980066,-10.690988
1001.566406,-4.972093,-6.615649,0.564321,-6.078701
1001.570312,-12.437016,-8.248619,-12.945152,-15.709566
1001.574219,-8.618267,-5.980061,-5.850059,-9.095427
1001.578125,-10.145812,-11.017971,-10.792865,-0.235152
1001.582031,-8.108846,-12.458561,2.000462,-9.128932
1001.585938,-13.683010,-0.899860,-9.731640,-6.500757
1001.589844,-4.707468,-0.994019,-6.834908,-16.394821
1001.593750,-5.655869,-7.121882,-8.894210,-2.180835
1001.597656,-3.836550,-0.296508,4.527369,4.876331
1001.601562,-4.826537,-3.224221,6.597585,2.900420
1001.605469,2.539511,5.824888,-0.512676,1.665788
1001.609375,6.268033,6.713745,3.624883,2.611106
1001.613281,4.028272,9.310764,4.399846,9.042979
1001.617188,7.256736,7.052429,16.187034,6.743010
1001.621094,8.966507,7.330573,11.190811,11.257316
1001.625000,16.425190,13.801315,2.014352,11.934501
1001.628906,5.217946,6.890433,10.172121,10.607649
1001.632812,11.794034,7.672002,9.991369,11.198031
1001.636719,12.131136,15.145327,3.785770,7.705749
1001.640625,4.272454,3.480563,13.706369,4.830677
1001.644531,6.078226,5.487436,-1.590252,2.072198
1001.648438,2.734857,-6.071775,-3.827177,-3.272674
1001.652344,0.997749,-3.822306,-1.817563,-3.945436
1001.656250,-4.000306,-7.131037,-4.847291,-4.865622
1001.660156,-2.436664,-4.184302,-8.780439,-1.242821
1001.664062,-12.932417,-9.332532,-17.669139,-4.964205
1001.667969,-9.398117,-5.323139,0.964492,-7.175734
1001.671875,-10.818941,-1.313591,-10.695179,-14.743814
1001.675781,-15.112570,-15.115403,-9.284315,-7.712633
1001.679688,-3.989883,-15.736641,-5.547377,-17.415288
1001.683594,-7.686835,-9.571135,-8.310616,-16.732515
1001.687500,-5.046119,-11.997613,-0.561539,-7.611244
1001.691406,2.310212,-1.444301,-6.872274,-4.646824
1001.695312,-6.386326,-4.621367,-6.878953,-4.799562
1001.699219,-2.064883,-6.304999,1.493894,9.309071
1001.703125,0.112501,5.334316,4.614762,1.672734
1001.707031,4.833995,4.885984,5.143203,9.321194
1001.710938,9.126234,5.248869,4.937070,6.229934
1001.714844,10.069793,5.738146,6.977577,1.238765
1001.718750,13.817552,6.727445,6.692537,9.286213
1001.722656,12.920869,8.964899,12.706830,2.333583
1001.726562,9.160698,8.226229,9.509288,9.394419
1001.730469,9.215702,5.525299,2.469370,5.725303
1001.734375,8.402533,9.299649,13.977359,8.042777
1001.738281,9.809176,5.114475,5.740000,9.095477
1001.742188,10.189996,10.914794,4.837111,1.325162
1001.746094,6.474926,4.817268,-2.021773,-4.317162
1001.750000,-8.696213,0.746597,-0.782222,-3.964480
1001.753906,8.135114,-1.470810,-0.886564,-5.303106
1001.757812,-1.638821,2.388693,-5.569751,5.477011
1001.761719,-6.434238,-9.032291,-6.406647,-9.744651
1001.765625,-11.331972,-3.032981,-11.397684,-4.628475
1001.769531,-8.158689,-3.504116,-11.246526,-4.616021
1001.773438,-13.789132,-7.593850,-8.485422,-9.720412
1001.777344,-10.256434,-14.856106,-6.422145,-10.819325
1001.781250,-7.346919,-7.275032,-14.732498,-12.956250
1001.785156,-6.636907,-2.477690,-4.495699,-4.757489
1001.789062,-4.009691,-4.600195,-9.934535,-5.171244
1001.792969,-3.631285,-9.762550,-5.121889,-2.621620
1001.796875,-2.745019,-7.010038,-4.048599,-7.246290
1001.800781,2.978714,-4.864608,0.458216,0.090788
1001.804688,10.254500,1.274222,-0.515175,-1.893841
1001.808594,11.319418,7.696275,1.458918,8.889531
1001.812500,4.714804,4.541569,8.057579,-2.536029
1001.816406,12.140900,15.634386,10.306462,8.721145
1001.820312,13.698394,9.121265,4.541330,10.012146
1001.824219,13.368463,9.839692,9.204415,8.481671
1001.828125,0.796762,13.032112,4.930612,2.064637
1001.832031,6.763271,6.545943,15.031503,10.951239
1001.835938,10.003555,3.939229,1.465376,8.852995
1001.839844,5.380442,8.375326,2.153593,6.271208
1001.843750,-3.907462,-1.352027,4.644534,7.236670
1001.847656,5.758389,-2.604117,-0.638457,4.467257
1001.851562,3.225437,-4.857361,1.402224,-9.430907
1001.855469,-6.919559,-3.063850,-1.546454,-7.080376
1001.859375,-3.418664,-9.156196,-3.045471,1.473169
1001.863281,-9.582682,-7.331543,-1.806208,-3.207234
1001.867188,-4.235083,-6.710340,-14.252561,-5.025564
1001.871094,-18.645109,-8.629366,-8.661051,-7.236501
1001.875000,-14.304562,-7.574173,-6.909610,-14.866159
1001.878906,0.993958,-10.693451,-10.411253,-11.749238
1001.882812,-11.325366,-10.925502,-16.805475,-5.549971
1001.886719,-8.670313,-6.076545,-9.905252,1.046369
1001.890625,-5.894924,-14.293427,-3.854706,-3.184893
1001.894531,7.615734,-8.627020,-4.332759,2.421316
1001.898438,-3.870919,1.296114,-6.649945,-2.063228
1001.902344,1.135431,-1.659040,3.498691,0.145002
1001.906250,7.383993,-0.122474,3.921381,1.232610
1001.910156,3.444853,9.630449,11.184946,8.508581
1001.914062,7.262581,-1.702213,9.833663,10.037800
1001.917969,10.575649,16.381597,12.783615,3.495310
1001.921875,5.075011,14.772735,5.706714,12.017517
1001.925781,10.483088,7.272042,7.385963,21.072502
1001.929688,7.359201,9.312714,10.632859,12.669070
1001.933594,10.822759,5.494448,9.722224,6.905919
1001.937500,12.852079,1.782188,6.304461,4.626267
1001.941406,9.804001,0.548635,7.421728,0.631159
1001.945312,4.684707,5.499275,5.811256,4.883210
1001.949219,-0.785418,-5.412061,4.939797,-1.122791
1001.953125,-7.052254,2.283742,0.118651,-1.013176
1001.957031,-3.701553,0.199539,0.295154,0.813932
1001.960938,-10.089065,0.255075,-3.924507,-7.798403
1001.964844,-6.495326,-9.466573,-6.299374,-17.092651
1001.968750,-9.818290,-16.717915,-10.921071,-4.519929
1001.972656,-4.507795,-9.825301,-5.791497,-11.671940
1001.976562,-4.298493,-3.058112,-1.900457,-1.250055
1001.980469,-10.693571,-11.582059,-11.896691,-13.362506
1001.984375,-7.873996,-11.424768,-2.359817,-6.004306
1001.988281,-8.856871,-6.979647,-10.647747,-5.958105
1001.992188,-10.756865,-9.042416,-7.281344,-5.187486
1001.996094,-9.994863,-7.704476,-1.939746,-5.566195
1002.000000,2.029097,-2.879544,4.773554,-7.360950
1002.003906,-4.348824,0.537191,3.953616,4.496582
1002.007812,0.394495,5.574124,6.756431,11.378190
1002.011719,8.989237,-0.394817,5.992070,10.329847
1002.015625,6.593297,1.736333,11.913992,6.983882
1002.019531,11.774829,13.336450,16.403337,12.482962
1002.023438,12.741761,7.309493,8.483676,10.569409
1002.027344,6.516735,6.109480,12.014084,11.357562
1002.031250,3.116290,8.688237,10.886852,13.143384
1002.035156,9.406262,6.593365,11.715959,-2.200163
1002.039062,11.109757,6.812368,11.616749,4.438541
1002.042969,0.419967,7.161042,4.272806,0.774510
1002.046875,-1.264284,4.563367,4.548753,-2.911819
1002.050781,0.256303,-0.568979,-0.211204,-4.040229
1002.054688,-6.152713,-6.661658,-1.452441,-8.407966
1002.058594,-0.078841,-2.976057,-9.169275,-1.973643
1002.062500,-9.175255,-4.103267,-14.060891,-4.896094
1002.066406,-10.364753,-4.943474,-15.256051,-8.835245
1002.070312,-14.547349,-13.873217,-16.337028,-11.436744
1002.074219,-7.630845,-11.966835,-6.096738,-6.238339
1002.078125,-12.828699,-3.827968,-8.951033,-8.212549
1002.082031,-8.562915,-7.438344,-12.234964,-2.021888
1002.085938,-13.461633,-10.321409,-5.911754,-8.608756
1002.089844,-5.443168,0.106730,-6.021541,-8.482795
1002.093750,-5.350637,-5.954438,-3.978641,-3.019187
1002.097656,-5.245603,-0.893599,-2.518193,3.198855
1002.101562,5.714128,6.411484,4.864632,-0.929916
1002.105469,10.833553,4.236464,1.519689,3.467783
1002.109375,-0.631249,10.028352,2.463022,4.924762
1002.113281,2.436261,4.851404,2.554303,5.868403
1002.117188,10.581228,14.956450,14.337368,12.317836
1002.121094,11.050872,8.799323,15.217458,15.588957
1002.125000,9.764405,1.358797,11.304450,11.155576
1002.128906,11.607901,8.972485,11.909299,18.056011
1002.132812,8.253242,10.928731,13.012355,10.566176
1002.136719,13.546886,7.918281,4.154965,12.845425
1002.140625,7.340371,4.045349,-3.671848,3.597014
1002.144531,1.447902,2.794365,11.088854,8.228957
1002.148438,-2.032820,-9.341924,-4.190506,-2.077387
1002.152344,-2.002916,-2.225993,3.364706,-1.572634
1002.156250,-2.021405,-7.950869,-4.032916,-3.639776
1002.160156,-6.501940,-8.142922,-13.185580,-9.154933
1002.164062,-8.443871,-14.177829,-3.215640,-13.609687
1002.167969,-15.314708,-7.429687,-11.942069,-5.152751
1002.171875,-2.343230,-7.677939,-12.408067,-13.221268
1002.175781,2.963974,-4.914924,-4.251535,-12.571344
1002.179688,-3.027796,-13.284352,-8.950766,-9.029432
1002.183594,-6.681260,-14.193614,-9.065023,-6.006115
1002.187500,4.109544,-13.460212,-6.652415,-8.854285
1002.191406,-5.583959,-9.316212,-9.497590,-6.533355
1002.195312,-8.440639,1.811977,-1.321319,-1.103591
1002.199219,-5.076171,-0.271484,1.097591,-3.473052
1002.203125,5.277047,4.466256,3.159192,5.908540
1002.207031,9.594815,3.743136,2.816520,3.112642
1002.210938,8.382826,9.117898,6.116727,8.994477
1002.214844,7.100940,12.440162,8.747326,0.569310
1002.218750,10.486309,2.925646,7.885635,5.006028
1002.222656,10.313714,11.846932,6.659833,5.127713
1002.226562,9.699768,3.777374,21.075433,11.002654
1002.230469,13.789438,6.735629,5.372344,7.585950
1002.234375,6.184044,4.974460,12.805551,7.391917
1002.238281,6.573014,10.541610,10.989724,4.536026
1002.242188,8.671296,10.568825,3.186615,4.910605
1002.246094,5.433337,-3.006346,0.463436,5.991866
1002.250000,0.448506,1.507859,-2.285700,-1.209552
1002.253906,1.651586,-8.724958,-0.358922,3.259261
1002.257812,-3.992701,2.187534,-4.839797,-6.833626
1002.261719,-3.754619,-1.092052,-8.947617,-7.861886
1002.265625,-5.334341,-5.837653,-8.583857,-7.044749
1002.269531,-10.636118,-10.922590,-12.596220,-9.264123
1002.273438,-15.005226,-13.538410,-12.118694,-7.799398
1002.277344,-14.707996,-10.374634,-10.449697,-6.985513
1002.281250,-8.855209,-10.913104,-9.251047,-8.262308
1002.285156,-10.462634,-6.360204,-14.009990,-10.966122
1002.289062,-0.735868,-1.953875,-5.664654,-5.565003
1002.292969,-5.256051,-9.711580,-4.001887,-0.410970
1002.296875,1.607391,0.627988,2.072640,-1.656171
1002.300781,0.600351,-4.214290,1.754212,0.657421
1002.304688,2.661667,2.978641,-1.097896,7.683331
1002.308594,6.646153,9.774276,1.466382,4.429316
1002.312500,7.703572,7.205687,3.300663,10.441899
1002.316406,11.413055,8.240347,14.855467,3.284573
1002.320312,8.536421,7.584330,3.921090,10.866675
1002.324219,15.078670,6.221418,8.185097,4.442347
1002.328125,10.309041,7.402436,11.980798,18.629961
1002.332031,5.972776,5.859535,3.611684,10.248304
1002.335938,7.405478,13.078484,8.558899,10.470760
1002.339844,10.004084,13.506978,8.056389,6.929482
1002.343750,0.700014,8.068255,12.181505,-0.231687
1002.347656,6.814176,-1.095756,-1.977828,-1.701133
1002.351562,-9.053509,5.261123,-2.537169,-3.276701
1002.355469,-9.910995,-5.476207,-1.645443,5.340029
1002.359375,-0.860513,-9.309828,-2.169167,-0.210006
1002.363281,-8.238593,-2.131713,-9.804622,-4.935313
1002.367188,-9.058405,-7.539492,-6.524716,-17.743978
1002.371094,-11.686438,-13.214384,-8.860640,-14.441759
1002.375000,-14.109573,-3.086017,-9.787246,-9.409344
1002.378906,-14.188310,-11.988747,-12.402792,-5.027032
1002.382812,-3.550416,-7.107115,-6.878991,-12.865423
1002.386719,-14.382688,-7.942636,-13.191933,-3.454208
1002.390625,-13.272517,-8.761092,-5.773759,6.379919
1002.394531,-1.060441,-8.085028,-11.471953,-1.290825
1002.398438,-0.689238,3.248496,4.871452,2.655866
1002.402344,-3.138943,-2.299530,4.374405,0.838191
1002.406250,2.966630,10.107801,8.853373,0.971794
1002.410156,6.640036,7.785879,6.659425,0.807304
1002.414062,4.734597,10.772255,12.847149,5.122182
1002.417969,6.134695,7.416381,8.447814,13.892325
1002.421875,12.065883,11.565163,3.897172,8.987214
1002.425781,15.274081,12.112062,9.604131,7.300358
1002.429688,7.063865,8.119383,8.296875,10.609329
1002.433594,12.197914,8.626263,1.187486,6.290704
1002.437500,5.201997,0.873548,7.223293,12.031791
1002.441406,2.354390,3.788973,10.872866,5.291503
1002.445312,2.308217,-0.728450,5.540828,3.585487
1002.449219,-3.697853,-8.443102,0.256264,3.912065
1002.453125,3.312889,-4.266606,0.342141,-1.523832
1002.457031,3.285412,-0.148123,-2.818952,-6.449609
1002.460938,-10.405370,4.568676,-7.686718,-3.950276
1002.464844,-3.763820,-4.667879,-9.047284,-11.104741
1002.468750,-4.580053,-14.767243,-10.811606,-12.354788
1002.472656,-4.573109,-11.349344,-9.631032,-10.421790
1002.476562,-9.410703,-2.730828,-7.064940,-10.117122
1002.480469,-9.028651,-10.609182,-6.810442,-10.165937
1002.484375,-2.084180,-7.559288,-3.089745,-9.427136
1002.488281,-3.453890,-9.158215,-3.239097,-10.563000
1002.492188,-5.023736,-6.269527,-6.958799,-0.253542
1002.496094,-3.450675,3.750163,-3.505769,-3.774538
1002.500000,2.085682,1.479596,0.898559,1.151404
1002.503906,6.105814,-1.540463,-1.643202,0.365515
1002.507812,10.277995,13.668043,6.232225,5.744312
1002.511719,2.592280,9.530068,9.663017,1.221371
1002.515625,10.798755,18.276325,8.026769,5.363478
1002.519531,6.756683,10.191140,12.694209,2.188222
1002.523438,14.508323,5.640138,10.303631,3.101781
1002.527344,15.807003,8.566103,10.754661,10.213254
1002.531250,11.209760,11.737557,10.023525,12.085476
1002.535156,9.599349,12.935116,7.716736,2.333899
1002.539062,11.353938,9.014421,8.232730,10.658105
1002.542969,6.644242,4.846101,3.870801,5.988352
1002.546875,6.170610,5.321252,4.129746,3.480286
1002.550781,0.099576,-1.123244,0.920223,-2.203127
1002.554688,-3.065157,-7.947232,-14.243289,-4.028943
1002.558594,-3.472647,-2.482977,-7.435856,1.345874
1002.562500,-5.668251,-4.283725,-8.826283,-4.013384
1002.566406,-5.630285,-3.659255,-13.060064,-12.536278
1002.570312,-14.389897,-5.773336,-9.967216,-3.246856
1002.574219,-9.698482,-16.214798,-6.488005,-11.891026
1002.578125,-10.489216,-8.233595,-8.803344,-5.611806
1002.582031,-13.768436,-0.583929,-9.540864,-10.708723
1002.585938,-14.672627,-12.198366,-9.729648,-9.621291
1002.589844,-10.435620,-1.794360,-11.070867,-4.195082
1002.593750,-3.345560,-2.381597,-7.025672,-9.464512
1002.597656,1.185977,-1.545211,-4.406743,7.895222
1002.601562,-4.204293,2.558023,6.935917,-3.429996
1002.605469,-4.388980,1.073235,6.177358,2.528135
1002.609375,3.017736,2.128976,10.312918,5.997516
1002.613281,11.740998,8.885884,5.151893,8.964785
1002.617188,11.175521,4.696102,13.516233,13.092660
1002.621094,12.763554,5.456036,15.394335,7.689654
1002.625000,10.389245,8.417774,16.126125,8.164413
1002.628906,13.519350,9.913199,11.513857,9.138122
1002.632812,11.404033,6.315222,4.644732,11.977326
1002.636719,9.869815,0.929824,1.290544,6.105138
1002.640625,11.858426,5.661825,3.252072,7.924332
1002.644531,3.244067,6.852143,2.373119,13.835698
1002.648438,-3.966734,-0.435514,5.620125,-3.677090
1002.652344,7.444698,-4.338169,0.058155,-2.810474
1002.656250,0.195611,-9.376888,0.254824,-10.415521
1002.660156,-10.318040,-2.570794,-19.406117,-11.423890
1002.664062,-8.012593,-13.719911,-3.573655,-8.988330
1002.667969,-12.953596,-2.987183,-5.738720,-13.591762
1002.671875,-6.997308,-5.758832,-0.767965,-4.757692
1002.675781,-5.466785,-2.042722,-12.470932,-3.074149
1002.679688,-7.774425,-8.339400,-4.363556,-11.219074
1002.683594,-10.677847,-2.028449,-10.094333,-7.226867
1002.687500,-17.457812,-6.030102,-8.736190,-7.311168
1002.691406,-5.630639,-4.375737,-11.447277,-8.054780
1002.695312,-0.342947,-0.321747,5.471537,-1.807353
1002.699219,9.020552,-0.849383,-2.097566,4.472600
1002.703125,1.353794,5.436808,3.931093,3.980626
1002.707031,2.762288,7.956642,6.096545,1.462414
1002.710938,6.783337,6.823575,10.624299,11.725688
1002.714844,-0.530586,8.758899,8.684677,9.178470
1002.718750,2.020617,10.876518,12.021938,10.911288
1002.722656,12.633439,6.847174,11.206170,7.492536
1002.726562,14.031454,18.330853,17.920402,11.399091
1002.730469,4.236792,8.778444,14.962923,10.946768
1002.734375,7.240317,8.983113,5.069741,8.891179
1002.738281,2.094817,0.262711,6.376919,7.849891
1002.742188,2.822445,10.021922,-6.093353,1.679957
1002.746094,-2.268039,3.454874,7.377564,-1.389356
1002.750000,6.956558,5.814032,-10.385667,1.612778
1002.753906,-2.174462,-5.216123,-2.096638,0.914878
1002.757812,-2.704512,-0.462850,-4.116766,2.169660
1002.761719,-9.417473,-14.662486,-12.629548,-4.944484
1002.765625,-10.599012,-7.808783,-2.357693,-4.361536
1002.769531,-11.561033,-18.080946,-11.421422,-11.695457
1002.773438,-6.893522,-5.373235,-14.277473,-16.627537
1002.777344,-14.024165,-7.267854,-13.988119,-6.797207
1002.781250,-8.700663,-9.862337,-3.227710,2.219756
1002.785156,-15.293199,-12.560685,-4.247741,-6.710790
1002.789062,-1.853351,-10.247830,-11.132889,-11.818956
1002.792969,-0.541002,-6.892549,-4.030198,-1.242153
1002.796875,0.349072,-2.525518,3.043741,2.532736
1002.800781,3.799116,0.037173,3.029819,7.226868
1002.804688,3.722082,-1.843747,4.605434,5.980728
1002.808594,6.106730,0.325321,8.329061,10.705184
1002.812500,13.961306,6.093843,2.478704,11.749598
1002.816406,14.053150,4.619765,9.134007,11.117501
1002.820312,5.001857,0.050694,8.127120,15.118573
1002.824219,12.332867,7.798397,13.696856,12.923667
1002.828125,11.651766,7.611668,9.137926,7.187432
1002.832031,8.141976,9.062506,10.028603,13.978255
1002.835938,4.191561,4.210306,10.941560,3.656906
1002.839844,17.606027,11.987785,13.394205,7.385066
1002.843750,4.803103,3.130148,5.692447,4.085613
1002.847656,1.660802,6.261842,2.489120,1.761024
1002.851562,11.358201,1.288513,-4.273619,-4.352165
1002.855469,-1.106969,-4.969181,-8.747952,-3.358065
1002.859375,-11.631537,3.546366,-5.190946,-1.698939
1002.863281,-10.965971,-11.105754,3.250467,-13.098167
1002.867188,-8.477586,-5.720959,-5.906720,-12.527267
1002.871094,-9.815794,-18.628313,-10.452550,-11.406511
1002.875000,-6.636760,-9.072299,-14.689589,-9.352883
1002.878906,-6.696157,-8.773755,-13.865820,-8.215011
1002.882812,-11.119130,-6.581237,-10.423680,-6.439123
1002.886719,-14.242363,-6.764218,-5.997739,-9.932169
1002.890625,-5.873090,-8.375707,-6.962278,-11.967487
1002.894531,-8.330490,-5.645231,-2.572585,-2.100908
1002.898438,-8.371038,-0.149150,3.210485,-9.940203
1002.902344,3.035120,-3.620767,6.051015,-0.605609
1002.906250,9.052476,-3.138333,5.339315,2.368606
1002.910156,6.055488,2.589829,3.424212,1.772806
1002.914062,4.070985,8.527811,4.696012,11.941299
1002.917969,7.530077,-0.942746,7.965010,8.149768
1002.921875,2.915429,9.396673,11.435559,13.236385
1002.925781,13.403723,15.445285,12.426945,18.636792
1002.929688,7.255594,10.161156,13.475092,7.861350
1002.933594,14.433812,7.189103,4.089656,5.879184
1002.937500,-0.181994,8.142141,13.000170,5.875450
1002.941406,4.514229,-1.267584,-0.492726,4.799249
1002.945312,4.050458,6.964791,8.994718,5.935345
1002.949219,7.037124,3.128530,-3.894329,-4.728584
1002.953125,-6.141608,2.655901,-7.449851,2.895430
1002.957031,-4.340951,-7.490195,-3.261843,-6.288374
1002.960938,-11.659130,-4.125858,-4.823535,-2.220290
1002.964844,-9.118558,-8.807753,-7.827576,-15.245752
1002.968750,-15.204673,-12.265131,-1.480119,-7.066936
1002.972656,-6.761963,-10.444048,-11.356743,-10.734552
1002.976562,-6.819640,-12.143378,-7.792815,-16.196469
1002.980469,-3.542305,-6.552605,-10.629815,-15.906370
1002.984375,-1.306758,-3.161582,-12.189390,-2.432824
1002.988281,-10.286058,-14.159062,-8.089238,-2.684217
1002.992188,-3.419800,-0.798326,-7.760061,0.053888
1002.996094,-2.461780,5.762895,-5.645511,-2.806128
1003.000000,-3.463300,1.507448,-4.670205,5.562495
1003.003906,-2.252906,3.256301,8.157485,2.074075
1003.007812,10.376583,0.893452,6.280663,3.700352
1003.011719,6.587434,7.458227,3.154106,6.196026
1003.015625,8.118702,8.027913,8.788692,12.543711
1003.019531,7.576767,14.060977,14.729179,8.078990
1003.023438,14.502008,4.010246,7.099187,9.693811
1003.027344,8.725319,7.646280,12.514528,9.552522
1003.031250,2.882331,6.408851,4.097035,8.087221
1003.035156,9.894245,6.329868,7.393060,11.645424
1003.039062,0.318454,5.287461,4.087433,3.116387
1003.042969,10.359733,2.097292,4.718082,2.132949
1003.046875,1.866249,-3.571729,5.022934,-4.325870
1003.050781,-2.157686,4.387677,-5.682089,0.167049
1003.054688,-1.106234,-5.244460,-10.237443,1.366587
1003.058594,-10.972634,-8.178763,-10.625298,1.243365
1003.062500,-5.083744,-0.095073,-11.765986,-5.820226
1003.066406,2.762555,-14.431182,-4.179977,-10.035544
1003.070312,-6.720844,-10.887405,-10.009179,-5.166838
1003.074219,-10.396239,-18.856844,-3.520050,-9.521374
1003.078125,-6.655715,-9.284539,-8.308358,-10.226054
1003.082031,-7.386943,-5.983809,-9.904375,-8.517435
1003.085938,-6.832119,-9.898913,-7.209523,-8.208494
1003.089844,-3.307458,-1.775946,-11.383506,-10.351670
1003.093750,-15.481083,0.370541,0.806377,-2.743478
1003.097656,0.647503,-2.459699,2.607508,3.209112
1003.101562,-1.337473,-6.785092,4.282287,-1.302578
1003.105469,3.904149,8.727681,2.675925,7.561340
1003.109375,5.320103,8.115434,3.962589,7.525596
1003.113281,11.362938,5.427704,12.170926,2.679466
1003.117188,10.222803,11.909843,4.880079,8.602757
1003.121094,16.287634,15.237322,6.975505,8.479783
1003.125000,10.789318,9.575160,12.405144,12.069841
1003.128906,10.861878,11.300045,13.736796,9.066627
1003.132812,5.353064,11.399031,12.515269,10.560293
1003.136719,6.088958,2.589361,-0.491052,2.809546
1003.140625,7.595816,5.739948,11.560031,2.328783
1003.144531,5.414300,0.996666,-0.096558,-1.468967
1003.148438,-1.634309,-2.690739,-0.737740,1.655403
1003.152344,-0.156128,-6.061417,0.314449,-0.004561
1003.156250,-6.499266,-5.559371,-3.388116,-10.259138
1003.160156,-5.960635,-9.280581,-7.529333,-9.349550
1003.164062,-8.910609,-11.127263,-3.876257,-2.364266
1003.167969,-9.946827,-11.446209,-8.525406,-14.050541
1003.171875,-8.279562,-8.962949,-14.540408,-8.317020
1003.175781,-11.119931,-13.913113,-4.673192,-14.424754
1003.179688,-15.526411,-7.534870,-8.413820,-7.559957
1003.183594,-4.985960,-10.321477,-11.496082,-4.335670
1003.187500,-4.357481,-10.324596,-6.131430,-5.616153
1003.191406,-4.253897,-0.959102,1.671140,-18.529460
1003.195312,-3.479321,-1.728887,-2.733094,-4.170178
1003.199219,3.275244,3.077975,3.229819,-6.317427
1003.203125,6.387568,1.997758,4.211149,0.902241
1003.207031,2.436070,2.397442,2.315407,16.197770
1003.210938,7.888145,13.206582,10.136436,2.390793
1003.214844,9.088410,-5.410164,0.392042,6.868849
1003.218750,12.152193,10.442784,8.807026,8.327195
1003.222656,12.086849,13.130273,8.655067,10.045674
1003.226562,8.633529,10.808306,5.185897,4.608852
1003.230469,-2.055068,10.675322,13.870688,10.603584
1003.234375,-0.467016,13.398543,6.909328,13.885402
1003.238281,2.774258,0.797946,9.828086,7.499569
1003.242188,8.711721,5.663449,9.595148,1.080099
1003.246094,-2.618013,3.842289,3.002202,2.507586
1003.250000,-1.588741,1.869362,-4.729396,-1.321080
1003.253906,-1.473783,-3.426639,-9.110646,-8.008215
1003.257812,1.680031,-8.129761,-11.233159,-0.952918
1003.261719,-8.547635,0.972498,2.306600,-11.178724
1003.265625,-5.595059,-12.317921,-10.806278,-9.704534
1003.269531,-14.842253,-16.733661,-5.395470,-9.407560
1003.273438,-11.976543,-10.750633,-15.563334,-5.660016
1003.277344,-8.274485,-13.436841,-15.493721,-8.757360
1003.281250,-9.158399,-13.471942,-11.046194,-11.144310
1003.285156,0.597979,-5.599383,-12.900970,-8.601144
1003.289062,-4.954453,-7.459966,-2.598400,-6.484748
1003.292969,-6.500831,1.469630,-8.292905,-0.025492
1003.296875,-1.938309,0.534483,-3.739551,-2.791283
1003.300781,5.293431,3.862880,8.372676,4.201883
1003.304688,6.713899,-1.708750,-1.513439,9.671814
1003.308594,4.539150,10.942422,2.839988,3.904069
1003.312500,7.662740,3.668557,11.609894,9.673875
1003.316406,10.372890,8.655097,12.970605,17.401473
1003.320312,5.157706,11.421114,10.729458,6.034783
1003.324219,10.664349,7.335762,6.950657,4.994391
1003.328125,13.340667,7.352781,8.632549,6.771867
1003.332031,10.971128,13.315697,11.012660,12.518888
1003.335938,5.002334,4.417846,4.050363,-0.533766
1003.339844,-0.569124,9.943382,0.291482,10.546865
1003.343750,7.061881,9.091107,-0.007894,1.491395
1003.347656,-2.679777,-0.237581,2.354971,3.381660
1003.351562,-3.852222,3.108209,-7.580454,-4.092305
1003.355469,-1.431803,-1.133114,-5.513873,-4.536101
1003.359375,-6.861668,-8.004381,-3.473654,-7.567360
1003.363281,-6.714490,-3.245497,-12.942976,-4.801563
1003.367188,-4.720092,-6.461228,-12.322083,-8.948820
1003.371094,-14.383226,-7.250492,-9.056402,-8.630987
1003.375000,-15.183820,-13.060240,-2.522606,-10.580960
1003.378906,-7.042233,-6.758468,-10.997334,-8.234610
1003.382812,-16.271135,-9.214259,-12.161179,-11.077249
1003.386719,-8.012741,-8.969324,-8.353154,-4.587170
1003.390625,-4.035164,-8.680096,-0.942174,-9.865447
1003.394531,-3.753769,0.026465,-2.298192,-12.638146
1003.398438,4.760840,3.051636,1.186175,-1.500896
1003.402344,-1.322828,6.693780,-1.258114,-2.061329
1003.406250,1.427020,3.821197,0.565658,6.471461
1003.410156,4.419794,8.392041,1.729586,9.897194
1003.414062,7.287194,7.289185,9.736356,9.144176
1003.417969,7.948675,4.037023,11.308002,5.203549
1003.421875,1.842129,17.899992,4.743779,7.937907
1003.425781,9.168009,13.005439,11.147834,11.302957
1003.429688,12.952900,14.480190,15.691454,11.286640
1003.433594,3.813903,12.265508,8.582992,4.905896
1003.437500,11.427911,4.808702,4.353976,7.965291
1003.441406,6.622213,-2.483695,5.785346,8.436093
1003.445312,1.523384,-3.596960,2.158710,2.554353
1003.449219,-2.540484,-3.857562,8.329213,2.261031
1003.453125,2.080393,-0.183014,-6.807301,-0.394261
1003.457031,-7.356103,-11.402023,-4.697324,1.989300
1003.460938,0.592281,-11.478771,-7.843843,0.145297
1003.464844,-7.370556,-10.387003,-9.480845,-11.816960
1003.468750,-12.292744,-11.198764,-16.309683,-13.275722
1003.472656,-15.176958,-9.441481,-11.210053,-6.233483
1003.476562,-6.714336,-15.054065,-10.245356,-12.614729
1003.480469,-10.382980,-8.634431,-12.270447,-11.679516
1003.484375,-14.659628,-9.309577,-4.959501,-11.282849
1003.488281,-2.368848,-7.304323,-8.172033,-15.795905
1003.492188,-0.571691,-6.191495,-1.496825,-4.267655
1003.496094,2.391887,4.782466,1.816771,-6.226193
1003.500000,0.436360,4.386143,4.573967,1.059772
1003.503906,-2.303394,2.364356,-0.133299,2.682508
1003.507812,11.264049,0.192604,5.836061,0.568256
1003.511719,12.070446,7.278676,9.116393,9.096248
1003.515625,10.191998,8.945078,10.461724,9.235007
1003.519531,8.796207,3.349265,7.423214,4.754682
1003.523438,-1.250035,8.981003,2.185622,8.162678
1003.527344,12.313001,4.090529,10.450210,8.690936
1003.531250,9.226613,14.587694,10.851982,15.241021
1003.535156,5.742324,7.363947,-1.744859,9.536160
1003.539062,6.647756,12.266881,14.717083,5.568990
1003.542969,-2.431040,8.777620,5.586777,-0.450277
1003.546875,-1.096608,0.955097,7.431190,1.848920
1003.550781,-1.513459,6.612518,-6.030515,0.496224
1003.554688,-6.109712,-7.575987,-6.235436,-6.953930
1003.558594,-10.402235,-4.018663,-11.652855,-4.177603
1003.562500,0.204202,-6.690029,-11.509897,-11.842024
1003.566406,-8.179617,-8.753554,-12.056159,-5.318249
1003.570312,-9.262898,-17.547260,-4.370489,-8.933569
1003.574219,-14.319921,-7.318879,-13.644614,-6.227774
1003.578125,-10.845476,-15.004453,-10.746725,-11.280839
1003.582031,-7.981640,-8.460732,-7.566534,-4.778723
1003.585938,-8.039209,-4.202774,-9.569370,-9.424206
1003.589844,-11.687511,-5.603675,2.687881,-5.094833
1003.593750,-2.122421,-1.203146,-1.497203,-8.069711
1003.597656,-2.412658,-2.648678,-8.164248,4.115328
1003.601562,9.729466,0.463277,-2.310473,4.589556
1003.605469,3.935786,8.324204,4.605330,2.884435
1003.609375,8.930733,10.581019,-1.497254,0.038092
1003.613281,11.392493,13.546349,5.922283,3.709135
1003.617188,-0.681241,9.247534,6.146116,4.165850
1003.621094,8.930253,11.427336,5.256435,3.382749
1003.625000,9.270625,14.920783,12.930105,14.651345
1003.628906,11.021156,11.085752,6.862585,13.148869
1003.632812,9.721206,6.804348,5.076735,12.806624
1003.636719,8.944988,9.912214,4.354901,2.325201
1003.640625,1.740633,7.215024,11.360222,3.619597
1003.644531,2.839140,7.605225,-0.531095,-2.564066
1003.648438,-4.391760,-5.982972,1.363803,3.410926
1003.652344,-2.152410,-7.727075,5.038616,-4.782763
1003.656250,-0.771408,-11.655547,-6.781008,-2.693172
1003.660156,-5.884005,-5.179366,-12.684322,-9.674685
1003.664062,-11.684268,-6.518080,-11.593565,-10.144425
1003.667969,-9.992582,-9.421312,-8.140664,-7.886774
1003.671875,0.853831,-11.882818,-1.367214,-13.268576
1003.675781,-7.626701,-0.709633,-16.515724,-9.462408
1003.679688,-1.260168,-9.310431,-5.763308,-10.446071
1003.683594,-2.357085,-11.049135,-9.942179,-4.841887
1003.687500,-3.190686,-3.330797,-10.307265,-6.967716
1003.691406,-7.339508,-3.761411,-14.874805,-4.606098
1003.695312,-3.186311,-1.655704,-3.097782,-2.055958
1003.699219,-2.928556,-0.621205,-1.690649,-7.496981
1003.703125,1.259691,7.574900,4.489900,2.010440
1003.707031,11.599568,1.446612,4.635604,4.792046
1003.710938,7.379366,-2.882929,6.238447,5.037227
1003.714844,8.083675,11.475663,11.813467,12.220124
1003.718750,6.289325,9.821253,9.003301,7.704085
1003.722656,11.587796,4.595076,14.603313,5.903644
1003.726562,8.899778,11.310124,13.633156,2.915234
1003.730469,14.789840,5.636916,10.114486,10.519766
1003.734375,3.988560,7.226174,7.111023,7.796445
1003.738281,9.784953,8.072048,8.219928,1.265402
1003.742188,-1.409222,2.183980,6.026612,2.132795
1003.746094,6.121580,-2.110318,6.936569,3.696007
1003.750000,3.165739,1.391898,0.184467,0.717060
1003.753906,-1.255777,-8.952894,1.171513,2.689597
1003.757812,-1.050293,-5.707305,-10.748061,-0.533521
1003.761719,-0.990458,-7.355262,-5.300781,-2.996251
1003.765625,-13.168248,-14.687745,-9.061919,-15.472425
1003.769531,-12.931354,-18.587295,-13.299063,-9.881729
1003.773438,-16.616992,-8.362960,-14.786201,-18.797406
1003.777344,-13.384239,-8.993596,-8.491403,-12.242508
1003.781250,-2.917803,-1.806148,-18.402321,-12.281188
1003.785156,-8.257301,-11.677485,-11.417003,-5.009828
1003.789062,-11.302668,-17.375935,-8.333518,-0.941095
1003.792969,-4.217113,-3.397794,-4.171604,-6.660230
1003.796875,-6.749873,-5.308079,-7.944484,4.131345
1003.800781,-5.068769,-1.796942,1.032419,-3.499427
1003.804688,1.600060,8.957962,9.249160,5.317701
1003.808594,3.381683,-1.044172,2.927948,8.680263
1003.812500,6.217526,4.484546,4.520435,6.547152
1003.816406,8.735777,7.803120,10.811271,11.248395
1003.820312,6.985751,2.340570,9.180819,9.660036
1003.824219,13.930203,12.470194,9.101649,13.092936
1003.828125,13.821582,14.559412,13.492197,-1.597520
1003.832031,8.394497,9.039568,3.326826,8.702018
1003.835938,3.775715,6.644977,9.623320,6.038492
1003.839844,7.405956,5.227084,6.051258,1.963318
1003.843750,1.559968,-2.674076,-0.730091,-1.615839
1003.847656,5.832445,-2.753793,-3.115788,-3.651464
1003.851562,-0.303603,-4.437577,-1.863866,-5.378088
1003.855469,-0.669393,0.684996,-3.089051,-2.593006
1003.859375,-4.780649,-11.299592,-3.212720,-1.514272
1003.863281,-5.004268,-6.783695,0.489532,-9.006878
1003.867188,2.182869,-6.344910,-11.743967,-5.211888
1003.871094,-5.608790,-12.322021,-10.807246,-9.903813
1003.875000,-7.970309,-9.968939,-10.807379,-5.291911
1003.878906,-9.791198,-9.747906,-13.088286,-14.565751
1003.882812,-7.340525,-7.192891,-9.526861,-5.534234
1003.886719,-3.241955,-0.870849,-7.865558,-7.179219
1003.890625,-5.547012,3.649688,-1.343325,-9.728845
1003.894531,-7.524731,-8.429439,3.801333,-1.900552
1003.898438,-0.277186,3.128463,4.258979,-1.877775
1003.902344,2.246274,-0.287834,-3.394541,4.616891
1003.906250,-8.013337,11.769595,1.797785,5.374726
1003.910156,4.635463,4.829687,10.155842,5.417777
1003.914062,0.935403,10.580318,3.822618,9.663153
1003.917969,8.053229,13.327203,8.026794,3.449959
1003.921875,16.930825,11.104049,3.356016,14.372237
1003.925781,8.315266,15.637312,14.984371,11.608582
1003.929688,10.937519,5.586179,9.238553,10.585294
1003.933594,16.675250,9.263551,12.063152,8.026695
1003.937500,6.607957,2.090607,4.686334,-0.932640
1003.941406,7.862658,7.089072,9.444683,6.144117
1003.945312,1.245104,5.192146,9.097300,0.974951
1003.949219,7.341932,3.403532,1.688510,9.286346
1003.953125,-0.518784,0.497773,-4.728142,-0.921528
1003.957031,-7.731371,-5.213263,-1.205227,-3.767220
1003.960938,-5.248506,-2.070866,-3.337122,-11.656458
1003.964844,-10.877694,-7.545227,-9.378509,-5.215863
1003.968750,-15.745288,-6.432588,-14.750012,-7.292495
1003.972656,-17.922819,-7.147943,-4.122578,-9.412504
1003.976562,-3.398893,-4.831976,-13.150207,-18.531796
1003.980469,-11.493318,-11.294236,-8.400522,2.026762
1003.984375,-5.787148,-7.249955,-10.088442,-9.563873
1003.988281,-7.813861,-4.180694,-6.197369,-11.684036
1003.992188,-5.572450,1.979616,0.739966,-10.685238
1003.996094,-0.908263,-7.110447,-10.394607,-0.638487
1004.000000,-3.717313,2.159558,-5.132224,2.523717
1004.003906,1.708313,1.282759,10.169746,6.694679
1004.007812,3.631358,3.847856,0.468144,9.511615
1004.011719,-1.159177,7.798637,14.648973,11.771795
1004.015625,9.433857,7.283972,3.885018,14.151085
1004.019531,5.547691,12.423345,3.753544,14.067344
1004.023438,3.243124,18.472615,6.406925,10.485790
1004.027344,6.979939,5.034964,10.883350,13.333928
1004.031250,5.943340,10.140289,9.809591,7.373962
1004.035156,11.615814,7.024815,10.395133,7.985215
1004.039062,2.870899,6.959334,12.969107,2.250493
1004.042969,0.487972,4.772764,15.733856,2.887532
1004.046875,5.172831,0.801435,0.999983,1.465960
1004.050781,-2.390292,-0.203168,-7.620599,2.110769
1004.054688,-3.435804,-4.481270,-4.399023,-13.392664
1004.058594,-1.868007,-7.277789,-4.412604,2.891294
1004.062500,-7.909408,-1.176382,-1.820559,-7.330209
1004.066406,-7.635359,-8.700186,-6.707116,-4.244549
1004.070312,-9.874007,-5.173776,-8.490840,-10.035719
1004.074219,-4.279363,-7.997604,-15.825185,-8.320083
1004.078125,-9.313670,-11.929555,-15.814952,-8.953597
1004.082031,-10.518974,-15.471098,-3.249502,-0.923540
1004.085938,-5.075512,-8.277691,-7.849554,-6.866565
1004.089844,-9.112020,-5.366504,-12.286434,-11.163186
1004.093750,-5.159438,-7.170102,-4.421759,-6.237428
1004.097656,-0.435442,1.446000,-3.226302,-3.143454
1004.101562,2.568704,7.426491,1.114230,1.771892
1004.105469,0.488699,3.438367,-1.196891,13.455201
1004.109375,4.987387,6.369528,7.042722,5.994458
1004.113281,5.820707,9.574165,9.477690,6.077756
1004.117188,13.670937,2.747465,9.295811,11.620848
1004.121094,10.258110,6.065470,10.592363,9.728241
1004.125000,5.250473,13.316327,6.579199,3.188720
1004.128906,4.969899,7.126917,9.084475,7.377562
1004.132812,6.628232,3.941254,13.189393,5.380794
1004.136719,8.219514,8.784984,4.521472,-0.934770
1004.140625,7.264774,1.571900,4.136767,7.301737
1004.144531,-0.686144,7.193300,6.255304,3.380132
1004.148438,1.314978,-1.486820,7.477805,-0.719089
1004.152344,-2.175327,1.717821,-3.516330,3.620807
1004.156250,-1.200995,1.769473,-12.688105,-3.135215
1004.160156,-9.901794,-6.423017,-12.000680,-7.836205
1004.164062,-13.217501,-6.045411,-4.704513,-5.309337
1004.167969,-3.581018,-5.082492,-14.972253,-4.709946
1004.171875,-4.978700,-2.651675,-16.968632,-9.186815
1004.175781,-9.281027,-12.867745,-16.279957,-10.064250
1004.179688,-10.516169,-7.746787,-8.676441,-4.404936
1004.183594,-7.974222,-4.833060,2.950195,-9.199255
1004.187500,-8.799318,2.309347,-10.386748,-6.379474
1004.191406,-3.040559,-5.645865,-5.883308,-5.608725
1004.195312,-3.460891,-8.047971,0.021143,-4.021282
1004.199219,-1.719301,2.334645,6.418026,2.747194
1004.203125,4.824011,2.368534,-1.329599,5.999492
1004.207031,5.636777,5.258757,-4.181637,0.852272
1004.210938,5.698852,5.431381,11.103305,8.978734
1004.214844,5.883888,8.818968,4.866159,8.592784
1004.218750,10.409647,7.126203,10.919821,10.816353
1004.222656,14.311493,9.995804,4.805906,9.645236
1004.226562,8.825150,3.817111,14.977925,10.777642
1004.230469,16.091860,11.379720,11.916755,9.520053
1004.234375,16.710809,3.137969,11.564304,5.014658
1004.238281,0.154442,5.973523,4.432561,4.605939
1004.242188,5.147978,2.083957,3.893213,5.668448
1004.246094,1.171443,1.073898,8.871851,1.700350
1004.250000,0.928968,-4.524527,0.744636,-9.513004
1004.253906,-8.592057,-0.943528,-5.850760,0.137093
1004.257812,-3.486295,-2.688488,-12.401153,-4.811450
1004.261719,-5.411802,-8.199987,-4.017735,-3.784082
1004.265625,-5.874451,2.068638,-14.121250,-11.365446
1004.269531,-8.278347,-12.052523,-3.965108,-4.226595
1004.273438,-11.196737,-7.801073,-9.137677,-6.843627
1004.277344,-11.037236,-6.013310,-1.450467,-8.280835
1004.281250,-5.628330,-8.354998,-10.659758,-14.058070
1004.285156,-8.445297,-3.207197,-7.001216,-5.011177
1004.289062,-6.287955,-12.017804,-3.701197,-9.548462
1004.292969,-2.996580,-4.672566,-7.221244,-3.827469
1004.296875,-6.582755,-1.034999,-2.933098,-7.793724
1004.300781,-7.146661,1.902187,2.156033,0.333159
1004.304688,3.695654,6.988136,5.557119,2.624069
1004.308594,6.008767,-1.733289,6.152869,3.784850
1004.312500,5.273115,5.058927,8.370721,5.466482
1004.316406,4.351644,11.462717,9.178139,12.227419
1004.320312,13.630873,5.188398,-0.411027,9.588474
1004.324219,5.114631,13.004592,11.659627,15.582496
1004.328125,6.378701,6.951079,14.226041,1.566191
1004.332031,10.618618,8.809105,7.339441,13.286724
1004.335938,9.943359,12.794567,10.271774,5.416200
1004.339844,-2.329611,1.958655,8.533331,6.640455
1004.343750,-1.883918,5.356498,2.984188,4.191301
1004.347656,2.517883,1.671152,1.169506,2.228263
1004.351562,4.052107,-0.140833,-1.261251,5.461471
1004.355469,-5.819023,2.104231,-0.161274,-4.228167
1004.359375,-2.786692,0.262413,-4.204926,-8.277935
1004.363281,-7.384094,-4.815497,-3.337197,-5.027738
1004.367188,-13.814132,-7.677821,-11.352288,-11.917400
1004.371094,-6.463098,-9.371566,-3.386437,-7.403149
1004.375000,-9.134743,-11.329470,-7.314137,-11.520754
1004.378906,-3.654346,-4.988690,-4.435735,-10.427142
1004.382812,-8.258211,-9.938757,-8.448376,-4.474968
1004.386719,-4.423721,-17.348642,-4.108942,-6.052624
1004.390625,-7.276663,-1.297606,-7.870098,-5.767530
1004.394531,-10.070506,-2.062525,1.584118,-8.646187
1004.398438,2.906547,2.787080,-1.963478,2.164879
1004.402344,-3.009716,1.982515,-1.919742,-2.138695
1004.406250,2.798133,1.231285,5.919325,-1.229913
1004.410156,8.251569,-2.782801,5.673326,5.471308
1004.414062,5.422499,2.750704,15.884343,10.399800
1004.417969,11.780654,0.859410,3.827522,10.888172
1004.421875,11.653671,13.830831,7.936091,11.620378
1004.425781,9.877352,7.853170,10.151275,8.737424
1004.429688,10.132740,4.828626,8.110355,7.795666
1004.433594,8.202978,11.389342,8.749015,8.067867
1004.437500,-1.753176,6.757722,10.596539,12.134928
1004.441406,7.469759,7.069481,8.906625,6.237093
1004.445312,5.148936,3.115402,8.333021,5.144833
1004.449219,2.720343,-0.378521,-2.292008,-1.658691
1004.453125,-9.729680,-0.417832,-1.418282,0.142815
1004.457031,-2.523806,-4.451671,-5.045002,-8.079558
1004.460938,-9.720193,-9.689911,-2.585007,-10.571773
1004.464844,-6.993144,-3.476317,-5.934364,-7.562498
1004.468750,-10.371273,-12.915989,-7.220208,-3.692945
1004.472656,-15.888205,-9.863009,-9.894413,-9.989247
1004.476562,-14.475363,-14.977061,-7.393580,-12.109997
1004.480469,-5.892413,-8.752219,-1.684967,-3.148868
1004.484375,-15.888375,-12.214328,-11.443819,-4.022942
1004.488281,-14.225851,3.393713,-16.926022,-6.976125
1004.492188,-7.008626,-4.598951,-2.470241,0.499767
1004.496094,0.388965,0.585652,4.266751,3.222290
1004.500000,-3.694969,-1.684583,-5.113422,6.266739
1004.503906,-0.937057,4.480796,-0.766246,0.661375
1004.507812,2.466963,-0.868849,-2.835400,6.848219
1004.511719,8.160066,10.892235,6.730095,7.986816
1004.515625,2.977207,0.852745,6.572159,8.156895
1004.519531,10.214275,3.656347,7.106332,11.730535
1004.523438,10.054575,10.710845,2.296726,13.220237
1004.527344,1.807475,6.075898,7.814865,7.904483
1004.531250,5.897103,17.006924,6.391734,15.659973
1004.535156,4.293250,7.567738,4.135949,12.569830
1004.539062,3.742141,4.416265,-2.218627,11.454522
1004.542969,0.992320,4.497953,1.056396,7.422103
1004.546875,7.807061,3.128551,-8.153195,4.070623
1004.550781,7.255581,-1.265049,-5.602265,-0.166611
1004.554688,-8.301531,-0.708829,3.369327,-9.621974
1004.558594,-7.529089,-2.130102,-7.442834,-8.691472
1004.562500,-7.360605,-8.178179,-9.671853,-7.894168
1004.566406,-10.250445,-7.256641,-2.702096,-11.168013
1004.570312,-2.443605,-11.027954,-10.240714,-13.024017
1004.574219,-13.502212,-5.726609,-9.992250,-10.149267
1004.578125,-12.134348,-8.899818,-5.994682,-4.265034
1004.582031,-12.235952,-2.649376,-8.618193,-11.206079
1004.585938,-4.231577,-7.844330,-10.838397,-2.351953
1004.589844,-6.432832,-6.643530,-0.714978,-4.590747
1004.593750,-7.926368,-8.725650,-6.312579,-0.166863
1004.597656,0.278681,0.804632,3.821836,1.556776
1004.601562,4.893198,2.852489,1.311969,-3.722442
1004.605469,0.539357,5.125125,-5.930619,-0.417255
1004.609375,4.362851,1.840596,9.684840,6.704818
1004.613281,3.010602,11.081607,-1.276648,1.838923
1004.617188,7.289193,10.706429,6.877530,16.567291
1004.621094,2.027924,9.283168,9.655488,5.509630
1004.625000,6.465495,9.892990,14.254655,10.093953
1004.628906,10.969158,11.198000,11.594229,15.005463
1004.632812,9.252259,8.705508,12.981180,12.969519
1004.636719,15.365135,13.469230,5.317218,5.108015
1004.640625,3.823617,5.251798,9.441335,-0.003148
1004.644531,-5.540028,-0.512792,-5.310725,3.708217
1004.648438,0.536829,2.558027,7.633721,-0.517195
1004.652344,-4.169357,-2.669979,-2.588964,-5.069600
1004.656250,-5.142091,-5.530530,-6.141947,-5.473650
1004.660156,-11.754075,-11.672065,-10.326686,-5.990640
1004.664062,-19.462460,-7.114401,-9.105302,-7.782232
1004.667969,-11.573081,-4.896853,-11.349814,-4.864253
1004.671875,-8.638240,-7.528216,-10.391451,-7.556509
1004.675781,-7.061105,-8.146792,-13.416122,-8.955667
1004.679688,-10.450270,-7.893933,-17.231097,-6.715441
1004.683594,-3.980592,-15.655511,-3.959132,-2.126610
1004.687500,-4.574814,0.449554,-5.439772,-9.128949
1004.691406,-0.291812,-2.010912,-4.313134,4.082132
1004.695312,-5.542597,-4.103320,-8.737793,3.968438
1004.699219,-1.936623,1.344556,-2.585300,-2.038363
1004.703125,1.961327,4.722507,6.531161,2.683887
1004.707031,2.826275,-0.961448,2.243813,2.068837
1004.710938,3.213546,8.465422,7.229713,15.315810
1004.714844,12.110670,6.429188,6.550710,7.907254
1004.718750,10.143147,13.305911,10.735155,4.322933
1004.722656,3.607021,11.011113,13.361743,6.952880
1004.726562,10.398006,8.128401,9.896474,19.902611
1004.730469,5.855830,13.654046,8.504967,14.623437
1004.734375,7.934001,0.149931,10.177049,8.188481
1004.738281,5.146967,5.909935,11.228423,-1.971396
1004.742188,4.956387,4.358475,5.701679,3.885463
1004.746094,0.125513,-3.512860,1.709855,-1.964430
1004.750000,-3.455720,-3.287688,-2.470256,-4.137750
1004.753906,-7.685169,-6.060957,3.041279,2.561729
1004.757812,1.287486,-13.879808,-2.083972,-2.535516
1004.761719,-7.385304,-2.334739,-6.751967,-7.338913
1004.765625,-10.750173,-12.686057,-8.639789,-11.374027
1004.769531,-10.412476,-11.211505,-7.504981,-10.865994
1004.773438,-8.833241,-5.332941,-17.320257,-6.988304
1004.777344,-7.613611,-9.839935,-3.346771,-7.059857
1004.781250,-3.536878,-10.073685,-17.955835,-12.317152
1004.785156,-11.607534,-13.356115,-10.598147,-6.946586
1004.789062,-10.226777,-9.993624,-5.617824,-10.455914
1004.792969,-8.448227,-5.331311,-5.890119,-0.936084
1004.796875,-0.152245,-0.122502,-3.173631,3.726768
1004.800781,-2.285921,-10.155241,2.397546,2.609638
1004.804688,7.443940,-4.205583,13.874062,3.999232
1004.808594,3.905044,3.548809,6.013812,8.476814
1004.812500,7.013053,12.273011,12.743208,1.754102
1004.816406,4.013344,7.895383,12.687778,10.501495
1004.820312,11.326796,7.607077,11.430738,9.153733
1004.824219,5.268807,6.534154,8.798967,4.435213
1004.828125,6.424577,16.146809,6.387446,14.527889
1004.832031,7.297155,4.805530,5.440375,5.685746
1004.835938,9.862617,10.722991,4.400093,0.717692
1004.839844,5.949196,11.289185,2.689409,1.990551
1004.843750,7.588534,4.922161,10.528173,4.779961
1004.847656,1.126178,-2.382014,9.227121,2.739822
1004.851562,-3.726722,-3.643647,-1.829493,-2.759167
1004.855469,-2.709478,-6.106229,0.028168,-3.706357
1004.859375,-0.612489,-2.202697,-4.514959,-5.052983
1004.863281,-10.230926,-5.441682,-12.490257,-14.065919
1004.867188,-8.945704,-8.908663,-17.425558,-6.924871
1004.871094,-11.517197,-7.840158,-7.314300,-7.039700
1004.875000,-15.577213,-12.735039,-8.401720,-10.686116
1004.878906,-12.572195,-13.881695,-4.002928,-12.252265
1004.882812,-10.159456,-1.205680,-12.290789,-6.048488
1004.886719,-5.845001,-5.788377,-6.901823,-9.951777
1004.890625,-8.853411,-1.740929,-4.619685,-10.245630
1004.894531,0.663664,-3.581575,-2.503012,-7.493976
1004.898438,-0.215448,-0.366476,5.355389,2.383174
1004.902344,3.023045,1.874820,-0.986128,2.794580
1004.906250,7.925195,9.373129,4.892091,-0.494993
1004.910156,2.396489,9.459564,-1.543651,2.395718
1004.914062,2.383343,2.558209,10.446637,16.351612
1004.917969,13.007068,9.525342,6.690949,3.290201
1004.921875,5.939565,9.734753,4.845874,2.980095
1004.925781,12.232454,11.982732,8.001880,0.994889
1004.929688,14.032051,5.802181,10.799802,14.665759
1004.933594,2.873634,7.170358,12.292510,7.175717
1004.937500,10.514191,7.698897,7.659299,5.468236
1004.941406,6.733706,4.346103,7.725685,2.465363
1004.945312,0.152757,0.650684,3.052632,7.642588
1004.949219,0.889643,5.933303,-0.435153,4.926923
1004.953125,2.833971,-2.140446,-7.825935,-1.062371
1004.957031,-5.265113,1.949966,-2.492149,-5.136277
1004.960938,-8.944568,-6.688782,-5.562875,-12.565961
1004.964844,-2.115003,-3.923531,-14.650045,-11.248012
1004.968750,-10.317017,-16.361052,-8.585867,-11.358681
1004.972656,-5.172461,-11.376654,-8.002906,-15.539617
1004.976562,-12.554417,-5.270249,-14.355613,-6.882493
1004.980469,-9.553746,-2.414980,-13.225783,-7.171366
1004.984375,-9.295905,-5.140775,-6.810427,-10.727282
1004.988281,-11.487002,-3.512554,0.578354,-7.506964
1004.992188,2.762226,-13.697168,-4.004311,-5.340566
1004.996094,-6.192898,-4.210888,2.160638,1.145851
1005.000000,4.842359,11.086635,-6.206504,-5.716390
1005.003906,3.960740,5.082100,9.776577,3.469708
1005.007812,5.837575,2.402669,4.323635,6.650123
1005.011719,6.520529,6.104046,11.114449,11.442034
1005.015625,5.726007,7.233674,4.828719,8.563935
1005.019531,13.034122,8.745152,15.531148,2.774919
1005.023438,0.311583,13.846253,13.642114,8.759916
1005.027344,17.833891,10.591056,12.095914,10.079244
1005.031250,9.703945,14.214533,8.281534,10.024712
1005.035156,9.647179,9.260517,9.864246,7.188120
1005.039062,-1.190337,3.346560,1.299167,6.382176
1005.042969,6.802003,9.989429,-2.542120,2.850678
1005.046875,-0.924150,4.889136,-3.276130,1.685947
1005.050781,-7.373685,-7.117973,1.015738,-6.838038
1005.054688,-0.893511,-6.855359,-2.928909,-0.789849
1005.058594,-4.678157,-10.680331,-6.030160,1.742777
1005.062500,-6.790661,-8.145864,-1.264567,-12.121344
1005.066406,-13.792762,-0.306482,-9.074643,-14.768811
1005.070312,-6.854865,-9.790178,-10.530569,-11.864086
1005.074219,-18.240489,-13.241928,-11.451088,-11.498194
1005.078125,-10.887851,-10.955187,-9.665632,-14.339444
1005.082031,-11.250276,-2.030997,-16.905085,-9.452476
1005.085938,-2.349454,-12.036651,-10.865884,-3.684382
1005.089844,-5.776538,-4.275967,-6.730931,-4.945632
1005.093750,-0.105580,1.388306,-5.727596,-2.766672
1005.097656,-2.951462,-2.949789,-1.259447,-1.396646
1005.101562,-0.324155,-2.363842,-3.794214,-3.456667
1005.105469,5.089645,9.040443,3.086633,-5.961283
1005.109375,7.798617,8.373974,7.186684,5.901333
1005.113281,8.051117,2.447857,4.142357,8.902434
1005.117188,3.617547,5.886310,6.436915,10.439424
1005.121094,12.097961,17.039374,7.785778,9.158633
1005.125000,6.249755,12.455061,5.120027,12.298417
1005.128906,9.920538,5.815246,7.038247,12.538338
1005.132812,8.396699,12.043335,14.559171,13.689427
1005.136719,4.629955,9.549959,7.442639,8.501671
1005.140625,-2.255640,4.734577,4.905471,2.222904
1005.144531,6.653686,-1.084874,3.677890,10.914738
1005.148438,3.133559,5.220377,8.190018,6.316506
1005.152344,4.711334,-3.667142,-0.882647,-0.842066
1005.156250,3.363660,4.422993,-5.906474,-4.542049
1005.160156,-7.099009,-1.547420,2.192455,-1.652323
1005.164062,-6.009079,-4.632963,-7.182612,-11.631344
1005.167969,-12.001987,-12.078778,-8.600113,-15.233468
1005.171875,-3.133741,-10.566802,-13.595494,-13.493538
1005.175781,-8.334100,-7.727864,-7.785029,-5.252510
1005.179688,-3.317419,-5.844669,-2.244051,-8.168492
1005.183594,-9.851514,-2.009458,-14.359116,-9.542788
1005.187500,-1.797804,-4.970568,-5.876946,-7.132805
1005.191406,-5.311929,-4.857710,-3.042484,0.924828
1005.195312,-0.384320,-6.761263,-4.178886,-3.054905
1005.199219,-8.770758,-0.527798,-2.311401,-4.781280
1005.203125,7.022760,-0.303514,-2.130232,-0.795224
1005.207031,1.608017,2.707606,7.376987,3.355960
1005.210938,3.800851,7.564301,-5.432252,9.562262
1005.214844,2.523485,3.937309,4.669032,13.642327
1005.218750,11.863552,9.159235,9.726686,10.358547
1005.222656,12.545820,10.809059,12.122378,7.909975
1005.226562,16.283923,10.450178,8.642444,8.247975
1005.230469,13.618060,8.308976,6.856045,5.910743
1005.234375,4.660818,8.986206,11.468424,15.197544
1005.238281,3.173818,3.419023,2.654474,7.360032
1005.242188,-0.010366,4.491467,3.030743,4.718851
1005.246094,-0.949417,0.247180,-3.641663,6.386594
1005.250000,8.749396,-1.917415,0.426972,4.872121
1005.253906,6.516426,-3.163510,-10.422282,-11.352075
1005.257812,-5.110532,-5.655038,-7.332934,-5.248147
1005.261719,-6.578056,-5.113994,-4.763065,-4.670208
1005.265625,-4.544833,-12.547367,-11.476916,-7.235574
1005.269531,-7.117896,-5.581656,-11.114068,-9.888672
1005.273438,-9.405603,-12.086177,-7.213535,-12.103651
1005.277344,-5.767863,-11.937683,-17.010666,-15.491813
1005.281250,-12.534293,-1.259258,-7.532452,-15.411078
1005.285156,0.892436,-12.907366,-10.922120,-12.118374
1005.289062,-9.003173,-14.619086,-2.167473,-7.334628
1005.292969,-2.396449,-3.624925,-6.560285,-6.900043
1005.296875,1.020480,-3.586907,-3.109680,-1.629817
1005.300781,4.125389,1.777871,5.092095,0.366394
1005.304688,-0.087323,10.512110,-0.227146,4.666544
1005.308594,2.560858,3.731108,3.888202,6.872792
1005.312500,6.815918,2.686970,8.434303,3.876945
1005.316406,13.304913,13.752830,4.406923,7.313744
1005.320312,4.146267,14.723190,2.963536,16.763845
1005.324219,3.257195,11.891656,4.477326,14.445955
1005.328125,12.479127,8.823236,14.613051,13.177478
1005.332031,12.809686,8.022019,4.491016,6.666506
1005.335938,4.074114,12.371841,13.619606,8.829670
1005.339844,10.264573,6.849916,6.828335,3.495699
1005.343750,8.176076,11.479459,-1.899969,3.285972
1005.347656,5.772929,-1.287227,9.258620,1.906454
1005.351562,-0.099800,0.202661,0.438651,6.345663
1005.355469,1.962211,-8.307465,-3.422805,-7.254072
1005.359375,-4.249752,-8.684354,-3.667796,-5.931900
1005.363281,-5.519572,-3.773046,-1.726499,-13.421220
1005.367188,-9.410415,-5.396719,-11.616213,-6.161703
1005.371094,-15.670595,-13.308482,-8.355015,-9.623110
1005.375000,-8.729006,-3.197444,-15.316742,-11.380379
1005.378906,-9.876360,-7.905110,-11.796466,-5.647944
1005.382812,-8.115118,-8.851538,-17.188616,-5.979153
1005.386719,-8.297789,-13.217032,-6.763244,2.447538
1005.390625,-3.598040,-4.117708,-0.563944,1.304794
1005.394531,-1.369403,3.022127,-2.411183,-3.669837
1005.398438,-7.118508,-5.561267,2.381499,-1.532210
1005.402344,5.111654,2.826259,4.363709,-0.125114
1005.406250,-1.181329,9.183872,9.732429,2.445968
1005.410156,6.758413,11.802329,4.956934,6.177048
1005.414062,5.411064,11.180587,9.796876,8.187787
1005.417969,12.387276,7.723008,13.548354,8.446419
1005.421875,13.223665,14.650619,3.010872,10.027914
1005.425781,10.944781,3.900248,1.875270,10.271846
1005.429688,19.849748,10.297862,2.728610,12.276347
1005.433594,2.929480,10.997614,11.567450,11.937348
1005.437500,6.052026,12.937002,13.529397,18.125823
1005.441406,-0.168716,6.461869,6.497667,5.066728
1005.445312,9.849666,-1.502401,5.854898,6.139267
1005.449219,7.594725,0.816077,-10.427448,-2.487923
1005.453125,-3.231558,6.867288,4.805701,2.797223
1005.457031,-2.928888,-2.944983,0.524993,-0.087233
1005.460938,-1.890447,-12.369814,-13.241815,-10.862292
1005.464844,-7.262142,-8.126250,-1.534272,-15.800895
1005.468750,-8.318485,-5.231142,-10.403435,-14.002723
1005.472656,-13.075164,-5.764241,-10.789633,-7.692500
1005.476562,-9.986696,-15.073741,-0.225893,-10.810253
1005.480469,-17.862840,-10.166487,-10.397014,-9.424349
1005.484375,-15.430464,-7.938296,-4.310743,-5.385937
1005.488281,-7.711895,-3.552754,-8.126966,-5.086568
1005.492188,-9.743190,1.763257,-9.110948,-5.698103
1005.496094,-4.526879,-0.832485,-3.193393,-8.694512
1005.500000,0.902706,4.400032,-2.866228,-1.405861
1005.503906,1.020750,-0.033864,-4.223480,7.775951
1005.507812,2.065242,-0.973743,7.281603,7.716545
1005.511719,10.672863,5.775471,1.852719,10.326631
1005.515625,10.084380,7.166535,8.729215,13.165590
1005.519531,10.133815,9.545017,13.701755,15.550781
1005.523438,2.979159,13.398458,10.998899,4.860714
1005.527344,12.978097,-1.904121,13.033636,12.416786
1005.531250,7.766511,6.510532,9.413722,9.925377
1005.535156,14.192848,9.267058,7.589656,3.347824
1005.539062,8.341902,12.493517,6.384984,4.424786
1005.542969,2.928133,-1.327289,5.569002,7.440643
1005.546875,2.453179,4.113516,3.290471,0.995751
1005.550781,-3.368376,0.270022,-2.994869,-1.247615
1005.554688,-1.345070,-5.425372,-3.375067,2.666990
1005.558594,-6.010005,-8.514338,0.650821,0.891395
1005.562500,-5.251327,-7.422609,-9.054387,-1.354201
1005.566406,-0.825595,-4.204305,-10.122296,-4.179810
1005.570312,-14.539647,-11.215285,0.313408,-9.485335
1005.574219,-15.032638,-13.135601,-11.337881,-10.111099
1005.578125,-9.870591,-10.174605,-10.682239,-7.326347
1005.582031,-4.887161,-4.697066,-12.923846,-10.002493
1005.585938,-3.151301,-6.274098,-2.063849,-6.344059
1005.589844,-0.126187,0.532328,-8.870353,-0.194223
1005.593750,4.308337,-2.986591,-5.081921,-0.299350
1005.597656,2.144060,-9.572109,0.830480,-10.590509
1005.601562,2.249265,2.703702,1.885107,-9.326617
1005.605469,3.449268,-3.119082,6.566850,-2.249367
1005.609375,4.271125,9.243085,-2.759098,4.938329
1005.613281,11.791745,11.907899,1.267318,7.531106
1005.617188,18.322491,5.556196,11.875352,10.362841
1005.621094,8.625271,5.828498,4.200201,6.847783
1005.625000,8.792617,8.377766,11.795977,9.042922
1005.628906,7.652651,5.942173,6.709946,4.351348
1005.632812,4.586179,9.783834,21.691718,8.306328
1005.636719,0.085483,4.965805,4.958300,4.239105
1005.640625,5.081851,5.580934,3.372483,5.985708
1005.644531,4.681482,15.457705,3.940866,1.418018
1005.648438,-0.964861,3.773714,0.279917,4.250708
1005.652344,-6.146419,-5.472784,-2.994325,-7.531740
1005.656250,-10.825082,-3.524211,-11.741045,-6.741762
1005.660156,-6.066206,-7.334794,-0.630117,-1.349550
1005.664062,-2.345886,-3.849120,-15.731202,-1.790632
1005.667969,-18.255749,-1.795722,-9.124688,-9.906519
1005.671875,-14.431295,-8.883855,-7.226515,-15.874755
1005.675781,-14.654955,-10.158822,-10.236475,-9.727943
1005.679688,-9.414320,-11.912558,-5.894855,-6.950737
1005.683594,1.272244,-12.662355,-3.442600,-10.440583
1005.687500,-6.510573,1.152324,-4.178429,-1.165919
1005.691406,-6.075200,-8.735251,-3.329760,-4.877275
1005.695312,-0.753734,-8.953692,3.014683,-2.250672
1005.699219,6.674208,1.327350,1.315258,-0.402927
1005.703125,7.291374,3.038878,5.322542,-0.214605
1005.707031,5.404713,6.703916,5.712972,9.598227
1005.710938,4.858777,2.450914,4.542523,6.676058
1005.714844,6.705029,8.272617,9.248517,17.842594
1005.718750,9.889325,6.718931,5.740822,10.465269
1005.722656,5.103610,14.878384,11.214079,14.189164
1005.726562,7.657083,8.393748,12.974641,7.311986
1005.730469,6.674612,7.305227,13.234314,15.462459
1005.734375,4.326263,11.950033,10.254519,6.650535
1005.738281,0.535918,4.267968,2.598791,7.071282
1005.742188,1.101715,1.532004,5.161944,6.249886
1005.746094,4.054050,0.966872,-0.290438,6.313447
1005.750000,1.379844,-2.970818,-1.879587,1.006688
1005.753906,-10.810101,-3.204072,4.717971,0.437202
1005.757812,0.760246,-0.601220,-0.106308,-1.639652
1005.761719,-8.227332,-7.828797,-9.686037,-3.114998
1005.765625,-5.362175,-2.612106,-6.219502,-6.391387
1005.769531,-7.119875,-9.096895,-6.212681,-15.426431
1005.773438,-10.485813,-6.248786,-11.367402,-13.393049
1005.777344,-7.986216,-10.257299,-3.497151,-7.812370
1005.781250,-12.014301,-8.007688,-10.784234,-7.910241
1005.785156,-6.177557,-6.950109,-9.876142,4.347935
1005.789062,-9.456737,-8.072676,-7.434288,-10.370650
1005.792969,-2.206507,-2.970591,-7.207311,-3.870538
1005.796875,6.450866,-3.215603,-9.876550,-2.161557
1005.800781,5.328766,4.856128,-4.953769,-3.279694
1005.804688,7.702054,7.375900,8.885233,1.446638
1005.808594,2.005284,7.257230,3.322240,8.660797
1005.812500,3.547648,9.891886,-2.473600,7.906775
1005.816406,12.796130,3.448576,7.112936,7.919669
1005.820312,9.152582,11.719502,1.786964,6.435129
1005.824219,7.140450,10.856627,16.656179,12.949923
1005.828125,13.522791,14.903975,10.412404,8.809955
1005.832031,13.833969,8.926766,14.608853,9.422701
1005.835938,6.493292,11.191016,-3.729684,10.419970
1005.839844,8.638847,13.253320,2.905974,5.569713
1005.843750,-0.708207,-5.558336,-1.710304,-0.265619
1005.847656,5.326939,-2.932633,-3.326041,2.057474
1005.851562,-3.587004,-1.663429,-1.431731,3.131749
1005.855469,0.949940,-6.842436,-4.747227,7.252339
1005.859375,-9.400065,1.511879,-4.958416,-10.007176
1005.863281,-12.498674,-7.150818,-4.530295,-8.916782
1005.867188,-4.524561,-13.773683,-7.876989,-13.689322
1005.871094,-9.918961,-13.267115,-2.620467,-10.577244
1005.875000,-4.387571,-6.958498,-8.279123,-12.535198
1005.878906,-9.261264,-10.955447,-10.333972,-7.402401
1005.882812,-12.540610,-16.893843,-9.010810,-12.791011
1005.886719,-16.830193,-5.150635,-10.366901,-9.204942
1005.890625,-4.586309,-2.705427,-5.899659,0.984347
1005.894531,-4.313606,-2.068871,-1.240594,-3.223438
1005.898438,-4.457275,-3.291243,-5.708134,-8.995261
1005.902344,-2.541933,-1.532251,8.555120,3.459226
1005.906250,0.882363,0.155765,4.722544,-0.020930
1005.910156,2.307301,4.942596,5.327594,6.266533
1005.914062,9.559829,11.415724,-3.267354,13.316708
1005.917969,5.987172,2.275591,12.054486,5.731328
1005.921875,14.060269,7.113509,12.284672,14.079416
1005.925781,17.607501,10.015193,9.570601,4.941874
1005.929688,11.746256,3.816418,5.752443,13.231075
1005.933594,6.622729,7.857599,7.572193,5.459726
1005.937500,5.129969,9.828733,10.908143,1.965514
1005.941406,4.407028,5.578983,11.947677,7.616889
1005.945312,-0.142063,5.374548,1.770274,2.191214
1005.949219,-1.058124,-2.943723,-4.795639,0.573176
1005.953125,0.178135,-3.603078,-2.910495,3.505441
1005.957031,-1.812955,-3.388348,-4.462654,-15.276910
1005.960938,-6.910895,-8.606010,-8.356559,-7.816842
1005.964844,-5.933029,-13.789572,-10.385937,-6.099922
1005.968750,-9.262235,-16.686851,-7.346026,0.464304
1005.972656,-9.680590,-7.702696,-8.741495,-18.594093
1005.976562,-4.350656,-12.482527,-9.042013,-6.409289
1005.980469,-2.814193,-10.600019,-5.449903,-2.846936
1005.984375,-6.158825,-11.384496,-9.225919,-2.032330
1005.988281,-12.416780,-1.418618,-14.646255,-9.934124
1005.992188,-13.338275,-5.378810,-3.581447,-5.730962
1005.996094,-4.248709,7.873107,-6.446528,-8.329585
1006.000000,7.482862,-1.048756,1.819665,-2.253427
1006.003906,6.816212,-0.380786,1.797973,10.100654
1006.007812,6.036423,9.464644,8.461807,5.469375
1006.011719,5.777190,11.645565,10.533430,7.110489
1006.015625,8.398739,4.288046,6.517924,7.819115
1006.019531,12.057049,7.377814,13.857833,6.654683
1006.023438,7.184131,15.381680,8.166921,6.263878
1006.027344,11.377935,9.666684,6.211107,6.834345
1006.031250,7.426213,1.522815,13.125499,5.536498
1006.035156,12.025206,8.677928,14.146379,8.996298
1006.039062,2.335361,1.176351,9.478202,0.668396
1006.042969,1.827261,9.458722,9.425361,2.847763
1006.046875,-4.013784,-4.319228,7.115824,-3.017496
1006.050781,-3.930718,-6.925070,-3.106198,-1.304981
1006.054688,-4.611660,0.613144,-4.519629,-2.795987
1006.058594,-3.776375,-4.480665,-1.974276,1.175501
1006.062500,-7.763402,-10.043377,-11.223623,-7.133074
1006.066406,-11.963679,-5.185643,-17.335734,-6.296890
1006.070312,-12.741996,-3.033655,-7.188017,-9.658569
1006.074219,-15.072856,-9.885837,-7.598749,-13.324631
1006.078125,-7.833065,-13.673981,-8.077520,-12.624740
1006.082031,-3.182305,-12.045834,-9.672597,-7.747896
1006.085938,-3.242892,-5.142236,-0.544167,-4.000528
1006.089844,-5.564016,1.320730,-7.787268,-2.355696
1006.093750,-4.576505,-2.762870,1.855454,2.493604
1006.097656,3.402821,-5.263357,1.385613,2.355954
1006.101562,-2.242183,3.586984,-4.145990,4.299296
1006.105469,0.694450,3.738849,6.577550,-0.030376
1006.109375,3.518481,5.008682,2.436045,4.667447
1006.113281,8.712632,7.949550,8.575999,5.375814
1006.117188,12.423390,5.676092,7.793206,11.123930
1006.121094,2.600935,11.425420,12.112303,12.178735
1006.125000,-3.025478,-0.534247,7.733354,9.855858
1006.128906,6.020415,7.463062,2.552897,10.252444
1006.132812,5.819602,16.103076,4.964260,7.928784
1006.136719,10.326173,3.572453,7.431943,0.240589
1006.140625,6.343190,7.792842,11.968324,1.955347
1006.144531,0.603804,1.435272,10.195403,5.669829
1006.148438,2.065981,9.400939,7.199920,3.286228
1006.152344,0.628038,-0.141535,-4.105486,-0.159957
1006.156250,-8.428124,-5.388845,-3.710674,-8.643815
1006.160156,-1.004015,-10.506261,-5.776129,-13.694219
1006.164062,-15.964395,-10.289233,-6.967387,-6.064248
1006.167969,-1.974876,-9.952605,-5.616343,-11.431012
1006.171875,-12.168018,-14.591798,-7.261469,-5.382516
1006.175781,-12.924117,-9.548995,-11.059778,-11.977705
1006.179688,-9.255249,-10.926491,-11.371593,-12.465233
1006.183594,-8.266977,0.459329,-7.684978,-12.889435
1006.187500,-8.199356,-3.898126,-3.473992,-6.070208
1006.191406,-14.071494,-10.831365,-8.241623,-3.074630
1006.195312,-3.299574,-10.817004,-10.836381,-5.213843
1006.199219,-1.139033,2.312615,-3.013238,2.301016
1006.203125,1.390767,6.369256,4.935950,4.630199
1006.207031,0.621744,-3.723152,4.500164,4.744986
1006.210938,-0.218887,6.554279,4.131871,4.953408
1006.214844,3.908299,5.730019,7.387324,13.427403
1006.218750,6.683668,10.951587,14.238734,5.509856
1006.222656,11.063097,13.974840,11.837897,6.846707
1006.226562,9.105524,2.820538,7.012636,6.989173
1006.230469,6.466123,12.200823,8.408848,16.691836
1006.234375,7.496115,10.588687,12.154200,8.007166
1006.238281,7.187212,9.297708,8.915556,-1.315104
1006.242188,6.003381,1.154858,9.339651,11.594483
1006.246094,-4.669637,0.939391,1.902002,7.578333
1006.250000,-7.953648,4.689919,-1.206026,-3.982065
1006.253906,-3.536900,-0.480088,-1.286717,-0.290564
1006.257812,-3.905258,-4.112694,-3.127873,-4.972719
1006.261719,-3.919415,-8.509292,-6.411448,-10.984805
1006.265625,-10.088586,-8.801021,-16.472362,-8.754503
1006.269531,-7.449778,-8.056513,-17.612951,-14.619614
1006.273438,-8.156179,-7.506214,-10.732906,-13.060816
1006.277344,-10.138914,-5.728089,-9.942659,-8.717538
1006.281250,-16.299399,-12.702378,-11.655085,-11.572504
1006.285156,-7.767923,-8.960066,-7.867818,-14.097831
1006.289062,-5.941541,-5.738029,-9.333452,-12.256335
1006.292969,2.029644,1.029137,-5.164117,2.326073
1006.296875,-1.929182,-6.926964,-5.882530,-1.403278
1006.300781,8.497435,-4.716040,-5.296612,1.725308
1006.304688,4.650284,0.779340,-1.432161,-6.582004
1006.308594,7.160224,6.711145,5.016451,5.603991
1006.312500,8.534291,13.540280,11.786559,8.381185
1006.316406,5.645203,7.003279,5.997867,5.056683
1006.320312,5.132859,6.993732,10.490251,8.757533
1006.324219,2.105698,15.053105,11.997316,8.946656
1006.328125,4.090181,5.021597,11.903619,8.368913
1006.332031,18.013125,9.175243,10.183175,10.193258
1006.335938,5.912143,7.516214,4.767135,9.574682
1006.339844,-0.479943,7.726672,3.055149,1.790216
1006.343750,7.919611,2.237684,5.267452,5.347715
1006.347656,8.448727,0.520705,-0.776830,3.296185
1006.351562,-3.512954,-2.550414,7.289098,-0.983704
1006.355469,-7.883857,0.998333,-0.073121,-5.733049
1006.359375,-13.295061,-2.718723,-3.073488,-8.169992
1006.363281,-5.461671,-9.605298,-8.450356,-0.718968
1006.367188,-11.342645,-4.652851,-10.826453,-9.955058
1006.371094,-6.598918,-7.167605,-9.221870,-12.445837
1006.375000,-0.772791,-14.082559,-0.888782,-3.287645
1006.378906,-11.784000,-9.822631,-9.393418,-11.329790
1006.382812,-13.977089,-12.382516,-11.111130,-11.000215
1006.386719,-6.583456,-1.389208,-11.694559,-1.917828
1006.390625,-7.211508,-4.715806,-3.552213,-9.644457
1006.394531,-4.729652,-6.123135,5.407288,-2.933246
1006.398438,7.144585,-2.860628,-6.011983,-10.218196
1006.402344,4.625820,-3.644370,0.651674,1.897498
1006.406250,4.921077,2.021489,-2.352553,9.975311
1006.410156,1.664985,2.329603,5.562248,-0.378908
1006.414062,7.642255,3.892119,12.073844,13.253090
1006.417969,10.794890,8.367208,9.120533,11.608284
1006.421875,9.688694,13.120560,4.933969,5.933800
1006.425781,11.775221,12.839039,15.229700,5.330614
1006.429688,15.084865,11.845062,9.904651,8.971430
1006.433594,14.707258,13.458220,10.204718,5.725369
1006.437500,7.164219,5.951315,0.593507,7.823489
1006.441406,1.927537,4.611449,5.567599,9.023910
1006.445312,4.124564,2.652874,7.761654,1.263461
1006.449219,-5.790202,-0.027015,-0.643055,2.842373
1006.453125,1.470751,-8.001920,-2.143748,-9.061650
1006.457031,-13.845627,3.481172,-2.203689,-13.690580
1006.460938,-7.901344,-3.560640,0.060134,-0.974002
1006.464844,-13.045683,-7.323096,-3.280254,-7.340827
1006.468750,-16.614134,-15.124636,-8.257211,-7.238889
1006.472656,-12.306921,-2.112237,-11.640935,-8.296819
1006.476562,-15.261348,-14.643160,-14.153490,-10.554432
1006.480469,-8.580038,-6.329328,-10.117826,-11.072078
1006.484375,-2.809030,-9.288968,-2.167598,-4.929560
1006.488281,-5.581499,-11.281033,-7.183615,4.143924
1006.492188,0.684743,-6.873316,-2.724759,-4.538736
1006.496094,2.560716,0.614588,-11.328710,-5.102372
1006.500000,5.615913,-0.184546,-1.885387,-2.024544
1006.503906,-0.399348,3.835684,8.069635,4.333173
1006.507812,8.514248,5.828125,6.712480,0.480413
1006.511719,2.715861,6.347882,4.564612,7.795803
1006.515625,8.548593,9.822097,14.802818,16.990531
1006.519531,4.113481,8.363315,14.331855,7.776870
1006.523438,8.480933,6.365444,12.646824,6.603326
1006.527344,10.887005,5.910370,13.419829,14.147241
1006.531250,14.727105,12.866712,0.710682,8.454980
1006.535156,10.660593,6.729593,6.466822,11.331209
1006.539062,18.135493,2.585554,11.196874,11.494874
1006.542969,2.565298,3.825964,0.378657,5.540687
1006.546875,-4.831474,-1.349692,9.477051,-0.818026
1006.550781,-3.505886,-1.844391,1.618937,2.305597
1006.554688,4.634474,-0.015836,-9.155849,-2.900649
1006.558594,-5.952684,-5.120276,-4.979489,-7.241891
1006.562500,-6.154162,-6.307578,-7.259684,-7.536739
1006.566406,-5.853811,-17.271565,-8.767801,-9.529166
1006.570312,-15.152003,-4.594260,-10.246528,-3.917936
1006.574219,-5.480621,-3.373436,-6.718583,-13.426524
1006.578125,-9.563367,-16.755962,-9.780752,-6.730077
1006.582031,-6.839037,-8.168182,-7.792341,-12.983138
1006.585938,-10.634558,-11.058125,-9.976016,-9.538578
1006.589844,-7.679665,-4.631902,-6.890340,-8.013652
1006.593750,-7.512453,-0.765677,-1.526641,-7.897751
1006.597656,0.235250,2.578189,-8.555120,-6.834465
1006.601562,1.577285,-1.536617,3.664054,2.849917
1006.605469,2.038609,3.983090,-1.397138,8.345778
1006.609375,7.443985,4.072140,1.365018,10.525990
1006.613281,11.963718,7.473772,5.201562,9.174484
1006.617188,4.785977,6.628436,8.307172,0.918202
1006.621094,11.639663,12.261414,10.965035,16.497735
1006.625000,7.930020,11.227032,11.035179,11.078306
1006.628906,8.640287,14.566553,13.658257,8.305925
1006.632812,15.187026,9.238148,8.488601,5.366403
1006.636719,10.085908,7.062073,7.052782,10.193869
1006.640625,8.642786,-0.094525,7.974831,0.827691
1006.644531,-3.610170,4.240306,14.918019,8.831082
1006.648438,-5.848126,5.914117,1.475458,-3.425869
1006.652344,-0.596281,1.103355,-7.781725,-5.565314
1006.656250,-2.611995,-3.312782,-5.954987,0.203746
1006.660156,-6.785948,-8.987468,-0.948974,-5.437294
1006.664062,-9.950468,-10.417551,-5.582360,-8.574575
1006.667969,-10.457051,2.240307,-12.681727,-15.360987
1006.671875,-15.413506,-11.693135,-15.938935,-8.949243
1006.675781,-13.543095,-6.192763,-7.487614,-4.977478
1006.679688,-5.327047,-9.751490,-4.581743,-10.248466
1006.683594,-6.388180,-10.506413,-12.079796,-4.503217
1006.687500,-8.514453,-8.815700,-6.855957,-10.584901
1006.691406,-7.413879,-4.768171,-6.056542,-4.628886
1006.695312,-1.997628,0.701105,3.822213,2.408620
1006.699219,-0.013709,-7.006909,0.664657,5.123984
1006.703125,3.591294,5.948021,2.400538,-1.124684
1006.707031,9.790028,0.467015,10.955027,-5.955899
1006.710938,4.788543,5.110778,5.383001,5.512641
1006.714844,3.973192,5.760234,5.184740,6.656716
1006.718750,8.078679,20.598284,9.663999,10.772353
1006.722656,11.315357,6.515976,8.545357,3.322491
1006.726562,12.024311,5.765805,8.084426,5.607568
1006.730469,5.392166,9.227935,11.820832,7.280455
1006.734375,6.938261,8.695262,10.372133,5.293100
1006.738281,8.977776,3.410661,2.337661,6.729536
1006.742188,13.488530,4.078680,-3.502983,11.021097
1006.746094,3.147178,1.013195,0.691356,0.496960
1006.750000,0.772031,0.535620,2.430211,-3.179833
1006.753906,1.812925,-3.648017,-5.122414,0.069251
1006.757812,0.639693,-5.270016,-5.091506,-9.429890
1006.761719,-11.014496,-8.408000,-10.134511,-16.829607
1006.765625,-5.118700,-8.353628,-11.373567,-6.886575
1006.769531,-5.173519,-15.431254,-10.689162,-20.845000
1006.773438,-11.463764,-8.523686,-5.391627,-3.668823
1006.777344,-7.059754,-13.160925,-11.360150,-10.191650
1006.781250,-6.851627,-13.779434,-7.095167,-13.619321
1006.785156,-6.456997,-6.376721,-9.087768,-6.965095
1006.789062,-5.044323,-6.537329,-13.539294,5.011916
1006.792969,-3.043714,-1.093997,3.396872,2.089790
1006.796875,-1.822367,-1.945158,1.833537,-5.490994
1006.800781,2.164748,7.010801,-4.467404,-3.356723
1006.804688,1.619582,-1.072471,6.349194,-3.836242
1006.808594,1.829952,-1.414921,-0.409596,13.356937
1006.812500,11.178856,2.189264,6.953675,1.912961
1006.816406,7.671370,12.095814,12.515403,9.103050
1006.820312,6.867860,3.570864,6.555737,15.212026
1006.824219,9.185802,17.824133,8.900416,10.781493
1006.828125,6.094192,8.347277,10.881600,7.464213
1006.832031,7.187901,7.231158,7.089453,12.974969
1006.835938,0.321739,3.976097,-1.033536,8.445627
1006.839844,3.436489,2.924949,6.177422,8.025226
1006.843750,-3.359947,4.140380,1.193052,0.525791
1006.847656,-0.937048,-2.611948,5.350989,3.693222
1006.851562,2.390425,3.782753,2.697236,4.007835
1006.855469,-0.672975,-3.415365,-3.487378,-2.544575
1006.859375,-5.147000,-0.076934,-5.283067,-12.104855
1006.863281,-8.852099,-9.323185,-1.133598,-8.224427
1006.867188,-11.858475,-13.548792,-7.276341,-13.277747
1006.871094,-8.052341,-11.894748,-10.982517,-11.348562
1006.875000,-17.825847,-13.174209,-13.427484,-11.898739
1006.878906,-11.465997,-4.791609,-8.919025,-3.712878
1006.882812,-15.266825,-6.670613,-12.491369,-11.435964
1006.886719,-5.220732,-11.456935,-10.440669,-1.258745
1006.890625,-10.912782,-5.237356,-5.322601,-3.730825
1006.894531,-1.618053,-3.749858,-4.953658,-6.990137
1006.898438,5.194280,-4.481211,0.348463,-1.536671
1006.902344,-3.953387,1.392629,3.462651,0.912336
1006.906250,1.809282,1.947247,3.485053,9.644372
1006.910156,10.300447,3.499879,0.636203,8.893904
1006.914062,6.335487,6.381335,9.687730,11.033328
1006.917969,7.405260,4.642319,11.917299,8.891649
1006.921875,7.605032,10.989755,15.894035,7.008714
1006.925781,11.137387,4.863793,15.400309,10.728320
1006.929688,14.841250,8.086061,3.390147,5.189752
1006.933594,10.276297,13.292158,3.785881,7.432891
1006.937500,10.298267,10.070642,10.144663,7.701461
1006.941406,6.014187,3.104975,9.368227,2.537331
1006.945312,-4.136769,-3.530505,8.942407,-2.926166
1006.949219,7.733752,4.211763,-5.703723,-4.296865
1006.953125,-1.679507,0.320157,-2.673119,-4.239467
1006.957031,-3.526583,-9.817372,-8.217584,-5.437073
1006.960938,-6.256443,-4.391487,1.818701,-11.743153
1006.964844,-5.147192,-8.338664,-7.510289,-11.578245
1006.968750,-12.911865,-8.638858,-11.326473,-14.199073
1006.972656,-6.262035,-5.543702,-8.182251,-9.074473
1006.976562,-8.280572,-8.394788,-7.301209,-9.919881
1006.980469,-9.945854,-8.769529,-8.969801,-7.896532
1006.984375,-7.985913,-4.953614,-8.051421,-15.508512
1006.988281,-5.477314,-1.181876,-9.289768,-5.609428
1006.992188,-10.653543,0.047849,-5.893598,-5.889136
1006.996094,-2.832927,4.754360,-7.252296,-0.972597
1007.000000,-1.291708,1.323352,7.435675,2.453480
1007.003906,-1.091214,-1.693138,12.042333,-0.925013
1007.007812,9.461087,4.206385,4.454316,4.112253
1007.011719,10.554442,7.328019,11.383222,3.437710
1007.015625,12.271665,4.869460,2.748910,8.982820
1007.019531,8.898543,7.977032,7.474260,9.002515
1007.023438,6.061243,8.295293,11.851243,6.730126
1007.027344,10.032760,12.185661,12.403554,10.150900
1007.031250,8.078489,6.082073,11.288134,3.636257
1007.035156,5.758766,6.511087,2.764428,10.425306
1007.039062,5.836220,3.875210,2.093020,13.274750
1007.042969,-5.012966,-1.682719,2.695642,7.312173
1007.046875,6.268883,-1.465086,7.609927,-10.518064
1007.050781,-5.461878,-2.935182,-4.095903,-2.573855
1007.054688,-5.408418,0.238338,-3.720061,0.278781
1007.058594,-11.536615,-9.428892,-2.064190,-1.899735
1007.062500,-2.435963,-3.296046,-9.483739,-2.895257
1007.066406,-10.019869,-5.469877,-10.408874,-8.486859
1007.070312,1.315268,-14.754398,-11.546318,-11.653018
1007.074219,-13.474409,-5.311089,-9.669093,-7.412274
1007.078125,-12.274248,-10.395616,-10.571213,-14.841575
1007.082031,-9.865893,-7.506611,-7.362781,-13.638179
1007.085938,-7.859962,-2.090779,-5.445961,-4.537836
1007.089844,-5.237420,-3.386589,-3.771011,-8.053499
1007.093750,-7.157447,-9.111433,-1.003433,-3.883959
1007.097656,-4.303678,7.304740,-8.540840,-0.603464
1007.101562,-0.627802,6.860060,9.008811,2.272507
1007.105469,0.673899,-4.155610,3.168547,1.080855
1007.109375,13.321284,8.191941,-1.299717,6.088301
1007.113281,8.816645,4.529928,6.087519,7.834089
1007.117188,13.358234,15.860186,14.556223,6.385631
1007.121094,10.457931,8.794993,11.747127,9.701171
1007.125000,11.910222,1.459414,8.610980,5.960655
1007.128906,8.909887,7.139562,8.712208,7.758431
1007.132812,11.384142,4.960707,6.169035,14.878290
1007.136719,4.266681,1.071459,7.677952,7.231649
1007.140625,2.971840,-2.406455,4.721578,2.369359
1007.144531,2.358611,3.256187,4.406788,-3.146131
1007.148438,0.811095,5.902097,-2.294229,-8.321329
1007.152344,0.213972,-1.985934,-1.970254,-1.752317
1007.156250,-3.832003,-9.784750,3.813010,-0.202660
1007.160156,-2.337709,-10.819162,-7.662576,-7.178627
1007.164062,-7.790962,-3.823277,-5.310862,-5.958298
1007.167969,-8.093542,-15.870330,-9.492911,-11.754423
1007.171875,-16.433492,-8.850221,-6.585983,-3.154531
1007.175781,-6.469093,-10.227140,-16.609756,-12.111721
1007.179688,-15.400383,-10.048690,-7.038508,-19.123980
1007.183594,-5.945184,-12.596286,-1.641223,-6.937438
1007.187500,-9.221276,-9.828627,-10.473643,-2.651968
1007.191406,-5.354724,-1.799565,-7.756926,-7.530604
1007.195312,-3.030932,-0.577202,-4.654294,-3.136777
1007.199219,-2.701417,-10.771217,-4.581829,-1.849944
1007.203125,6.804852,2.420482,-0.339656,2.267694
1007.207031,4.509762,6.948826,7.763699,3.358796
1007.210938,1.975145,5.245291,9.153437,2.180632
1007.214844,-0.108695,9.302827,7.257705,14.680389
1007.218750,10.730652,7.823184,8.390576,3.415448
1007.222656,4.318995,12.888940,6.258961,9.524353
1007.226562,4.023212,10.369449,5.964420,3.422181
1007.230469,2.439238,9.488533,13.369129,12.798329
1007.234375,7.156010,13.801904,8.023312,2.267687
1007.238281,4.309022,16.698452,7.969579,8.326619
1007.242188,2.500645,2.006421,6.947600,6.021338
1007.246094,3.862869,-1.049297,4.917999,5.280414
1007.250000,1.138812,-2.990994,-11.449107,7.454974
1007.253906,-1.248729,-3.478763,-0.246864,-1.631627
1007.257812,-8.234588,-7.094914,2.744796,-5.315951
1007.261719,-8.100265,-7.771193,-8.898620,-7.107068
1007.265625,-7.660820,-9.235151,0.099686,-6.306713
1007.269531,-10.123019,-7.590887,-8.573723,-6.142617
1007.273438,-8.777155,-14.187466,-14.930757,-8.042933
1007.277344,-17.515103,-6.378069,-14.231366,-10.072414
1007.281250,-6.359610,-8.927362,-13.637077,-15.339929
1007.285156,-4.955465,-11.253455,-5.341813,-5.275027
1007.289062,-5.786777,2.023565,-8.526454,-14.001946
1007.292969,-0.489976,1.004868,-3.094256,-0.314417
1007.296875,-5.483406,-3.803031,7.973581,-7.408673
1007.300781,2.523168,4.596847,4.939271,6.468781
1007.304688,0.670710,-0.072855,-3.088829,7.583301
1007.308594,5.409803,12.711832,-0.791274,0.909874
1007.312500,-1.208278,6.225958,11.277434,11.299423
1007.316406,4.479763,16.036158,7.033953,8.848018
1007.320312,2.519887,9.341120,5.936901,1.357139
1007.324219,11.221756,8.201833,7.182129,22.318630
1007.328125,12.888763,8.523306,11.595720,16.144335
1007.332031,12.137292,4.998664,10.567716,19.216436
1007.335938,8.531970,3.906093,9.588139,8.399912
1007.339844,13.428201,3.962949,5.699903,-1.468049
1007.343750,10.919937,2.621217,7.295106,5.463152
1007.347656,3.900019,5.743302,1.029568,0.498158
1007.351562,0.206040,3.371063,-0.716141,2.011128
1007.355469,-4.620089,-3.994063,-8.466432,-6.614349
1007.359375,-7.930478,2.162562,-6.306595,-9.561004
1007.363281,-14.451926,-9.371898,-10.922220,-7.495984
1007.367188,-3.637100,-14.190784,-14.932998,-4.931655
1007.371094,-5.881045,-10.045309,-11.251850,-10.756506
1007.375000,-5.233468,-12.056750,-8.555500,-9.553112
1007.378906,-8.049481,-6.909147,-8.499215,-6.792685
1007.382812,-8.376625,-8.850519,-9.569716,-4.788401
1007.386719,-2.015290,-1.848032,-3.635542,-2.437351
1007.390625,1.098115,0.858396,-2.971853,-7.667547
1007.394531,-2.560048,0.367963,2.047488,-3.401076
1007.398438,-3.653594,-2.830918,-4.426171,0.542420
1007.402344,0.503316,1.950907,0.063518,5.829269
1007.406250,-0.004747,3.458079,7.366978,5.870488
1007.410156,0.347962,3.280910,7.551101,8.148780
1007.414062,4.890131,5.894098,8.006347,9.693212
1007.417969,5.880068,11.577144,13.098439,5.197496
1007.421875,16.263545,13.408170,12.940408,11.738391
1007.425781,16.439093,11.019900,6.283115,7.511182
1007.429688,0.725694,6.740839,6.045284,8.170275
1007.433594,11.637968,11.362927,10.545897,9.592249
1007.437500,5.482181,6.526194,1.925432,7.281622
1007.441406,7.182705,12.230354,-0.506546,3.898994
1007.445312,-5.016092,-3.149503,7.270627,4.627399
1007.449219,-10.370820,-0.603363,-6.111511,2.788461
1007.453125,-2.245604,-2.696929,-6.893825,-0.724296
1007.457031,-6.574785,0.379591,0.435334,-0.667082
1007.460938,-0.820979,-13.413007,-8.554507,-4.839922
1007.464844,-7.754470,-4.775226,-6.643521,-2.197359
1007.468750,-6.282062,-9.094442,-15.358618,-7.584759
1007.472656,-9.817533,-14.336956,-15.564631,-7.475983
1007.476562,-14.499432,-11.671281,-14.807562,-7.295764
1007.480469,-10.436286,-9.532257,-8.304732,-15.514253
1007.484375,-5.663702,-7.614575,-11.091839,-5.300232
1007.488281,-2.372104,-7.591467,-3.523281,-9.857838
1007.492188,-6.543048,-4.051547,-4.686131,-4.056236
1007.496094,-8.351802,-2.236555,-7.152053,0.471413
1007.500000,2.292762,0.553643,-4.948927,6.647656
1007.503906,11.090990,0.505502,-2.460082,-0.475839
1007.507812,2.206972,8.095755,6.376561,4.026239
1007.511719,5.566034,5.666265,9.352025,7.388713
1007.515625,2.151110,0.699072,13.353373,7.595972
1007.519531,7.503278,1.121394,9.713568,0.190975
1007.523438,8.005705,11.719745,10.348322,9.598401
1007.527344,17.129918,12.409852,7.175796,9.597531
1007.531250,9.078263,10.171632,16.266825,8.468400
1007.535156,3.838007,10.271978,5.437136,6.258065
1007.539062,3.730627,12.795892,5.685544,-0.523894
1007.542969,4.407806,4.361007,3.305164,1.828510
1007.546875,3.382120,3.114216,6.689159,-0.555234
1007.550781,-5.278313,-3.250468,6.007218,-1.073195
1007.554688,-1.354025,2.171721,1.429449,-0.167567
1007.558594,-10.457518,-0.643360,-5.252385,-7.640935
1007.562500,-9.042859,-9.561610,-5.221146,-1.922299
1007.566406,-8.599006,-14.258135,-11.976334,-6.766309
1007.570312,-6.350406,-4.291573,-9.306406,-9.092037
1007.574219,-16.643798,-10.156587,-6.895926,-8.041406
1007.578125,-15.626123,-8.877830,-12.473317,-5.494284
1007.582031,-8.563148,-6.145582,-13.740124,-8.428735
1007.585938,-7.314183,-1.279751,-4.465245,-9.921470
1007.589844,-7.105265,-1.921242,-10.621323,-3.536360
1007.593750,-4.360773,5.111505,-1.470773,-1.404615
1007.597656,-4.274993,-5.513820,-2.517112,-12.583813
1007.601562,3.779855,3.341167,-2.922961,-1.089939
1007.605469,4.668987,3.928596,3.753053,0.291355
1007.609375,4.259438,2.345654,-1.638579,10.465749
1007.613281,4.788190,6.486100,10.229728,3.442391
1007.617188,13.125778,4.788209,3.955811,9.840761
1007.621094,13.068249,7.009775,11.950223,12.507661
1007.625000,10.874560,6.236534,10.974743,13.812351
1007.628906,11.519839,10.140019,7.414970,9.347840
1007.632812,10.792599,14.433688,11.860831,7.838575
1007.636719,5.164696,3.542547,8.675740,8.761511
1007.640625,11.632795,5.457828,8.355019,0.727629
1007.644531,4.022403,3.693655,6.078785,1.644233
1007.648438,6.817744,-0.474611,-4.458522,4.036829
1007.652344,-5.582213,1.895526,-3.797623,-2.075140
1007.656250,-2.821042,-7.762351,-0.625811,-1.720601
1007.660156,-7.241818,-10.000088,-3.513235,-3.287856
1007.664062,-9.468201,-2.130350,-14.182495,-5.873122
1007.667969,-11.219397,-16.259285,-3.874271,-5.642137
1007.671875,-9.570096,-7.230619,-8.493991,-12.775443
1007.675781,-6.192329,-14.037589,-8.524769,-11.984157
1007.679688,-8.382197,-15.049431,-0.987953,-7.689536
1007.683594,-8.311048,-12.888906,-5.119813,-13.032304
1007.687500,-3.454799,-5.989444,-1.740808,-9.595310
1007.691406,-5.450114,-6.446902,-2.605352,-4.038468
1007.695312,-1.337590,-1.610228,-8.468335,5.625119
1007.699219,4.962587,-3.012213,-1.953414,2.787549
1007.703125,0.815255,3.338822,0.709839,3.363598
1007.707031,2.794593,2.755963,4.868420,7.784586
1007.710938,4.610588,9.796950,1.921940,7.455550
1007.714844,3.956467,13.082645,10.284295,9.840702
1007.718750,6.536667,9.948026,9.448786,1.156655
1007.722656,12.185629,6.537459,2.017153,4.713489
1007.726562,3.372373,13.173810,5.804976,8.109361
1007.730469,3.499680,5.175204,7.367821,2.840777
1007.734375,9.601213,16.498977,7.553292,1.587957
1007.738281,6.043874,8.010078,1.664189,1.363315
1007.742188,7.485046,6.003651,5.623792,2.217553
1007.746094,11.885163,-0.099670,6.080599,6.788636
1007.750000,-0.431454,-5.025043,1.365534,3.368966
1007.753906,-6.071713,-3.796668,-3.847921,-4.255059
1007.757812,-2.661876,-11.175737,1.916733,-9.733066
1007.761719,-15.705480,-3.888801,-4.686260,2.761245
1007.765625,-6.643819,-6.027469,-7.929898,-9.989841
1007.769531,-5.654897,-8.590838,-6.061438,-5.865715
1007.773438,-10.658421,-15.393983,-16.483113,-13.664782
1007.777344,-13.600371,-13.370046,-13.414347,-11.469085
1007.781250,-13.810792,-5.719447,-5.661521,-14.649148
1007.785156,-12.922907,-8.311847,-4.215419,-13.953077
1007.789062,-8.464873,-18.566854,-3.452456,-3.479765
1007.792969,-3.720219,-1.741834,-14.326421,-4.257981
1007.796875,0.994587,4.948521,-5.007410,-5.937019
1007.800781,-7.272197,0.416781,4.336843,-1.372992
1007.804688,4.353348,-0.996386,3.221330,6.030343
1007.808594,-0.522975,-0.724910,7.591206,1.380806
1007.812500,-0.323072,8.425354,6.241888,10.678269
1007.816406,7.440180,6.931748,7.072632,5.297995
1007.820312,11.447497,4.163944,10.407563,16.822383
1007.824219,8.431656,10.048260,6.696906,5.868063
1007.828125,11.439933,8.136801,12.268407,16.915961
1007.832031,11.635328,6.333848,19.394222,9.399531
1007.835938,12.338347,17.878361,6.952368,10.063323
1007.839844,2.552146,-1.389738,7.227523,-4.896887
1007.843750,4.907692,-3.354092,4.057585,3.908899
1007.847656,3.139962,-4.155988,1.085841,1.283165
1007.851562,-1.143172,-6.503702,-3.323058,-6.976198
1007.855469,6.928182,-1.161864,6.753367,1.642967
1007.859375,-9.434286,-7.671225,-7.318932,-5.566967
1007.863281,-8.510204,-11.791499,-6.151255,-4.250792
1007.867188,-8.189611,-6.694933,-8.565409,-6.396366
1007.871094,-15.518596,-9.522120,-3.473259,-7.620514
1007.875000,-8.633917,-12.346862,-6.909125,-13.033013
1007.878906,-11.786824,-14.138446,-7.006002,-6.797303
1007.882812,-12.423521,-6.324702,-6.949007,-10.996423
1007.886719,-16.184601,-5.606725,-14.896999,-5.599668
1007.890625,0.169802,-14.758329,-3.774811,1.165138
1007.894531,-1.680469,-3.971724,-8.875548,-9.200407
1007.898438,1.267132,0.133576,-2.546007,-3.479305
1007.902344,2.950327,6.495722,4.071698,5.387224
1007.906250,2.296672,6.791854,0.901523,-1.559301
1007.910156,5.819587,11.662028,2.541063,8.057378
1007.914062,7.889741,9.362713,8.894907,2.874765
1007.917969,11.695180,6.987876,11.265225,3.914698
1007.921875,4.619774,10.145881,16.066604,9.689758
1007.925781,13.944842,7.439504,11.198098,8.172702
1007.929688,3.802068,13.022941,13.606021,15.614692
1007.933594,6.146126,1.347818,5.628909,11.884733
1007.937500,10.892680,8.010942,13.532683,1.037171
1007.941406,3.314908,10.025702,-0.443115,3.768644
1007.945312,4.410630,14.224434,6.474499,4.931518
1007.949219,5.102421,-1.596026,4.884404,1.077594
1007.953125,0.981770,-3.229946,4.263169,3.154084
1007.957031,-1.986643,-13.787893,-5.262956,-0.844560
1007.960938,-7.085317,-1.181535,-7.657028,-5.418285
1007.964844,-14.234832,-9.796880,2.911424,-3.358577
1007.968750,-5.834407,-6.462549,-10.528748,-3.813197
1007.972656,-4.740824,-4.180737,-7.922940,-10.059646
1007.976562,-10.998317,-12.931439,-6.329550,-10.497152
1007.980469,-9.786630,-11.576691,0.707817,-3.212879
1007.984375,-10.373981,-6.284545,0.615957,-8.683899
1007.988281,-3.593383,-2.437438,-8.321403,-3.707931
1007.992188,-4.245032,0.801634,-7.100108,0.104253
1007.996094,-4.168244,-3.767817,-6.315067,-4.823121
1008.000000,-0.272816,0.982385,2.673383,-7.173351
1008.003906,1.464465,4.343947,0.473128,6.187542
1008.007812,6.854651,-1.735584,4.028982,8.568878
1008.011719,8.261977,3.330775,4.815010,11.888399
1008.015625,5.345335,11.898528,5.397803,6.009591
1008.019531,11.568650,6.095951,15.480300,6.490084
1008.023438,4.680312,16.349206,15.454315,11.762668
1008.027344,13.413406,9.588532,8.766859,7.838410
1008.031250,10.525162,6.164048,10.131894,11.657694
1008.035156,4.216655,2.460612,2.312738,14.916506
1008.039062,1.429179,11.228773,9.848056,11.331340
1008.042969,6.089855,12.643868,7.014206,1.239436
1008.046875,2.086125,-0.666222,5.613435,5.761174
1008.050781,1.624874,-5.110040,3.740593,0.029028
1008.054688,2.508103,-1.269897,-8.410969,-5.364011
1008.058594,-1.537482,-5.328928,1.873756,0.094655
1008.062500,-9.453248,-4.678553,-2.029360,-4.287522
1008.066406,-7.410027,-13.203793,-7.346618,-14.577530
1008.070312,-9.510590,-6.567983,-11.792915,-12.467962
1008.074219,-6.890464,-13.871805,-9.276718,-11.710163
1008.078125,-10.528693,-13.276039,-5.053951,-11.681860
1008.082031,-13.624055,-8.378684,-7.653561,-7.082202
1008.085938,-14.389772,-10.964142,-8.942015,-11.884252
1008.089844,-2.527757,0.449828,-10.119103,-10.810069
1008.093750,-7.429496,-15.000492,2.669110,0.704040
1008.097656,-0.207574,1.322702,-4.141563,0.817626
1008.101562,8.031549,0.350443,4.497192,5.588329
1008.105469,8.537891,6.842097,9.098412,6.258470
1008.109375,13.788380,2.584760,4.996175,0.590998
1008.113281,13.680642,16.415221,7.431998,0.444602
1008.117188,13.892638,10.520253,2.970911,19.669790
1008.121094,10.859772,3.525496,18.192103,10.892018
1008.125000,9.554696,7.900481,19.685193,10.543417
1008.128906,7.888188,9.765203,13.637324,10.451716
1008.132812,7.840239,9.283231,6.177433,18.348574
1008.136719,7.513997,15.139954,13.528172,1.876711
1008.140625,10.451731,7.165033,2.764169,0.747707
1008.144531,2.924390,6.706270,3.732921,9.549014
1008.148438,0.035614,1.557174,-0.743205,9.411424
1008.152344,6.074454,-5.152261,-9.387453,-6.567603
1008.156250,3.647185,-0.014071,-6.305953,-8.493130
1008.160156,-6.854401,-0.437233,-5.614124,3.481506
1008.164062,-11.057133,-6.970738,-7.097688,-4.725816
1008.167969,-9.890569,-12.071712,-4.597322,-10.781664
1008.171875,-7.587845,-10.597250,-12.108672,-10.319398
1008.175781,-4.514248,-3.550715,-14.670492,-8.956518
1008.179688,-8.638129,-12.780369,-11.681419,-10.573260
1008.183594,-16.658894,-7.929964,-9.795648,-6.863532
1008.187500,-7.230531,-8.801932,-6.775439,-6.379414
1008.191406,-10.240077,-6.973131,-8.012124,-3.101111
1008.195312,-3.339720,6.063232,-2.259430,0.196909
1008.199219,0.339456,-8.297544,2.943668,-5.765492
1008.203125,1.864226,-2.455200,1.372000,0.363651
1008.207031,-5.334412,11.859306,3.171717,6.971457
1008.210938,7.619890,5.040063,7.156542,3.100163
1008.214844,12.054044,6.528210,5.632650,8.942948
1008.218750,11.106107,8.837052,8.742658,14.511980
1008.222656,6.657464,10.771840,11.459143,12.719838
1008.226562,15.750271,6.225206,7.101315,6.730674
1008.230469,11.879293,3.931737,18.959874,7.683475
1008.234375,13.011849,6.465272,5.366689,6.148303
1008.238281,3.548203,8.307088,6.830507,1.719779
1008.242188,3.528730,2.573262,9.440554,0.665047
1008.246094,6.950227,0.252836,2.123737,2.571322
1008.250000,-2.305074,0.194651,-8.848393,5.959719
1008.253906,-2.835380,-9.217658,0.778929,-15.137129
1008.257812,-1.815562,-13.533188,-5.569298,-8.636640
1008.261719,-1.422237,-6.868459,-6.317796,-5.638440
1008.265625,-10.326520,-9.764205,-12.530313,-0.689973
1008.269531,-2.669972,-9.386541,-8.082728,-8.757932
1008.273438,-11.788940,-10.400387,-11.669565,-6.711417
1008.277344,-8.510731,-10.170512,-15.186539,-6.711384
1008.281250,-16.145571,-5.118008,-7.814632,-9.911685
1008.285156,-14.549397,0.382675,-11.073279,-12.361389
1008.289062,-2.045648,-10.761104,-9.400466,-7.433023
1008.292969,-3.375205,-0.292779,-5.650602,-13.051127
1008.296875,-12.680070,-4.802562,-5.303757,-2.935260
1008.300781,3.807873,-2.739824,-0.068136,-2.508008
1008.304688,2.070338,1.136984,-0.379501,4.408716
1008.308594,-2.148428,9.585016,4.307811,10.121449
1008.312500,6.342526,10.635483,12.789192,8.621526
1008.316406,5.519967,11.977520,4.190211,11.252365
1008.320312,6.882221,14.463538,13.002019,12.397308
1008.324219,14.791612,13.663361,3.681933,9.957505
1008.328125,9.483095,6.145254,5.397112,9.538704
1008.332031,7.991515,9.026280,6.916657,8.302946
1008.335938,10.019984,4.816360,7.023770,8.885397
1008.339844,1.293200,-0.781583,1.881019,9.199103
1008.343750,-0.975673,7.376090,3.914425,6.839211
1008.347656,5.713525,5.465141,2.168985,-1.557350
1008.351562,-0.851670,4.161319,-6.405601,-1.865129
1008.355469,-9.989809,-2.984759,-1.012901,-4.269119
1008.359375,-9.688287,-7.623138,-6.291147,-3.085642
1008.363281,-9.252605,-4.535495,-3.851503,1.825262
1008.367188,-6.948753,-6.534823,-19.738233,-10.832485
1008.371094,-13.301941,-8.228132,-4.331082,-4.087401
1008.375000,-11.001196,-4.307071,-4.844790,-9.388585
1008.378906,-12.055398,-10.841922,-6.950854,-12.539579
1008.382812,1.718351,-7.168090,-7.888753,-7.163695
1008.386719,-11.674861,-18.307905,-7.612676,-6.270999
1008.390625,-3.605198,-7.820712,-5.712359,-4.602703
1008.394531,-6.753444,-3.317614,-7.765647,-2.773675
1008.398438,-3.897632,-5.005523,-3.768309,-1.162840
1008.402344,-3.317253,2.604348,-2.380457,-3.586239
1008.406250,4.620836,10.028036,11.948581,1.507970
1008.410156,9.268461,6.268891,-0.096655,5.054777
1008.414062,3.931026,9.801946,3.875606,3.385642
1008.417969,5.264284,8.849630,16.076543,4.571742
1008.421875,7.902385,8.043022,13.679611,17.772653
1008.425781,8.869941,9.587824,11.924141,9.372450
1008.429688,1.517586,8.391227,7.292883,10.348440
1008.433594,10.441241,7.080913,6.064529,5.736165
1008.437500,7.370828,6.663493,7.311826,11.728803
1008.441406,-0.554799,0.840089,-0.024269,6.899819
1008.445312,9.257844,13.558499,1.354348,1.410955
1008.449219,-0.676709,6.904896,2.113840,5.154227
1008.453125,-3.140555,-7.086982,-4.226837,2.108912
1008.457031,-3.139982,0.781488,-2.649734,-3.679138
1008.460938,-4.194846,-10.423090,-2.977948,2.767897
1008.464844,-4.068431,-7.648987,-9.104950,-7.550960
1008.468750,-5.598114,-12.781926,-11.914930,-13.376533
1008.472656,-3.794736,-8.323286,-7.262548,-15.276574
1008.476562,-13.164624,-9.727019,-20.935422,-9.162678
1008.480469,-7.059942,-7.425827,-11.665349,-4.970826
1008.484375,-10.309820,-3.198927,2.611522,-10.444652
1008.488281,-4.701277,-13.713989,-10.852321,-9.276775
1008.492188,-4.939917,-4.012469,-4.318736,-0.742227
1008.496094,-6.480476,-3.539796,-11.566706,-5.205877
1008.500000,-5.885064,4.116430,1.941831,8.813887
1008.503906,6.520812,1.832769,2.572054,5.601614
1008.507812,5.468324,0.720886,4.782113,1.861594
1008.511719,9.671398,9.423927,15.188006,1.894027
1008.515625,8.517328,4.389305,12.085216,6.642542
1008.519531,12.234096,9.002949,16.198416,12.400930
1008.523438,-2.350279,8.675186,4.694931,13.680012
1008.527344,10.505376,13.681286,10.786246,11.743307
1008.531250,9.243818,4.263780,6.794766,10.919774
1008.535156,6.630865,9.430618,12.981300,11.275349
1008.539062,7.960318,4.252016,8.478244,-6.647782
1008.542969,2.677820,8.927081,5.640707,6.261098
1008.546875,-1.906105,4.298158,3.623674,2.013183
1008.550781,-4.397479,-0.488422,-7.222831,2.393127
1008.554688,-1.957727,-4.556992,-3.411779,-2.476634
1008.558594,7.121453,-8.979701,-0.071023,-12.342454
1008.562500,-7.086192,-10.346407,-10.473100,-8.649551
1008.566406,-7.035990,-7.916475,-8.109295,-7.343628
1008.570312,-2.205731,-10.772787,-13.710480,-9.482801
1008.574219,-3.775096,-13.444914,-10.166273,-5.845430
1008.578125,-10.239343,-5.665416,-7.444583,-6.544438
1008.582031,-11.334540,-11.037067,-10.166205,-6.823465
1008.585938,-10.783170,-10.208703,-7.517074,-6.830594
1008.589844,-12.287635,-9.466921,-5.885975,-1.291887
1008.593750,-5.580218,-9.189890,-7.403094,-10.818438
1008.597656,6.191579,-1.753418,-2.622930,-2.649179
1008.601562,0.926820,2.154216,-1.207470,1.977623
1008.605469,3.874182,2.296310,0.748739,-0.527632
1008.609375,-0.133786,13.926508,-0.893106,8.517448
1008.613281,3.768075,4.545985,6.144767,2.270018
1008.617188,10.790120,12.925523,2.456128,10.123844
1008.621094,11.001851,10.592817,11.703527,13.470692
1008.625000,8.214458,3.476697,11.582898,16.399489
1008.628906,16.289078,14.920914,12.855715,10.512448
1008.632812,-1.062141,10.368102,11.517506,6.650042
1008.636719,9.852742,7.539989,7.524996,8.209571
1008.640625,7.155104,3.905509,2.161333,3.952833
1008.644531,3.008559,8.003606,1.211824,-2.236577
1008.648438,5.482587,5.967099,7.674967,0.286024
1008.652344,3.787612,-4.347977,10.910592,-0.496509
1008.656250,-4.503821,0.742699,-1.380171,-4.138005
1008.660156,-8.619749,-6.091533,-10.992455,-15.557550
1008.664062,-10.378865,-0.913892,-3.681833,-4.408845
1008.667969,-16.680342,-6.000343,-6.543626,-12.103602
1008.671875,-13.492202,-3.855045,-9.993765,-8.816901
1008.675781,-0.773585,-17.244964,-12.521832,-12.037515
1008.679688,-5.600845,-14.843840,-11.374101,-4.652413
1008.683594,-8.858666,-13.986469,-13.478012,-10.817475
1008.687500,-5.953978,-6.858907,-11.274677,-0.210237
1008.691406,-7.760066,-2.579762,-1.496630,-2.209279
1008.695312,7.547555,-1.668089,4.713423,-2.714134
1008.699219,4.958088,-4.385912,-1.498494,1.611600
1008.703125,2.573464,-2.790522,1.647327,3.330203
1008.707031,1.336582,1.497830,5.158098,4.878135
1008.710938,11.317271,2.027920,5.273740,5.656720
1008.714844,6.332889,9.183206,4.945880,1.213910
1008.718750,5.302647,6.146463,13.561484,19.135863
1008.722656,4.377250,11.159848,3.073628,4.663179
1008.726562,10.925085,16.879027,14.061350,5.420945
1008.730469,12.051200,8.756492,9.370106,14.240625
1008.734375,7.974812,8.777272,9.984776,11.630620
1008.738281,5.264825,2.403237,4.395204,6.482059
1008.742188,10.336859,4.277755,6.227113,7.197127
1008.746094,-2.575159,0.117350,8.577224,-1.744910
1008.750000,-8.755684,2.241467,-2.944542,0.583448
1008.753906,-3.725450,-4.591808,0.976009,-7.056767
1008.757812,-3.728922,-0.567789,-2.477087,-5.771989
1008.761719,-5.112656,-10.482476,0.281247,-10.473612
1008.765625,-7.938216,-10.913573,-9.724928,-6.785391
1008.769531,-11.548708,-10.190310,-10.903010,-8.477365
1008.773438,-12.319078,-12.781460,-13.682336,-8.508273
1008.777344,-13.852770,-10.410940,-6.529177,-11.551757
1008.781250,-11.055510,-2.566485,-11.425182,-12.198409
1008.785156,-7.990804,-9.223335,-13.048632,-9.147027
1008.789062,-8.449144,-12.606137,-0.192192,-6.653880
1008.792969,1.471892,-5.764017,-6.672665,1.053720
1008.796875,-5.564633,-6.777546,-7.952125,-1.046044
1008.800781,-5.079969,-3.764152,-1.229667,1.178778
1008.804688,5.918186,3.710762,5.403532,-5.569630
1008.808594,3.443925,0.875886,3.290880,2.510154
1008.812500,1.674753,14.188813,7.160773,1.466180
1008.816406,-3.440244,9.180062,8.065500,9.199099
1008.820312,7.096416,3.658824,9.211760,3.644535
1008.824219,5.584472,10.377113,5.008492,14.495386
1008.828125,9.420781,4.554659,9.552453,8.265238
1008.832031,8.455905,5.001119,12.388939,7.760622
1008.835938,8.819267,7.848742,11.272714,1.737114
1008.839844,8.716651,5.425230,-1.077583,4.355903
1008.843750,0.369100,3.727586,1.876708,12.252451
1008.847656,2.141648,1.639319,-2.002948,5.937901
1008.851562,1.121146,-0.032517,8.035994,-4.294715
1008.855469,3.227906,-0.584257,2.065928,-4.942699
1008.859375,-7.475666,-9.276777,-3.403634,-6.963576
1008.863281,-5.633327,-10.295113,-4.723043,-2.966122
1008.867188,-8.896505,-10.794425,-8.143523,-1.662099
1008.871094,-7.044316,-9.990177,-16.494434,-5.165372
1008.875000,-3.673433,-2.092640,-10.817246,-7.439215
1008.878906,-4.972026,-6.997051,-2.154732,-7.498667
1008.882812,-7.129502,-14.750250,-4.840688,-11.394973
1008.886719,-0.104940,-8.730392,-9.597432,-11.263336
1008.890625,-7.371288,-5.533294,-6.309673,-8.085663
1008.894531,-1.549763,0.655240,-4.472271,-1.885415
1008.898438,-4.174933,-0.975358,4.832272,-5.578613
1008.902344,-4.755995,8.223135,4.823774,1.220814
1008.906250,0.129717,5.690984,4.372015,3.434205
1008.910156,-2.150635,4.568116,2.145089,5.024226
1008.914062,10.521155,5.787591,10.335171,6.169243
1008.917969,11.747110,14.443345,9.968482,11.261172
1008.921875,12.612323,7.894243,10.324098,13.006973
1008.925781,10.598062,14.788812,0.945504,7.160986
1008.929688,9.026562,5.770704,9.664895,4.246438
1008.933594,7.750023,4.056299,12.487589,7.746956
1008.937500,8.614360,9.869159,5.544679,8.827482
1008.941406,2.774348,4.099085,2.815030,-0.544622
1008.945312,6.925583,3.351458,5.868501,9.857371
1008.949219,5.240009,-4.135799,2.229825,-3.255696
1008.953125,-9.519470,-2.676378,-2.671590,-2.317038
1008.957031,-8.847771,-12.218853,-15.571889,-4.164644
1008.960938,1.185289,-6.440605,-2.006991,-9.033461
1008.964844,-2.067159,-10.718295,-8.841754,-6.301934
1008.968750,-11.174296,-8.129619,-13.524350,-2.649440
1008.972656,-2.103887,-13.435579,-7.892845,-14.517650
1008.976562,-9.157271,-9.020501,-11.183531,-0.744273
1008.980469,-9.253530,-10.068988,-5.345919,-11.226800
1008.984375,-7.882634,-8.412301,-11.854613,-7.535439
1008.988281,-7.885298,-7.381320,-15.191616,-1.065171
1008.992188,-7.579778,-1.753319,-6.323225,2.759664
1008.996094,-9.476639,3.592496,0.234717,0.360845
1009.000000,4.214157,3.467695,1.915484,-6.147626
1009.003906,1.009341,1.784321,3.768229,1.796870
1009.007812,11.020829,-0.778199,8.591081,0.302712
1009.011719,5.338557,2.083150,6.877670,5.193361
1009.015625,2.072569,8.212917,12.979070,12.177578
1009.019531,10.357118,8.843331,1.529619,7.415626
1009.023438,8.373736,8.193066,5.889122,15.507252
1009.027344,11.723969,14.027557,3.971312,7.154545
1009.031250,6.634007,8.454349,5.698486,12.439419
1009.035156,3.349599,7.945397,7.121858,-3.509740
1009.039062,3.263315,7.202755,6.569400,6.179696
1009.042969,10.528485,5.814543,4.656030,1.496024
1009.046875,0.982249,-4.100391,5.272181,5.665586
1009.050781,-0.244419,2.782213,-0.157505,-3.994200
1009.054688,-4.996731,7.354736,-7.089827,-1.504006
1009.058594,-6.968088,-3.897052,-2.002070,-6.277518
1009.062500,-5.461045,-10.841577,-13.534547,-4.422568
1009.066406,-6.395459,-14.860571,-7.639191,-1.714584
1009.070312,-6.403398,-14.621601,-11.653290,-11.850962
1009.074219,-11.132579,-11.297015,-11.415061,-11.241641
1009.078125,-14.700738,-4.889848,-3.028236,-0.061024
1009.082031,-14.706157,-8.222912,-11.512357,-5.705011
1009.085938,-11.275072,-8.953270,-5.560251,-10.276082
1009.089844,-5.349515,-7.007504,-5.910359,-18.237511
1009.093750,-5.566051,-4.141083,-6.905600,3.197567
1009.097656,-6.058911,-7.530905,-7.100083,-2.750655
1009.101562,-4.863854,0.578385,2.885996,-4.967767
1009.105469,4.768551,2.447129,5.305186,7.297813
1009.109375,2.078341,1.135896,5.767891,8.257069
1009.113281,12.434345,8.634161,9.581422,3.704790
1009.117188,12.388862,7.130389,10.253947,11.033225
1009.121094,7.911533,11.519033,8.474824,6.466020
1009.125000,11.065876,6.349213,15.928421,8.143218
1009.128906,7.660017,13.323986,10.907344,8.888098
1009.132812,12.464310,5.434582,2.290192,4.006336
1009.136719,4.734041,14.596291,11.842051,7.273733
1009.140625,5.755014,3.273355,1.891712,6.171603
1009.144531,0.501597,2.006704,7.807032,0.938885
1009.148438,-1.223962,-0.509165,12.990173,1.630902
1009.152344,1.901407,-2.159181,-7.971720,-1.295604
1009.156250,-2.365351,0.014968,2.700653,-7.531080
1009.160156,2.903415,4.199060,-8.716725,-3.293764
1009.164062,-0.289796,-10.779139,-5.769608,-13.129047
1009.167969,-5.693722,-11.890433,-10.326941,-2.473321
1009.171875,-8.828966,-4.068431,-10.086400,-10.397706
1009.175781,-7.402332,-10.321505,-11.184440,-13.994188
1009.179688,-13.270853,-8.038182,-4.680021,-15.344738
1009.183594,-4.751803,-9.336360,-13.477499,-11.865125
1009.187500,-9.563412,-10.949609,-8.711225,-10.848372
1009.191406,-5.435852,-8.385986,2.193796,7.743536
