timestamp,TP9,AF7,AF8,TP10
1000.000000,1.759392,1.178120,-2.857006,5.997234
1000.003906,-1.620588,-3.476756,11.209757,4.178938
1000.007812,-1.302185,5.108848,0.505778,-0.192069
1000.011719,4.459757,9.295968,5.774075,1.373042
1000.015625,2.793736,4.894173,9.080623,6.935485
1000.019531,16.507215,5.148393,18.359470,9.770475
1000.023438,10.255403,11.667608,3.530156,13.798530
1000.027344,8.161832,7.499861,6.019131,6.879327
1000.031250,8.965135,7.299612,9.139792,8.438044
1000.035156,3.019400,11.540577,4.712705,10.619976
1000.039062,9.150387,10.108133,11.175676,8.261647
1000.042969,4.915615,7.643626,5.582098,5.180567
1000.046875,8.045745,0.600242,-1.450334,1.468473
1000.050781,-2.135480,5.470693,-6.878736,0.457256
1000.054688,-4.338611,-1.378404,-4.468427,-0.859783
1000.058594,-7.303420,-4.053596,-5.400269,-10.115099
1000.062500,-15.681925,-4.863223,-7.789007,-6.304518
1000.066406,-13.233276,-12.105280,-11.928295,2.670560
1000.070312,-7.027132,-3.921663,-5.567444,-6.689049
1000.074219,-10.915455,-10.321719,-15.950962,-13.572108
1000.078125,-14.340533,-13.122254,-6.445542,-10.758092
1000.082031,-11.180912,-8.738084,-6.266606,-12.091188
1000.085938,-0.663841,-6.730962,-12.330877,-8.992583
1000.089844,-6.718147,-7.960219,-2.750728,-7.459041
1000.093750,0.191302,-5.072286,-6.474224,-5.765536
1000.097656,-3.046458,2.526624,-6.696635,4.484784
1000.101562,-2.590357,-0.231298,-6.746430,2.326247
1000.105469,5.807336,5.304909,9.073326,-4.835095
1000.109375,5.470659,4.823861,10.231508,13.223281
1000.113281,12.640867,-2.858065,4.033522,4.783264
1000.117188,4.898981,2.491774,7.957812,5.557377
1000.121094,6.370362,7.343184,7.977226,13.951675
1000.125000,15.219827,7.160738,6.219156,16.623000
1000.128906,16.602241,10.373966,4.375392,6.983268
1000.132812,1.266301,2.189561,7.159095,12.510716
1000.136719,4.543999,4.637195,4.241518,1.183111
1000.140625,11.078839,1.691490,1.718558,6.388885
1000.144531,4.825204,7.624210,5.138213,6.747197
1000.148438,-2.771535,5.081451,7.882820,2.052292
1000.152344,-9.746020,0.723164,-10.775986,2.385738
1000.156250,-2.918295,-11.742741,-0.152381,-7.022379
1000.160156,-13.270515,-1.638621,-3.701630,-14.387305
1000.164062,-12.638940,-5.724644,-6.348449,-7.143614
1000.167969,-9.288468,-7.063900,-5.893629,-10.960535
1000.171875,-9.147377,-9.021117,-10.603429,1.606652
1000.175781,-6.187471,0.469201,-10.226608,-13.218095
1000.179688,-7.614229,-12.301548,-5.869503,-6.455767
1000.183594,-7.092203,-12.903992,-5.638501,-9.430058
1000.187500,-8.810426,-10.607288,-12.052058,-3.806027
1000.191406,-4.929218,-1.875322,-10.519434,0.114573
1000.195312,1.429535,-0.569444,-1.942262,4.114782
1000.199219,-6.376304,-0.020670,2.355226,-0.853130
1000.203125,-1.754010,0.087222,3.700517,-1.269367
1000.207031,1.890898,10.594892,2.734960,-0.272615
1000.210938,3.032668,5.594483,1.628511,9.340825
1000.214844,16.801566,4.289083,-1.706474,7.551497
1000.218750,9.065331,2.725729,7.396249,22.709762
1000.222656,10.518268,7.828173,9.113969,7.095609
1000.226562,7.597590,8.073322,3.264002,8.172312
1000.230469,7.854172,9.857051,15.516547,1.816227
1000.234375,4.681313,3.750066,1.837857,13.231355
1000.238281,5.071265,8.714839,1.352739,11.127198
1000.242188,6.206825,-3.227086,-3.285870,5.764676
1000.246094,2.701693,1.928397,2.283124,-0.597216
1000.250000,3.470168,5.034564,1.843905,-8.342317
1000.253906,-6.041206,-4.880558,-3.001882,0.592839
1000.257812,-2.459954,-2.518245,-3.370665,-5.098968
1000.261719,-11.630527,-5.107085,-8.342180,-2.344017
1000.265625,-7.909760,-8.002599,-2.024010,-10.751857
1000.269531,-10.707023,-12.339745,-6.342860,-10.524431
1000.273438,-17.038518,-6.645032,-11.023481,-6.116319
1000.277344,-7.752207,-8.898279,-15.850398,-6.560642
1000.281250,-7.601649,-9.887816,-21.095538,-13.306438
1000.285156,2.425378,-2.583229,-6.095248,-7.331359
1000.289062,-1.755622,-6.141575,-7.721281,-2.889830
1000.292969,-5.613657,3.796952,-2.047935,-7.097250
1000.296875,-2.027598,-7.616036,-4.740167,1.179881
1000.300781,0.490671,-5.063613,-0.316822,4.673835
1000.304688,6.009458,0.631557,-1.143551,3.296467
1000.308594,2.491205,9.256727,9.314320,6.009219
1000.312500,7.270514,8.714555,15.520450,3.927962
1000.316406,6.854412,11.247094,11.791051,8.737974
1000.320312,8.554964,6.955953,9.099956,6.113584
1000.324219,9.073659,14.186240,13.727704,2.814928
1000.328125,15.337045,8.997978,23.920275,6.342053
1000.332031,6.365394,12.288301,9.787940,6.594542
1000.335938,5.644114,8.369298,6.857861,15.582330
1000.339844,8.557684,1.555830,11.459714,11.099063
1000.343750,1.837172,4.305361,3.727072,1.178822
1000.347656,4.301925,3.936670,3.768686,3.158512
1000.351562,-3.298823,-4.036242,2.330173,-5.906570
1000.355469,-7.322195,2.876214,-1.750928,-1.378383
1000.359375,-0.964348,-6.278177,-8.357979,-13.744170
1000.363281,-13.203609,-2.654336,-4.976026,-4.799019
1000.367188,-14.899574,-3.512802,-5.351446,-4.816981
1000.371094,-6.275435,-7.467375,-4.377870,-7.667608
1000.375000,-12.692080,-10.689267,-8.162866,-19.210457
1000.378906,-9.373788,-11.201040,-14.112744,-15.559696
1000.382812,-1.419755,-10.350901,-7.148599,-6.952399
1000.386719,-10.860230,-20.998308,-3.638878,-12.678572
1000.390625,0.455509,-6.791804,-13.691228,-3.112497
1000.394531,0.453796,-2.445530,-3.441395,0.333597
1000.398438,-4.395031,4.571320,2.873509,0.871189
1000.402344,0.020267,-0.776483,-0.335752,5.078037
1000.406250,6.297835,0.217230,10.462682,5.600852
1000.410156,5.487428,6.069645,8.239803,5.022446
1000.414062,8.809599,10.087453,12.441058,3.085347
1000.417969,12.095000,16.358050,8.611023,9.608382
1000.421875,21.756690,12.606084,6.906974,10.060230
1000.425781,7.965974,8.720964,7.406294,10.868130
1000.429688,4.284193,7.752674,3.212249,4.416977
1000.433594,6.008260,11.305548,4.648321,4.906557
1000.437500,12.010304,7.303190,10.715903,5.279363
1000.441406,-0.525656,4.718320,3.656933,7.429816
1000.445312,6.616022,-0.398768,5.389898,-1.187160
1000.449219,8.265974,-5.984651,-7.739736,-4.715973
1000.453125,-0.597493,-6.499019,-5.932465,-6.289851
1000.457031,-2.569971,5.059553,-5.279483,-7.536079
1000.460938,-4.148720,-6.726411,-7.708193,-8.780822
1000.464844,-12.222659,-14.883251,-12.381737,-6.844597
1000.468750,-9.423150,-8.194937,-8.884097,-10.897914
1000.472656,-6.592005,-0.643252,-6.920921,-4.975212
1000.476562,-8.375696,-8.816298,-3.355676,-13.169521
1000.480469,-9.671802,-21.483575,-7.343804,-3.127519
1000.484375,-10.533187,-11.424322,-2.567300,-5.127660
1000.488281,-4.567191,-4.699203,-10.904788,-10.427820
1000.492188,-12.540115,-6.407448,2.086976,-2.553056
1000.496094,-3.087329,-9.236520,-5.061622,-8.488610
1000.500000,-1.231966,-10.791668,-5.112527,-1.541234
1000.503906,7.120907,2.205599,1.462520,2.329321
1000.507812,5.168228,7.073058,11.113617,0.850901
1000.511719,10.126020,3.146810,3.024109,6.152210
1000.515625,0.334645,14.725276,12.174615,8.216918
1000.519531,-2.382150,5.927398,10.596027,6.780057
1000.523438,14.506976,10.686867,13.394546,9.651951
1000.527344,9.158786,5.221661,8.991682,8.937555
1000.531250,10.141124,5.169660,10.550624,5.378766
1000.535156,11.282797,7.939933,4.026619,10.531145
1000.539062,7.445016,10.454602,8.920314,2.707591
1000.542969,5.731891,2.029339,6.732494,9.406244
1000.546875,2.200753,1.852340,-0.722170,3.156615
1000.550781,4.255255,-2.336722,-6.895719,-8.325407
1000.554688,0.708908,-0.958092,0.869939,-5.582541
1000.558594,-7.540288,1.762055,-6.664156,-5.575246
1000.562500,-3.504040,4.485875,-5.448631,-8.901949
1000.566406,-2.154522,-9.265744,-9.705366,-5.446728
1000.570312,-12.800206,-13.265370,-4.455356,-11.293837
1000.574219,-10.197352,-14.174307,-10.231804,-13.059400
1000.578125,-12.904244,-10.470407,-12.248617,-7.470787
1000.582031,-6.460624,-10.071481,-6.663149,-5.436605
1000.585938,-12.582268,-13.257097,-12.984004,-7.662357
1000.589844,-8.222116,-5.136497,-3.451823,-13.457927
1000.593750,-5.980718,-4.235915,-2.216525,-0.478072
1000.597656,-1.195578,-5.619028,-0.964108,-4.489610
1000.601562,-4.609194,0.378703,1.840670,9.359561
1000.605469,6.148801,-3.954143,3.456106,3.036198
1000.609375,6.635134,8.196993,10.427969,8.911020
1000.613281,3.736614,16.593654,10.985077,6.151458
1000.617188,4.356898,6.357625,3.642622,10.531050
1000.621094,14.756383,4.520589,14.169553,15.491844
1000.625000,13.620240,14.706270,12.157253,8.290772
1000.628906,6.465034,7.930142,9.235441,13.006106
1000.632812,14.234817,10.856626,5.788117,8.610942
1000.636719,10.069042,4.618414,10.469115,4.018776
1000.640625,12.127215,6.018746,5.074417,3.067943
1000.644531,5.171955,7.921366,1.852585,0.779295
1000.648438,0.242871,0.755830,-3.572934,1.399491
1000.652344,-3.957729,-7.054065,-2.263508,-5.361936
1000.656250,-1.461507,-0.644056,-4.978610,-8.071831
1000.660156,-2.473639,-1.831236,-9.040555,-6.585857
1000.664062,-4.904812,-9.996600,-8.108943,-3.809991
1000.667969,-11.838589,-2.944383,-3.443787,-11.975312
1000.671875,-11.080314,-13.250651,-1.968618,-9.125988
1000.675781,-10.810592,-12.764721,-12.457351,-12.717733
1000.679688,-7.938516,-16.339212,-9.537086,-13.701380
1000.683594,-5.791859,-6.367866,-6.166255,-10.919566
1000.687500,-14.725898,-6.115718,-10.291700,-7.159550
1000.691406,-3.691626,-7.614910,-13.626059,-10.576691
1000.695312,2.959079,0.466148,-5.855450,4.676047
1000.699219,3.202358,-0.758062,0.562128,-0.106194
1000.703125,-0.101639,-3.184968,1.364233,-0.545858
1000.707031,6.526976,2.929379,-3.149613,8.344222
1000.710938,1.724823,10.684620,6.618045,5.313930
1000.714844,9.531196,4.863819,2.938701,10.477332
1000.718750,7.159526,7.159571,6.973950,13.231625
1000.722656,2.829140,4.515736,13.528808,15.943046
1000.726562,7.641396,15.453281,2.441678,8.305962
1000.730469,2.505081,10.458827,8.173702,5.066880
1000.734375,6.072824,11.128933,8.196511,7.328729
1000.738281,6.427554,9.234745,4.711987,4.993772
1000.742188,8.259731,10.294312,5.175035,6.278369
1000.746094,9.083058,0.766916,-0.785348,-1.369281
1000.750000,7.624676,-0.775257,-2.092169,-5.298938
1000.753906,2.114618,-4.491303,-2.466037,-3.957916
1000.757812,-9.397993,-2.714057,-5.343537,-1.218194
1000.761719,-2.972544,-12.537744,-6.541108,-9.025327
1000.765625,-5.392735,-14.805806,-1.017514,-7.955900
1000.769531,-13.780866,-6.201115,-2.478746,-4.553325
1000.773438,-9.668323,-8.398090,-12.518793,-14.650986
1000.777344,-13.693188,-4.387156,-4.867977,-12.471031
1000.781250,-6.204531,-7.410218,-12.012424,-11.946891
1000.785156,-9.634252,-6.984826,-3.132726,-3.450970
1000.789062,-6.586072,-0.525663,-4.300286,-12.314173
1000.792969,2.811129,-5.376732,-6.974177,-7.241510
1000.796875,-7.393612,-2.589020,-7.004369,0.441815
1000.800781,1.916037,-2.412122,-0.725326,4.804537
1000.804688,8.525056,7.605862,5.124579,5.275160
1000.808594,2.986263,5.200314,9.275743,4.392568
1000.812500,4.591315,9.350437,8.485750,1.745668
1000.816406,2.374628,10.446845,15.089124,-0.554223
1000.820312,10.006977,9.611313,7.449105,4.224923
1000.824219,9.763551,10.444206,9.809404,12.707259
1000.828125,5.213179,7.739471,15.948229,1.180538
1000.832031,15.803167,9.010513,4.016001,12.700326
1000.835938,-3.645219,14.983319,9.616166,9.618432
1000.839844,-2.208625,-0.425510,6.710585,5.377675
1000.843750,2.256149,-0.971254,3.298062,-3.820184
1000.847656,2.588854,-2.915580,-0.200593,5.332189
1000.851562,-5.908971,-2.475852,-3.368426,-1.221094
1000.855469,-2.925235,-10.996317,-4.442841,-6.338588
1000.859375,-5.985766,-2.959593,-12.618222,-5.963586
1000.863281,1.136083,-10.723705,-9.046101,-2.624929
1000.867188,-10.042754,-4.406231,-2.246861,-6.821714
1000.871094,-2.958758,-13.353855,-13.373706,-12.783970
1000.875000,-16.772851,-11.750446,-9.805572,-12.153234
1000.878906,-9.125679,-9.985257,-17.120035,-7.382349
1000.882812,-9.985338,-12.087732,-11.606138,-6.571621
1000.886719,-4.550979,-14.852126,-9.254535,-5.862038
1000.890625,-13.372882,-4.152852,-9.351087,-4.243707
1000.894531,-1.632868,-6.999125,-5.540069,-4.199288
1000.898438,4.587572,-2.644051,-1.388384,-1.727185
1000.902344,4.039561,2.447048,3.625982,-6.622657
1000.906250,-0.637988,3.483966,3.971689,0.554750
1000.910156,2.307969,4.546497,1.987861,7.368673
1000.914062,10.197567,2.645507,8.875425,5.008240
1000.917969,10.619139,8.967080,-5.796512,10.159797
1000.921875,9.714499,-0.320202,11.323183,6.967941
1000.925781,8.875580,10.380811,6.590430,-0.000427
1000.929688,8.922471,5.883028,5.062417,9.767698
1000.933594,13.655914,7.653262,10.105990,7.289173
1000.937500,7.210885,10.577117,4.296961,0.983113
1000.941406,8.452196,9.955994,7.264872,0.685230
1000.945312,6.521784,5.511886,2.005020,7.486331
1000.949219,5.277515,3.943122,-3.640287,-1.934107
1000.953125,-1.638817,-0.401194,2.974342,-8.964183
1000.957031,0.956865,-12.457994,-11.087907,-13.384011
1000.960938,-17.357009,-5.042419,-8.121590,-0.566376
1000.964844,-12.207663,-7.527336,-5.328431,-9.146776
1000.968750,-9.907921,-8.421288,-11.201663,-13.858551
1000.972656,-7.360606,-10.121060,-0.184604,-14.446732
1000.976562,-3.373417,-14.842494,-11.535020,-9.309387
1000.980469,-10.333245,-10.805125,-6.173029,-9.551224
1000.984375,-9.048726,-13.229805,-14.684518,-5.286733
1000.988281,-4.494836,1.864944,-10.366385,-0.275306
1000.992188,-6.866766,-7.564171,-7.044740,-5.119511
1000.996094,-5.888850,-1.904837,-6.735117,-1.173242
1001.000000,1.199604,2.263596,-1.475774,5.799519
1001.003906,7.904210,-1.452663,4.125391,-4.250525
1001.007812,2.687271,-0.259358,7.588494,2.802249
1001.011719,3.854782,6.127126,5.187777,10.018811
1001.015625,0.483964,-0.146733,7.702272,9.257524
1001.019531,7.425794,5.378594,6.421921,10.811019
1001.023438,12.893183,11.481458,3.809836,8.535610
1001.027344,11.681029,11.484189,16.161338,12.996281
1001.031250,8.658379,11.057240,8.035265,10.545650
1001.035156,-2.249465,11.419480,10.897628,11.514233
1001.039062,7.930340,10.404155,9.776390,6.744839
1001.042969,0.398716,4.430679,-0.234009,5.119010
1001.046875,2.787077,-0.124447,-2.865640,-3.421080
1001.050781,-3.027794,-3.845572,1.543013,2.419512
1001.054688,-0.787004,-3.154741,-9.598503,-0.823711
1001.058594,-11.363715,-5.180125,-10.518867,-4.492544
1001.062500,-5.714341,-8.009239,-5.957953,4.267915
1001.066406,-8.645395,-7.836243,-13.028486,-4.667650
1001.070312,-17.918569,-0.547456,-6.641265,-9.985379
1001.074219,-3.772017,-5.884549,-16.206546,-15.615511
1001.078125,-6.515025,-8.140140,-12.587004,-13.283845
1001.082031,-1.523220,-9.675248,-13.196154,-6.779925
1001.085938,2.939683,-14.307231,3.727688,-11.000618
1001.089844,-9.559430,-7.606745,-4.288037,-6.343806
1001.093750,-10.354808,-5.535239,-7.644745,-0.264321
1001.097656,-2.721582,-5.400560,-1.902537,0.826262
1001.101562,1.640732,2.111506,6.680132,-1.127882
1001.105469,2.429848,10.929950,0.915872,6.047548
1001.109375,3.504506,8.724804,10.078792,10.634138
1001.113281,5.170867,4.005825,11.638671,8.377969
1001.117188,8.019321,13.544892,9.608968,17.241221
1001.121094,9.171532,15.232219,10.865871,9.448870
1001.125000,10.844033,15.423734,6.059400,12.475126
1001.128906,11.327974,15.382241,10.710374,11.952860
1001.132812,4.281692,8.511116,8.770515,6.880572
1001.136719,4.892965,6.484813,3.558189,4.196542
1001.140625,5.579208,11.213906,4.863671,13.164729
1001.144531,10.323229,3.366670,8.200379,3.055639
1001.148438,-2.196251,3.471332,0.272624,-9.990426
1001.152344,-3.647659,-3.404220,2.919190,3.338152
1001.156250,-9.665041,-4.952473,-11.797968,-6.346786
1001.160156,-5.783338,-1.710562,-6.953567,-2.133964
1001.164062,-11.249496,-12.206447,1.337666,-10.893761
1001.167969,-6.578550,-10.078725,-9.144454,-11.909730
1001.171875,-12.806503,-7.685324,-10.814168,-6.601143
1001.175781,-10.087491,-8.664301,-14.173251,-15.313680
1001.179688,0.068510,-3.637433,-3.744693,-6.321973
1001.183594,-7.792794,2.797353,-12.181868,-6.347232
1001.187500,-2.843814,-3.219003,-9.209255,-9.660112
1001.191406,-5.196867,-8.509631,-12.609727,-2.107956
1001.195312,-6.119984,-5.130535,-6.039906,0.649963
1001.199219,1.153014,5.668066,-0.122876,3.374192
1001.203125,1.943597,1.933990,-5.440911,-0.591098
1001.207031,0.159629,-1.495658,10.636291,7.087102
1001.210938,4.246830,2.485710,8.247189,16.738515
1001.214844,5.945050,0.632532,13.977434,12.235321
1001.218750,3.550002,6.034748,8.727015,9.790053
1001.222656,14.062578,10.929683,9.919609,8.294875
1001.226562,7.276119,2.481210,10.374503,10.506200
1001.230469,8.245100,4.880577,6.371672,7.205598
1001.234375,9.749058,11.736917,14.077794,2.264478
1001.238281,2.064529,2.559763,2.049299,5.217680
1001.242188,4.182415,4.238496,13.965147,8.374302
1001.246094,1.896751,-1.244473,3.053806,-1.247834
1001.250000,1.836598,2.387722,-0.537036,-7.167298
1001.253906,-6.527283,-8.052739,-0.533945,4.625138
1001.257812,-0.152990,0.843334,-1.766180,-7.854619
1001.261719,-0.722001,-13.039238,-8.423824,-7.095293
1001.265625,-8.345667,-6.347666,-7.503446,-7.504710
1001.269531,-11.689491,-8.351448,-7.125224,-6.412024
1001.273438,-9.403781,-11.279560,-6.903917,-6.069742
1001.277344,-6.678875,-11.458968,-9.544062,-12.915998
1001.281250,-6.157149,-10.446184,-10.328187,-5.129288
1001.285156,-13.184051,-10.086490,-9.895857,-3.050988
1001.289062,-11.775970,-3.602794,-11.668360,-5.983909
1001.292969,-1.724769,-5.701609,-8.881546,-7.319872
1001.296875,-8.220043,1.264759,-0.910185,-7.584634
1001.300781,-0.633058,-2.346590,2.799015,-5.050296
1001.304688,4.610802,-3.366362,2.861357,5.487488
1001.308594,2.158193,8.587225,5.816910,-0.053343
1001.312500,8.436053,10.371752,12.484997,18.182538
1001.316406,8.553603,3.745779,6.735300,9.330693
1001.320312,15.256402,23.076432,12.273882,8.735180
1001.324219,9.632514,13.941960,10.966576,8.368197
1001.328125,6.583567,10.449032,5.540792,7.610266
1001.332031,4.910572,15.034645,9.498063,2.073964
1001.335938,6.215226,6.783044,6.481221,12.025483
1001.339844,1.597033,12.929566,9.647929,-0.666871
1001.343750,5.260684,6.461324,4.522448,-4.259707
1001.347656,0.021185,0.538052,0.076498,-2.383336
1001.351562,1.390782,-0.930236,3.485663,-7.140296
1001.355469,-4.096874,-6.576239,-1.616916,-5.113949
1001.359375,5.227292,-8.600647,-3.001408,-6.928704
1001.363281,-12.383493,-11.345176,-8.978119,-12.915646
1001.367188,-1.935951,-14.251546,-11.300499,-6.638422
1001.371094,-7.992927,-12.821263,-11.440398,-6.033682
1001.375000,-16.599773,-10.825572,-8.694953,-9.687333
1001.378906,-18.680011,-9.028300,-13.878878,-7.556152
1001.382812,-5.554955,-1.625537,-9.518841,-4.064547
1001.386719,-7.780704,-14.003483,-3.560182,-12.244587
1001.390625,-3.859378,-11.344578,-13.660001,-8.716331
1001.394531,3.920793,-4.457774,-1.478676,-5.666527
1001.398438,5.659175,-0.779472,-3.205520,1.343557
1001.402344,0.073114,3.694626,3.422414,-1.513730
1001.406250,6.634111,-3.085417,0.228906,1.162635
1001.410156,5.410506,4.226306,6.233281,5.111169
1001.414062,5.983288,5.500690,15.144776,7.072955
1001.417969,15.280870,17.984581,12.086640,12.967816
1001.421875,13.117389,7.666648,10.052258,4.908907
1001.425781,10.167585,11.128635,10.876422,6.092877
1001.429688,9.317008,7.784954,7.072149,9.961753
1001.433594,11.301613,8.422353,11.965693,8.266923
1001.437500,3.903643,4.294748,2.757837,9.882958
1001.441406,4.860022,5.944468,7.469605,8.057968
1001.445312,3.244373,-0.286645,2.402679,-1.438811
1001.449219,-3.472689,3.139516,-4.558268,-4.873296
1001.453125,-0.111731,-0.789260,-0.757977,-5.108638
1001.457031,-8.852387,-12.335664,-3.422038,-15.199158
1001.460938,-9.552405,-11.603756,-6.774921,1.913232
1001.464844,-10.556886,-14.919116,-5.239571,-9.515638
1001.468750,-3.473832,-7.902146,-9.848784,-13.733604
1001.472656,-8.081559,-18.522587,-13.418754,-6.055239
1001.476562,-10.245452,-10.634916,-16.731928,-1.201124
1001.480469,-5.972989,-6.783500,-13.205880,-15.907060
1001.484375,-8.886877,-10.951047,-9.067132,-4.795260
1001.488281,-7.063481,-4.501054,-5.980107,-7.887059
1001.492188,-2.537621,-1.706018,-6.848666,-4.878823
1001.496094,-1.552873,3.857918,-0.891743,-5.859020
1001.500000,3.191997,7.692371,11.499421,-1.889097
1001.503906,6.593549,5.606813,-1.844399,6.988857
1001.507812,6.689915,4.336015,3.698662,7.808370
1001.511719,3.241515,4.877573,9.351713,5.110001
1001.515625,10.323262,6.126423,11.805444,12.889689
1001.519531,2.203780,8.800099,11.249409,2.987893
1001.523438,12.077867,11.689670,14.919149,3.945643
1001.527344,12.639684,8.889847,9.087077,9.981995
1001.531250,11.827690,9.210339,15.780133,9.008105
1001.535156,14.099237,3.476888,15.078976,10.012476
1001.539062,4.234025,-1.005509,1.454354,12.942004
1001.542969,0.761546,4.047141,-0.276783,8.577318
1001.546875,-0.443364,3.851114,4.257374,7.268294
1001.550781,4.790771,2.776220,-6.330080,3.089537
1001.554688,-2.784225,-1.128161,-6.780638,-0.267751
1001.558594,-8.960753,2.482325,-3.766249,-3.058783
1001.562500,-4.450163,-10.838046,-2.321011,-11.868439
1001.566406,-15.543537,-15.025262,-2.941600,0.659513
1001.570312,-6.512050,-9.902022,-11.337595,-8.317756
1001.574219,-6.070361,-4.230200,-10.907287,-5.745683
1001.578125,-8.997930,-2.198831,-6.336306,-13.039086
1001.582031,-8.941825,-8.288790,-2.836230,-6.472867
1001.585938,-9.522917,-8.568817,-10.292717,-9.358946
1001.589844,-6.564834,-3.041162,-7.906446,-8.018351
1001.593750,-2.753369,-8.318904,-1.710312,-5.161579
1001.597656,-3.378199,0.404869,-3.004803,-1.425833
1001.601562,4.448700,1.130070,-1.340701,-0.563444
1001.605469,-0.340270,2.641118,3.921747,2.948346
1001.609375,11.322357,7.963613,4.033461,7.384951
1001.613281,11.672294,9.204404,6.205905,6.491313
1001.617188,15.138172,5.974680,12.589434,8.444452
1001.621094,15.935792,14.909121,6.627462,3.168106
1001.625000,8.148444,9.715721,11.922615,8.813648
1001.628906,5.524235,15.396927,10.855680,11.451205
1001.632812,12.491856,0.301081,8.200419,10.992896
1001.636719,3.834238,7.466347,9.000061,3.710240
1001.640625,2.968669,5.599493,7.696482,2.663036
1001.644531,6.336803,5.292910,3.947072,3.121594
1001.648438,-2.927902,0.644864,-2.746540,2.259616
1001.652344,-3.244167,1.422242,-7.456727,-2.253059
1001.656250,-5.787238,-6.258818,-1.930376,-6.012098
1001.660156,-3.000654,-12.862933,-6.960174,-3.475807
1001.664062,-6.889756,-7.733383,-7.757839,-3.290965
1001.667969,-9.693110,-7.886800,-10.289010,-8.396691
1001.671875,-7.733286,-10.413786,-9.676870,-10.047922
1001.675781,-10.555739,-13.002158,-18.717028,-5.432541
1001.679688,-5.453851,-11.742809,-8.712275,-12.655588
1001.683594,-4.224501,-9.285913,-5.098107,-9.788723
1001.687500,-3.747972,-2.267916,-3.627391,-13.414122
1001.691406,-10.627556,-5.041977,-1.641246,-2.339872
1001.695312,-4.163615,-3.953139,1.647983,5.407407
1001.699219,-0.759996,6.316957,-1.190488,1.276178
1001.703125,1.527428,5.295914,5.249334,0.453224
1001.707031,7.660689,1.427299,5.311476,5.501589
1001.710938,7.309397,5.579370,1.378486,0.333944
1001.714844,10.066707,5.336958,11.245775,10.054986
1001.718750,5.698794,10.436482,7.334089,5.812956
1001.722656,6.071175,7.079223,8.909167,12.708469
1001.726562,15.125644,18.596047,10.648221,14.259911
1001.730469,7.511725,13.068231,11.660580,7.085842
1001.734375,17.826872,5.476301,7.341754,16.036585
1001.738281,7.841448,5.003306,6.310833,5.205395
1001.742188,6.716040,11.775406,11.946181,0.862771
1001.746094,2.641762,-0.535520,-1.554487,-3.031158
1001.750000,-3.898711,6.959288,-4.711206,4.654975
1001.753906,0.874851,-6.757309,-2.210150,2.067316
1001.757812,-6.060632,-5.493236,-4.794192,-7.984473
1001.761719,-7.178531,-0.568000,-3.714415,-0.041723
1001.765625,-4.292565,-10.532561,-5.497791,-10.507587
1001.769531,-13.507967,-0.778554,-9.254855,-8.637054
1001.773438,-20.199170,-9.135690,-9.755834,-6.902057
1001.777344,-6.726219,-2.748224,-4.311691,-4.438118
1001.781250,-12.416952,-6.724670,-12.379621,-17.975237
1001.785156,-14.216374,-6.047231,-4.135831,-13.754456
1001.789062,-2.056894,-14.691585,0.205349,-7.208045
1001.792969,-10.638926,-8.519797,-10.799852,-8.536819
1001.796875,1.521526,-5.794517,-3.553827,-3.383193
1001.800781,-4.682372,-0.968801,-1.378991,9.321911
1001.804688,6.821483,1.127558,3.548925,8.694154
1001.808594,8.802514,-5.187160,3.560066,9.219136
1001.812500,5.642686,2.362196,5.091104,13.115142
1001.816406,8.035919,9.605373,4.182518,7.452889
1001.820312,7.440661,10.737644,10.188768,9.889360
1001.824219,11.364759,10.369855,10.343180,6.401105
1001.828125,12.212242,7.803809,13.091219,6.640232
1001.832031,13.487216,13.893192,-1.825686,10.128768
1001.835938,3.078504,16.588558,10.365688,13.108939
1001.839844,0.317776,4.721537,11.048670,5.079697
1001.843750,7.054117,5.630566,9.861350,-2.957246
1001.847656,3.689338,-5.388151,4.419009,-0.697064
1001.851562,-1.713643,7.676272,-1.988810,-1.412111
1001.855469,5.187772,-7.613557,-2.966615,-2.501019
1001.859375,-9.051421,-3.639016,-5.228122,-8.590142
1001.863281,-5.555908,-5.439856,-5.669328,-13.676722
1001.867188,-4.252139,-11.065052,-11.294538,-7.958896
1001.871094,-7.097963,-10.884429,-10.720576,-7.835436
1001.875000,-6.283818,-8.417478,-4.757364,-11.437602
1001.878906,-9.672407,-4.968356,-12.436107,-4.528658
1001.882812,-7.425649,-12.784054,-14.187322,-8.881124
1001.886719,-12.570030,-11.926766,-2.688432,-7.066917
1001.890625,-10.013380,-2.617632,-0.443190,-2.925701
1001.894531,-8.370696,-5.173756,-3.691711,-3.574218
1001.898438,-0.735210,-8.035460,0.898118,4.181246
1001.902344,12.257101,4.022458,0.865300,-2.166344
1001.906250,-0.424626,9.340689,2.511724,7.673855
1001.910156,-0.359987,7.403437,9.012634,7.808073
1001.914062,2.365431,4.540422,7.996965,4.888280
1001.917969,1.906113,5.878156,7.061323,5.030476
1001.921875,11.280769,14.212881,9.152693,10.748135
1001.925781,5.562466,4.636647,7.206787,14.741664
1001.929688,8.473251,16.045235,16.048786,11.495172
1001.933594,5.326964,0.406135,3.024743,9.739148
1001.937500,-2.644878,8.090841,8.668301,2.265168
1001.941406,9.753557,-0.191741,6.183003,-0.299294
1001.945312,3.711645,9.725976,5.200901,6.627941
1001.949219,7.179361,2.914769,6.177594,-2.238549
1001.953125,-1.938891,-6.959205,0.865084,-2.024098
1001.957031,-5.389804,-4.730621,1.330644,-7.886784
1001.960938,-2.122200,-2.073885,-9.837760,-7.266918
1001.964844,-7.130552,-10.427981,-14.077733,-13.298115
1001.968750,-6.970542,-7.913110,-9.547898,-5.085559
1001.972656,-8.066399,-14.622175,-9.888851,-11.035662
1001.976562,-13.349298,-5.983809,-2.832418,-4.092333
1001.980469,-15.345219,-10.704324,-8.550437,-12.370046
1001.984375,-4.451902,-11.701402,-8.011208,-9.690112
1001.988281,-11.112291,-6.473565,-9.872180,-8.558064
1001.992188,-0.975441,-6.973465,-3.168499,-5.732998
1001.996094,-3.264852,0.950570,-0.797330,0.223430
1002.000000,-8.658586,1.285192,1.618968,-3.592416
1002.003906,3.911782,-4.115113,4.173348,2.103119
1002.007812,2.073719,0.752054,4.119599,4.863185
1002.011719,11.994874,1.363243,2.511517,5.921185
1002.015625,7.920792,8.414924,15.125841,4.967577
1002.019531,15.074081,14.184961,15.979799,5.165108
1002.023438,9.768075,8.000523,7.434131,10.130875
1002.027344,11.681879,5.309196,4.918018,16.387934
1002.031250,5.825314,9.519795,6.743074,9.751892
1002.035156,1.772743,5.186337,9.666125,7.826956
1002.039062,5.102311,7.603290,6.990209,8.736333
1002.042969,-1.601780,2.089895,5.758179,9.876415
1002.046875,-5.045451,-3.456533,1.986837,2.214347
1002.050781,-5.199995,0.858036,-2.330551,-8.642755
1002.054688,-0.217128,-4.713056,-5.222719,-7.701099
1002.058594,-10.440728,-9.480978,-9.663719,-7.265931
1002.062500,-7.228121,-7.997918,-2.862606,-3.083068
1002.066406,-12.199906,-8.885983,-9.373696,-9.715991
1002.070312,-10.880211,-4.354528,-6.903343,-1.204345
1002.074219,-4.186991,-12.754388,-11.303046,-10.877283
1002.078125,-13.278226,-11.218590,-14.018621,-1.955407
1002.082031,-16.855520,-10.283332,-5.192016,-0.367147
1002.085938,-7.292005,2.085243,-9.217200,-13.676025
1002.089844,-7.018056,-5.385012,0.121841,-3.504032
1002.093750,-5.718045,-4.820915,-4.302667,-9.663835
1002.097656,-10.579604,2.420109,-2.133455,4.672528
1002.101562,4.079178,-2.286149,1.106682,0.194919
1002.105469,1.649024,8.793966,6.430434,4.607320
1002.109375,7.335188,-0.489984,2.519258,2.965983
1002.113281,3.422729,14.400646,-0.308373,10.121041
1002.117188,11.857353,6.227447,9.029572,6.219258
1002.121094,9.045546,5.534140,13.859160,7.623108
1002.125000,21.029465,3.249231,10.860621,8.129555
1002.128906,14.721488,4.791342,11.700019,10.809952
1002.132812,9.805519,8.599665,10.128320,2.233789
1002.136719,7.728495,4.963703,7.991915,10.394228
1002.140625,0.759958,6.679287,9.478055,10.549113
1002.144531,7.645820,6.202566,3.009903,8.292958
1002.148438,-0.528803,5.281591,1.175528,2.186972
1002.152344,-1.443533,-3.040222,-2.981749,0.427345
1002.156250,-6.343980,-6.946018,-0.290202,-4.754515
1002.160156,3.173319,-11.306743,-14.115660,-4.829551
1002.164062,-9.050369,-5.632952,-6.902000,-2.478154
1002.167969,-16.604897,-7.789513,-11.236434,-14.972457
1002.171875,-14.147790,-13.824192,-9.962287,-6.313404
1002.175781,-7.981751,-7.336014,-11.291723,-9.464280
1002.179688,-10.861292,-8.106921,-8.259515,-7.491758
1002.183594,-2.916711,-1.434860,-3.160073,-5.423428
1002.187500,-11.467805,-5.781016,-9.397811,-10.798723
1002.191406,-8.137256,0.463571,-1.886462,-5.069332
1002.195312,2.038552,-5.726658,-3.994867,-1.637242
1002.199219,3.685897,-1.429628,2.629708,1.382465
1002.203125,8.678903,3.919984,1.980615,5.229593
1002.207031,6.382428,8.680477,6.266337,1.211774
1002.210938,9.923621,-0.373972,3.830160,-1.862467
1002.214844,15.090898,7.671660,13.273493,13.543813
1002.218750,5.559645,6.054843,6.649103,7.442633
1002.222656,4.436466,12.296898,10.574863,12.102948
1002.226562,12.694556,8.179486,12.102378,8.268475
1002.230469,0.457123,10.084506,15.039834,6.168746
1002.234375,9.681184,5.894483,8.124340,5.934769
1002.238281,9.230271,8.177931,2.987374,9.167311
1002.242188,4.370029,-3.366096,3.386796,4.162536
1002.246094,3.095153,2.646983,4.393725,7.704553
1002.250000,-6.972311,1.538792,-1.262115,4.733957
1002.253906,-9.755362,-4.524622,-2.314350,-4.223661
1002.257812,-9.736318,-8.194099,-1.906501,-5.200748
1002.261719,-0.187475,-1.639341,-7.226316,-1.508742
1002.265625,-12.762969,-10.466616,-3.675484,-12.190623
1002.269531,-8.891886,-7.592113,-12.777256,-6.255206
1002.273438,-8.422417,-5.174304,-10.386472,-11.593712
1002.277344,-7.888679,-6.391467,-8.033308,-4.191526
1002.281250,-12.816451,-8.201271,-5.425391,1.389806
1002.285156,-5.029177,-3.043169,-10.173692,-14.344026
1002.289062,-0.765530,-2.565675,-9.992816,1.552069
1002.292969,1.095266,-1.438289,-5.038763,-5.461944
1002.296875,-3.613888,9.096191,-3.608693,-1.393363
1002.300781,1.495451,-0.066312,1.544348,-2.257009
1002.304688,5.459059,1.483429,-5.347426,7.470232
1002.308594,5.625953,1.638660,4.586966,7.945802
1002.312500,4.597247,5.248332,3.772042,7.465000
1002.316406,2.292762,9.328440,-0.452055,15.255894
1002.320312,5.869662,15.839691,8.954293,6.335527
1002.324219,8.760579,7.236893,6.433293,13.328302
1002.328125,9.964634,7.360793,6.969430,13.441206
1002.332031,2.653099,5.435430,10.763747,9.922586
1002.335938,7.955339,3.146022,1.390370,8.316539
1002.339844,3.906306,7.525098,10.867740,0.984388
1002.343750,4.521815,10.623648,0.019201,0.568346
1002.347656,3.340472,-0.735745,7.681593,-5.161865
1002.351562,0.255965,0.578998,3.465039,2.593222
1002.355469,-11.127874,-7.708245,-1.554060,-5.039971
1002.359375,-2.113823,-4.039145,-8.053814,-7.891724
1002.363281,1.303743,-9.597243,-6.367292,-7.630251
1002.367188,-10.444303,-8.947713,-3.704151,-19.459708
1002.371094,-7.661840,-7.809606,-11.776605,-5.051780
1002.375000,-6.629186,-6.486613,-9.570913,-8.795214
1002.378906,-13.565608,-7.372187,-10.450013,-11.050336
1002.382812,-8.519796,0.563287,-7.794459,-6.986383
1002.386719,-6.421531,-2.371683,-10.785543,-0.759973
1002.390625,-5.505986,-8.057639,-4.542138,-3.645643
1002.394531,-9.059813,1.943988,-3.859724,-6.169851
1002.398438,6.949224,1.738379,2.221004,-4.104588
1002.402344,5.095969,0.665055,-7.835294,4.153276
1002.406250,3.910169,-0.770994,4.973408,-0.358419
1002.410156,9.191830,4.305589,5.614384,10.561604
1002.414062,4.763656,4.598764,9.054890,13.239128
1002.417969,11.486475,9.373619,9.976781,8.316971
1002.421875,8.777867,5.743599,6.418567,1.892823
1002.425781,4.948232,9.304722,16.402560,9.491373
1002.429688,11.639615,1.155365,6.698419,5.623596
1002.433594,17.742780,4.472042,6.337834,10.493380
1002.437500,5.994163,7.394948,3.226476,2.427679
1002.441406,3.618349,6.178049,-1.988379,-0.474731
1002.445312,6.251974,5.624237,0.122831,8.628694
1002.449219,1.069776,0.516083,-1.030760,4.395099
1002.453125,-3.433947,-3.770691,-0.960079,3.131245
1002.457031,-1.760938,-5.829725,-3.838469,-6.706570
1002.460938,-6.542409,-9.166949,-1.362982,-4.396576
1002.464844,-9.995526,-10.320258,-10.303528,-6.695717
1002.468750,-6.380699,-11.901626,-5.107366,-7.850393
1002.472656,-11.715048,-14.018642,-10.060015,-12.909144
1002.476562,-11.267020,-5.129858,-7.390581,-5.851034
1002.480469,-10.265298,-10.995595,-7.516885,-12.928008
1002.484375,-10.141997,-9.494615,-2.471009,-6.227971
1002.488281,-5.613302,-10.499240,-10.413484,-7.648178
1002.492188,-1.740994,-7.849607,-3.185163,1.052683
1002.496094,0.138434,2.804094,-8.002639,-11.549382
1002.500000,3.014728,2.560790,-1.566872,2.039354
1002.503906,-1.679943,3.670491,-3.316799,-1.666307
1002.507812,2.444025,1.483271,3.739915,-3.957123
1002.511719,0.741591,2.042680,9.050224,4.828893
1002.515625,13.689720,1.861088,4.985047,10.373237
1002.519531,11.232573,7.863049,5.819096,7.591471
1002.523438,7.180497,7.801337,11.104558,5.543210
1002.527344,0.322087,16.020339,14.785503,11.257061
1002.531250,6.864703,0.251435,7.064721,6.469648
1002.535156,7.505840,4.658669,16.353279,6.865520
1002.539062,12.438863,15.985334,1.360707,6.771697
1002.542969,10.817515,7.855062,9.241667,2.503252
1002.546875,4.570290,-4.235193,2.239571,1.316729
1002.550781,-0.708186,1.517240,5.814958,-5.141468
1002.554688,-8.319292,0.182676,-2.297281,-2.122882
1002.558594,-8.536220,-10.059390,-7.652854,-4.235025
1002.562500,-6.787721,-4.002908,-6.905513,-3.836638
1002.566406,-7.379801,-14.556794,-11.802518,-11.704245
1002.570312,-0.830315,-4.273848,-8.468643,-9.038538
1002.574219,-12.311873,-14.531938,-4.678433,-8.493889
1002.578125,-11.048963,-7.235557,-12.542941,-12.100477
1002.582031,-6.552047,-4.215818,-4.916526,-13.044349
1002.585938,-6.167079,-6.674836,-13.720913,-9.419696
1002.589844,-4.806688,-1.381758,-3.502391,-7.957116
1002.593750,-4.093546,-3.405132,3.753790,-2.334483
1002.597656,-1.330709,-4.235599,-0.788903,-1.219025
1002.601562,-1.542720,1.160965,-5.175432,-3.783899
1002.605469,10.506436,0.841943,-3.121806,0.717084
1002.609375,1.869277,3.043203,4.526846,2.528398
1002.613281,8.694619,10.444086,8.110179,10.322746
1002.617188,7.490427,4.916377,4.019721,14.346322
1002.621094,10.760172,11.513490,9.555134,7.181553
1002.625000,6.206379,12.504542,10.667630,12.404362
1002.628906,7.928384,7.687818,13.332447,5.988616
1002.632812,10.734725,8.983218,7.974382,14.619627
1002.636719,5.643616,7.692605,7.750179,4.618865
1002.640625,4.869466,8.359977,10.413473,0.777259
1002.644531,-0.491137,3.453772,2.207991,-0.088913
1002.648438,2.247323,-1.538020,4.610719,-2.445314
1002.652344,8.430933,-0.118187,4.022141,1.217627
1002.656250,-0.533286,-3.657301,-3.258190,-1.482577
1002.660156,-9.644341,-5.758417,-1.880365,-5.068244
1002.664062,-2.935672,-11.180612,-5.581155,-6.644654
1002.667969,-11.216921,-11.451350,-11.117792,-5.772823
1002.671875,-10.468221,-8.772956,-8.932667,-9.496328
1002.675781,-3.211709,-14.212153,-2.099148,-7.976524
1002.679688,-9.855377,-12.019162,-11.758917,-10.757206
1002.683594,-5.068845,-4.632894,-5.867877,-6.273392
1002.687500,-2.019998,-5.766199,-13.371814,-8.009688
1002.691406,-4.283351,-3.237709,-5.618815,-6.468755
1002.695312,0.918522,-5.051770,-7.062816,-10.973553
1002.699219,-4.644963,0.193496,-1.359890,0.974908
1002.703125,6.986166,6.310566,-1.499862,11.882403
1002.707031,0.055023,2.514005,14.065572,4.875027
1002.710938,9.957823,6.639223,4.279526,5.151041
1002.714844,9.072105,5.913107,8.981772,8.707601
1002.718750,2.186605,11.587380,7.229949,13.867518
1002.722656,16.920128,4.422864,9.176144,11.426323
1002.726562,12.204307,12.082624,8.685915,17.360779
1002.730469,7.134192,-1.054951,6.959748,4.470675
1002.734375,7.639018,11.991955,6.457199,5.870563
1002.738281,9.835084,7.162630,4.767255,11.015727
1002.742188,0.223970,0.793893,-0.474465,10.944012
1002.746094,-6.642585,-1.280543,6.489700,-0.617154
1002.750000,-2.606354,6.079809,-1.778065,2.929606
1002.753906,-3.740952,-3.306898,-3.208795,1.627683
1002.757812,-1.799445,0.851931,-4.003735,-5.800281
1002.761719,0.338221,-4.705041,-3.063637,-5.529166
1002.765625,-2.488953,-2.647278,-13.445249,-6.878483
1002.769531,-11.089792,-7.847472,-5.366509,-6.415244
1002.773438,-5.021518,-11.512053,-8.326102,-10.441061
1002.777344,-9.358025,-10.017305,-7.667561,-12.212660
1002.781250,-13.944289,-1.287604,-7.555904,-8.143720
1002.785156,-4.425059,-11.387710,-9.232095,-0.606084
1002.789062,-10.215155,-9.253219,-4.880371,-7.191097
1002.792969,-10.491277,-1.588216,-6.962087,-5.187289
1002.796875,-3.531677,-0.886601,-0.117805,-2.674103
1002.800781,4.080775,-5.943308,-2.620100,0.956623
1002.804688,3.253206,4.444911,5.333348,0.001688
1002.808594,1.466677,6.252013,2.479930,4.023335
1002.812500,7.205811,8.128122,6.906931,6.866382
1002.816406,6.703648,6.052360,9.339530,9.292897
1002.820312,11.919026,9.855456,6.592042,3.364541
1002.824219,14.541502,14.823382,4.846231,4.547822
1002.828125,17.209253,9.178910,16.265848,7.909566
1002.832031,5.521724,10.917131,14.735508,3.613837
1002.835938,6.530089,10.250898,3.489365,10.974230
1002.839844,0.918462,2.644276,6.286239,4.862454
1002.843750,11.383284,2.160093,6.922391,5.934230
1002.847656,5.593100,2.198415,8.435665,-3.790004
1002.851562,-5.957529,1.437031,-4.501275,1.050115
1002.855469,-4.453902,3.128378,-5.285214,-0.657228
1002.859375,-6.525734,-6.161990,-9.974872,-3.864573
1002.863281,-9.085204,-9.806632,-0.070252,-12.191471
1002.867188,-11.183216,-10.497866,-9.578340,-6.103863
1002.871094,-11.083193,-9.333184,-4.380693,-9.253747
1002.875000,-12.875054,-7.229559,-13.458924,-13.294009
1002.878906,-13.365276,-16.269198,-15.250702,-2.946760
1002.882812,-10.559492,-10.997980,-4.792055,-10.464819
1002.886719,-7.958582,-4.163345,-10.609528,-8.315907
1002.890625,-7.121393,-2.403573,-8.447333,-5.639500
1002.894531,0.715759,-2.682154,-0.649362,2.505513
1002.898438,-0.634491,-7.115636,1.989267,-0.972194
1002.902344,2.551544,-1.043969,-1.193082,-2.819572
1002.906250,2.132303,4.083947,4.223889,5.467474
1002.910156,7.522632,3.639932,7.330546,1.374245
1002.914062,11.039607,7.623698,4.504736,10.923891
1002.917969,5.898272,8.279884,5.356270,10.731184
1002.921875,15.116069,12.215359,7.638061,7.376101
1002.925781,8.202061,7.374118,12.427215,7.444145
1002.929688,7.925255,6.890424,12.620541,8.391205
1002.933594,10.455815,6.581642,5.367420,9.852912
1002.937500,9.801379,19.125063,9.675199,5.353590
1002.941406,2.477005,8.325523,3.861156,1.719684
1002.945312,10.071972,-3.958181,3.281158,4.886419
1002.949219,-8.263609,-0.999748,0.575871,0.678569
1002.953125,1.740601,-0.139003,-2.971163,0.700721
1002.957031,-8.392612,1.526382,-3.295935,-3.402468
1002.960938,-7.137383,-0.934426,-5.573783,-10.088149
1002.964844,-2.916780,-8.081182,-9.138983,-4.733082
1002.968750,-6.670564,-3.649513,-12.373849,-15.353243
1002.972656,-9.328232,-14.770763,-11.779231,-7.888748
1002.976562,-3.977175,-4.471584,-9.397216,-9.801207
1002.980469,-7.783754,-7.709628,-10.515364,-9.860630
1002.984375,-4.449550,-1.425955,-11.168864,-13.080873
1002.988281,-16.451614,-5.164588,-4.186186,-5.236337
1002.992188,-5.935320,-14.287792,-5.702915,-8.401419
1002.996094,2.806383,-2.201966,1.193886,2.217433
1003.000000,-1.493059,-10.147123,3.471193,-3.174709
1003.003906,11.856195,2.605215,-2.453921,0.080697
1003.007812,8.863789,17.141303,4.951275,3.090611
1003.011719,5.199961,7.991250,-5.657577,4.883781
1003.015625,5.909689,5.600543,11.175492,7.806268
1003.019531,16.601936,10.353501,2.679211,13.840376
1003.023438,7.241570,15.678377,12.385767,14.784139
1003.027344,11.526209,7.476983,9.846592,4.923131
1003.031250,5.524251,7.570610,15.379834,10.096178
1003.035156,4.870703,5.402454,4.643205,9.234226
1003.039062,7.941313,13.883170,-1.514194,9.257916
1003.042969,3.117026,6.010013,-4.935073,4.129869
1003.046875,0.725203,1.909683,3.608437,1.243045
1003.050781,-5.536034,5.140668,-1.607181,-4.029546
1003.054688,-5.495808,-3.973468,3.646274,-7.380188
1003.058594,-4.027701,-6.228122,-5.750242,-6.133456
1003.062500,-7.430463,-6.943127,-11.632305,-12.360463
1003.066406,-5.583754,-11.733434,-10.043863,-6.473784
1003.070312,-4.908177,-11.081773,-8.115705,-16.567637
1003.074219,-11.768749,-7.812819,-16.512636,-10.760378
1003.078125,-14.003018,-2.094428,-2.745865,-12.708852
1003.082031,-11.167967,-16.093052,-10.386021,-10.594834
1003.085938,-5.928738,-3.728762,-7.206561,-0.442752
1003.089844,-2.827464,-4.111028,-6.927719,0.873525
1003.093750,-13.145866,1.586132,-7.257871,-5.765459
1003.097656,-4.844304,-5.149360,-1.574617,-3.918123
1003.101562,1.793422,2.827901,-5.685127,-0.908746
1003.105469,10.426138,1.635163,2.133135,13.018736
1003.109375,2.042911,3.196729,4.497897,5.135367
1003.113281,4.515919,13.162332,3.397104,0.003447
1003.117188,5.923844,16.227372,5.799720,5.760330
1003.121094,7.848427,13.686094,11.840975,13.194151
1003.125000,6.802270,2.607241,10.987136,5.560224
1003.128906,15.563955,3.227382,5.481467,13.388386
1003.132812,15.377116,9.168844,8.541349,6.205051
1003.136719,10.248463,7.436411,5.829144,6.686356
1003.140625,1.526761,8.608047,6.461140,3.220010
1003.144531,0.331877,4.100679,-0.794961,5.467872
1003.148438,13.120575,1.583512,-7.811135,-4.137790
1003.152344,-3.436841,-5.147086,-3.280397,4.153172
1003.156250,-6.802065,-15.128057,-4.394396,-2.271901
1003.160156,-6.558118,-14.071534,-0.907334,-9.186719
1003.164062,-9.330794,-8.146780,-8.778902,-12.932940
1003.167969,-10.089619,-4.783023,-13.841275,-12.669502
1003.171875,-10.461635,-7.214758,-12.680919,-9.115776
1003.175781,-16.216022,-13.555773,-15.123220,-8.057792
1003.179688,-5.754439,-12.863057,-6.618845,-11.447193
1003.183594,-9.734557,-11.961887,-5.393391,-4.597084
1003.187500,-13.801444,-2.932401,-8.377593,-3.710570
1003.191406,-6.025718,-3.625551,0.985918,3.468661
1003.195312,-1.447376,-7.401760,-2.760073,-5.802795
1003.199219,-7.583262,-2.294082,0.435750,8.814025
1003.203125,-2.293248,0.729230,6.585561,-3.414910
1003.207031,5.886727,2.388946,6.693006,12.061170
1003.210938,1.507965,4.091689,2.322700,7.654866
1003.214844,11.790292,4.259366,8.964342,4.638099
1003.218750,10.225933,13.989653,8.305044,5.466508
1003.222656,9.989667,7.466015,11.314282,14.400911
1003.226562,12.088779,11.315414,11.134444,9.055490
1003.230469,13.651180,8.692173,12.113754,7.304466
1003.234375,7.127935,7.082207,7.603863,9.295938
1003.238281,7.223511,9.188165,1.407553,10.928693
1003.242188,6.022615,3.218639,6.132826,10.421614
1003.246094,2.587008,3.448582,-0.945952,-1.603295
1003.250000,0.785113,1.200686,-2.365955,2.225597
1003.253906,-3.959255,1.941627,1.328916,-6.334659
1003.257812,1.046176,0.237196,-9.752640,-11.992308
1003.261719,-7.371227,-8.985211,-1.831525,-5.682196
1003.265625,-8.032974,-12.297783,-10.974948,-4.047374
1003.269531,-2.786323,-9.508832,-11.007381,-11.065952
1003.273438,-17.677183,-8.635319,-12.136090,-10.331605
1003.277344,-13.645259,-12.262919,-4.557584,-11.198623
1003.281250,-9.528367,-19.654381,-15.583539,-5.844810
1003.285156,-12.950499,-6.965051,-8.329714,-1.372207
1003.289062,-12.468226,-4.881373,-8.316985,0.717501
1003.292969,2.611112,-2.843051,-2.695678,-2.186079
1003.296875,2.575154,-11.383422,-7.087078,-8.115586
1003.300781,-2.684588,2.083706,-2.855130,0.030355
1003.304688,9.706810,-2.380509,9.868677,4.811580
1003.308594,6.851091,4.298943,3.440258,3.065987
1003.312500,12.585894,8.767536,11.807279,-3.553076
1003.316406,8.164304,9.392112,14.528404,17.557403
1003.320312,15.159159,6.932293,11.211386,3.098164
1003.324219,7.841302,11.762952,3.142592,17.252987
1003.328125,5.038885,5.414887,7.901607,4.922786
1003.332031,9.681047,7.839788,8.118494,6.042990
1003.335938,4.577152,2.863503,13.149422,4.713738
1003.339844,6.985648,4.937549,4.477253,7.467078
1003.343750,-0.523446,4.742783,-6.941667,1.544926
1003.347656,-1.620647,-1.653096,-1.421083,4.138236
1003.351562,0.054854,8.820534,-6.820002,1.810367
1003.355469,3.068063,-9.471279,-4.434448,-2.586797
1003.359375,-7.410754,-7.002084,0.496690,-2.069448
1003.363281,-6.716678,-8.728682,-12.029633,-7.189266
1003.367188,-10.334409,-8.900749,-5.473763,-5.214768
1003.371094,-4.770720,-10.420808,-13.565149,-14.386878
1003.375000,-6.578550,-16.288754,-13.809702,-8.779122
1003.378906,-9.272264,-8.345385,-12.919978,-9.550839
1003.382812,-5.606620,-11.191802,-10.440244,-5.107356
1003.386719,-9.274110,-8.426348,-5.343672,-7.149587
1003.390625,-5.412427,-10.168981,-9.714580,-5.118630
1003.394531,-10.855729,-6.642785,-3.259833,0.343662
1003.398438,-0.235625,-4.902232,-6.330588,-3.267393
1003.402344,0.657386,6.341755,-2.167091,-2.446656
1003.406250,3.396109,8.248164,-0.213243,1.096058
1003.410156,8.406962,9.667727,8.424086,3.086002
1003.414062,11.463398,5.936805,5.630804,11.220964
1003.417969,8.236346,9.102945,2.116323,9.050203
1003.421875,7.800412,9.384044,3.976569,6.728562
1003.425781,8.381176,13.503431,10.686797,14.643023
1003.429688,11.419061,6.732257,11.363518,12.545315
1003.433594,1.618015,11.625249,11.464251,6.634416
1003.437500,9.162471,5.565258,2.296949,6.325751
1003.441406,6.339778,4.034630,7.513102,4.425356
1003.445312,7.698429,2.865223,6.365803,1.011430
1003.449219,-0.085399,4.320532,-2.962893,-2.273019
1003.453125,1.421716,2.530330,-0.266315,-1.308023
1003.457031,-5.527088,-9.195401,-8.703118,-4.363986
1003.460938,-6.938138,-3.176507,0.948817,-9.135184
1003.464844,-15.820334,-8.078652,-7.417259,-6.922979
1003.468750,-10.030790,-7.329186,-14.245699,-17.195517
1003.472656,-7.986350,-9.300902,-3.463146,-10.360811
1003.476562,-13.556794,-11.824507,-12.897115,-5.714066
1003.480469,-3.929146,-5.320815,-12.873656,-6.783943
1003.484375,-6.087747,-5.843162,-8.997231,-10.295506
1003.488281,1.758120,-5.942618,-12.495450,-7.049040
1003.492188,-5.768804,2.078379,-1.390243,-0.862931
1003.496094,-2.830935,0.805954,-4.252582,-2.805350
1003.500000,1.270013,-0.089046,2.830000,4.107871
1003.503906,1.682968,1.712677,2.172300,-7.081070
1003.507812,-2.741884,4.794690,9.235148,-3.507973
1003.511719,2.860347,3.802460,6.886588,12.213114
1003.515625,9.988605,11.715921,7.496630,18.526150
1003.519531,10.076687,19.219265,4.174429,2.037245
1003.523438,9.859466,8.387715,15.598337,14.187679
1003.527344,5.436629,13.575401,10.696911,11.698474
1003.531250,8.998876,8.235232,14.251505,14.021525
1003.535156,11.241226,1.371083,6.524646,11.620990
1003.539062,5.387949,4.068672,2.066535,6.259294
1003.542969,3.888717,4.282083,5.527332,14.307557
1003.546875,1.561262,-3.504473,6.315640,0.033643
1003.550781,-10.728706,2.713981,-4.388939,2.119957
1003.554688,-0.882223,-5.070964,0.476145,1.206805
1003.558594,2.106069,-3.996888,2.973576,-5.951554
1003.562500,-4.751266,-8.445960,0.890277,-7.688810
1003.566406,-9.320506,4.475560,-6.996541,-10.780846
1003.570312,-4.129015,-6.159267,-10.635445,-12.047514
1003.574219,-5.263888,-5.375069,-15.023815,-11.037665
1003.578125,-12.396665,-1.893180,-10.014475,-13.471485
1003.582031,-3.222952,-5.313812,-10.866711,-2.801600
1003.585938,-10.558744,-2.035992,-14.519749,-9.464847
1003.589844,-8.256796,-5.981916,-4.350888,-7.871719
1003.593750,-6.760208,0.281453,5.420290,-1.373579
1003.597656,-2.276616,-1.755680,0.183925,-0.501569
1003.601562,7.056166,-6.155196,-5.620387,3.095683
1003.605469,2.196366,8.215452,-0.881116,-2.244325
1003.609375,7.711161,13.496613,5.994690,-2.020494
1003.613281,3.554038,8.658059,1.755341,6.790566
1003.617188,5.504171,10.244816,13.160817,11.865965
1003.621094,1.621149,16.001154,19.074995,14.302454
1003.625000,6.430211,10.370585,4.508452,9.205738
1003.628906,12.950414,13.624132,12.566111,18.536514
1003.632812,2.606111,8.828120,3.009580,9.335549
1003.636719,3.957173,7.016761,4.938835,7.728712
1003.640625,4.578568,13.495234,2.139243,3.437113
1003.644531,7.744896,6.549673,3.649066,1.175414
1003.648438,-0.441644,-1.964078,-1.699461,2.657353
1003.652344,-1.770274,-2.978620,-1.552767,-2.192820
1003.656250,-1.812349,-5.191073,-13.403842,-6.029631
1003.660156,-8.502505,-11.246739,-5.943523,-6.874935
1003.664062,-7.824123,-8.045936,-4.409978,-4.550648
1003.667969,-4.375956,-0.664088,-10.180978,-5.475524
1003.671875,-4.502175,-5.480219,-9.855019,-5.847250
1003.675781,-13.052055,-7.582301,-7.629161,-8.858785
1003.679688,-3.858801,-13.400090,-3.082474,-10.531670
1003.683594,-7.609804,-10.360422,-13.609562,-10.581986
1003.687500,-12.730994,-8.213742,-5.723349,-7.865914
1003.691406,-10.192761,0.206618,0.255025,-0.380986
1003.695312,-2.051470,6.420236,-6.799707,-0.451282
1003.699219,-8.110284,-1.415413,1.870211,-0.153597
1003.703125,5.624083,2.326317,6.794519,0.118265
1003.707031,3.619379,2.899669,3.787855,10.071357
1003.710938,2.638614,10.762509,5.686673,6.311374
1003.714844,9.387777,11.341410,8.252673,8.008633
1003.718750,12.620840,14.408960,9.061687,7.920781
1003.722656,4.497311,4.416147,0.932639,7.197489
1003.726562,5.750143,10.503279,9.691939,11.719100
1003.730469,8.199490,15.180120,5.587553,10.381658
1003.734375,9.424956,-0.053322,7.199807,8.013773
1003.738281,4.625601,5.728620,6.101530,12.680842
1003.742188,6.301698,5.455577,7.938276,8.288155
1003.746094,1.123655,5.106077,1.221885,0.704828
1003.750000,6.018576,2.398269,2.166800,-1.805329
1003.753906,-1.380052,-4.454608,0.987115,-1.959444
1003.757812,-7.205117,-4.475552,-5.612044,-4.895693
1003.761719,-12.356105,-4.117441,-5.030168,1.266766
1003.765625,-6.706313,-13.258728,-6.592523,-15.491683
1003.769531,-7.410361,-9.859011,-11.336332,-6.692339
1003.773438,-9.975065,-7.651932,-5.376580,-6.524277
1003.777344,-7.588188,-5.204709,-9.523791,-11.710105
1003.781250,-14.548457,-15.199987,-8.861153,-6.236182
1003.785156,-12.771030,-3.326622,-14.491251,-8.023991
1003.789062,-5.769910,-11.379199,1.666756,-2.558001
1003.792969,-1.541419,-1.810192,-1.921326,-8.098933
1003.796875,0.489006,-1.148136,0.991738,-6.715668
1003.800781,7.092279,-3.445830,-0.809468,3.164863
1003.804688,5.950677,-0.567724,0.349502,-2.368116
1003.808594,0.553665,4.432195,4.725161,7.802660
1003.812500,13.565220,4.626435,14.024430,8.480809
1003.816406,15.449540,9.150007,5.293470,7.147954
1003.820312,13.557409,0.789867,2.296828,10.977920
1003.824219,3.444100,10.751004,11.040602,14.296470
1003.828125,8.953025,12.311075,9.040985,5.686303
1003.832031,14.700643,12.985520,10.143800,5.892912
1003.835938,4.690148,9.378610,2.278864,3.140244
1003.839844,9.228837,0.971229,2.738796,5.012374
1003.843750,10.296755,5.139891,8.266233,4.266163
1003.847656,5.177254,0.433691,-0.107868,-2.564701
1003.851562,-2.208210,-2.530095,1.190102,-2.986796
1003.855469,-5.588115,-9.249623,-3.384363,2.645404
1003.859375,-10.370288,-5.863074,-8.801318,-8.056791
1003.863281,-4.377449,-4.361308,-10.949517,-2.439416
1003.867188,-11.054927,-8.153993,-13.925599,-14.775649
1003.871094,-9.936725,-13.434053,-0.255656,-6.368226
1003.875000,-13.801233,-9.288704,-10.635976,-7.835474
1003.878906,-5.336506,-4.044008,-12.335205,-12.404644
1003.882812,-3.950398,-8.036428,-3.810098,-2.801571
1003.886719,-1.335363,-14.875115,-13.163707,-13.731805
1003.890625,-8.719617,-0.779506,-8.463005,-9.218214
1003.894531,-1.765256,0.312903,-9.762769,-6.911519
1003.898438,0.614771,0.742807,-3.694946,-7.713932
1003.902344,-1.085593,-3.039976,3.725219,1.752095
1003.906250,1.124136,5.024967,7.385553,8.135596
1003.910156,2.632094,2.096548,7.656871,6.079929
1003.914062,9.818324,1.328598,5.127568,6.197659
1003.917969,8.763013,6.559470,13.513705,11.772143
1003.921875,9.940042,4.134070,8.673898,10.193191
1003.925781,8.247618,0.886327,15.091296,9.054841
1003.929688,5.220915,10.715930,14.525605,14.303949
1003.933594,4.540651,10.074497,7.238496,10.988292
1003.937500,12.575435,7.307955,8.154334,2.239642
1003.941406,9.946181,10.886156,4.674880,12.535895
1003.945312,6.588763,2.516491,-3.936452,-1.062812
1003.949219,-6.136741,-1.646855,-1.223078,-0.102143
1003.953125,-3.920789,-4.220289,0.793928,-5.953731
1003.957031,1.028596,0.444171,0.099047,-7.502190
1003.960938,-8.348337,-12.503921,-7.707761,-5.444162
1003.964844,-6.921338,-4.374595,-0.947128,-3.840788
1003.968750,-4.940705,-16.412882,-2.722753,-6.543969
1003.972656,-9.428947,-8.736385,-13.734723,-7.458610
1003.976562,-10.620988,-9.483710,-3.009017,-14.211350
1003.980469,-11.522261,-10.439979,-6.518545,-13.545552
1003.984375,-11.069348,-0.523822,-8.165627,-7.231988
1003.988281,-3.952801,-6.061666,-3.442360,-8.760187
1003.992188,-5.951644,0.954070,0.068444,-7.940873
1003.996094,-2.680060,-1.977280,6.018493,-4.420526
1004.000000,0.951681,0.590657,-2.436019,-1.798686
1004.003906,0.155341,-1.880775,1.424489,-2.349939
1004.007812,5.459973,6.482989,9.347036,-0.965265
1004.011719,-5.259074,1.873944,15.238622,2.247440
1004.015625,6.948152,2.203289,12.025731,8.338894
1004.019531,3.851542,3.688773,9.368333,10.154241
1004.023438,16.111467,9.683485,9.705435,3.487912
1004.027344,6.287108,10.281772,12.266838,11.409143
1004.031250,4.373800,4.316130,8.640497,13.325938
1004.035156,7.419104,7.798813,2.471022,3.147647
1004.039062,3.417957,4.606407,5.282869,1.525824
1004.042969,8.201533,8.264204,8.306478,-5.748676
1004.046875,-1.384173,-1.536867,0.022095,-3.308876
1004.050781,0.454863,-0.903206,-4.438793,-8.805633
1004.054688,3.514512,-8.459632,4.977183,2.501966
1004.058594,-6.238532,-3.218300,-7.555991,-1.354445
1004.062500,-1.803724,-8.726709,-10.355220,-9.750659
1004.066406,-7.997448,-11.433712,-19.011807,-17.717016
1004.070312,-0.775168,-7.948332,-9.425948,-4.668044
1004.074219,-14.360855,-9.946473,-14.116002,-10.739278
1004.078125,-7.945319,-15.739628,-10.142119,-13.722619
1004.082031,-15.180859,-13.769057,-9.152454,-5.985071
1004.085938,-8.862110,-13.487664,-3.928999,-12.367070
1004.089844,-1.606630,-10.232894,-7.065721,-7.689678
1004.093750,-5.451357,-8.913435,-6.354581,-5.651341
1004.097656,-2.180550,-1.785310,-0.985579,0.914794
1004.101562,0.938290,-1.422822,-0.163606,1.902936
1004.105469,-0.856276,4.739476,0.947608,1.746960
1004.109375,5.229111,8.433758,2.892489,7.568795
1004.113281,-1.109418,7.896257,5.383299,13.708238
1004.117188,11.589510,13.894731,10.824765,15.319566
1004.121094,6.765154,10.416560,8.379272,9.132450
1004.125000,13.575558,12.261422,2.387966,8.116283
1004.128906,6.391263,2.835229,15.297293,12.376539
1004.132812,5.252019,10.396816,10.373269,12.028804
1004.136719,9.023551,0.328148,14.162724,11.381609
1004.140625,4.958216,3.593359,4.685927,4.334212
1004.144531,5.456622,-1.808350,7.049063,3.707337
1004.148438,8.575814,0.134452,3.803004,5.494385
1004.152344,-3.123490,-0.341062,-1.119061,-3.009849
1004.156250,5.068866,-10.090595,-2.617698,4.150975
1004.160156,-7.761735,-7.286948,-11.949328,-2.821743
1004.164062,-2.563985,-7.592122,-7.398053,-7.193784
1004.167969,-7.036589,-3.573933,-14.867723,-6.736966
1004.171875,-6.787748,-10.936108,-16.015918,-9.024440
1004.175781,-3.895211,-4.288423,-10.779217,-13.106175
1004.179688,-11.171314,-17.527016,-1.804597,-3.422452
1004.183594,-6.639643,-12.543561,-3.716257,-10.418538
1004.187500,-10.436717,-5.081858,-4.871230,-7.479025
1004.191406,0.185934,-7.923875,-5.317010,-8.567787
1004.195312,-9.045725,-7.732419,-3.990626,-1.030630
1004.199219,4.701486,3.722089,-2.895339,-0.006503
1004.203125,3.914184,-6.126220,-0.528192,-1.439027
1004.207031,3.910136,1.363089,5.150423,1.768325
1004.210938,6.945526,11.922963,9.293746,5.678455
1004.214844,5.547732,-0.927501,12.673553,7.554575
1004.218750,9.218387,-2.096853,10.120164,18.211099
1004.222656,9.805330,-0.324119,9.734683,11.829436
1004.226562,8.899832,-2.080303,17.114378,11.828852
1004.230469,9.517986,10.033602,4.359102,10.730680
1004.234375,-1.440785,5.298714,4.465592,-3.168224
1004.238281,3.743731,3.216151,5.002589,2.149503
1004.242188,5.636291,3.734078,3.709286,4.199958
1004.246094,6.983523,8.251355,9.336527,-1.606490
1004.250000,3.660673,-2.023722,6.228823,-0.832880
1004.253906,-1.626617,1.023602,-0.599462,-4.723373
1004.257812,-2.054328,-5.598173,-6.203149,-4.277368
1004.261719,-4.593478,-7.945750,-7.899254,-1.343305
1004.265625,-11.747308,-12.748166,-6.321904,-11.440964
1004.269531,-6.074143,-9.185186,-8.226635,-6.438304
1004.273438,-7.534290,-16.077885,-16.081820,-11.449066
1004.277344,-13.870394,-6.613342,-9.573431,-6.318929
1004.281250,-2.994533,-7.891786,-14.912037,-7.482490
1004.285156,-15.353271,-6.373421,-10.738107,-2.512118
1004.289062,-5.984629,-4.384382,-4.186126,-7.905730
1004.292969,-4.795709,-5.410642,-1.827977,-4.485877
1004.296875,2.677536,-5.345005,-3.082890,0.244200
1004.300781,5.072780,-1.610425,-4.622322,-2.742557
1004.304688,6.898523,-0.220947,0.313076,-1.625818
1004.308594,3.152780,7.827749,6.192592,1.510921
1004.312500,6.929221,6.480641,-1.853799,2.806601
1004.316406,6.110573,13.645679,8.090330,6.325575
1004.320312,11.489336,10.138629,9.300003,7.888435
1004.324219,14.227056,6.677312,12.443234,15.225292
1004.328125,12.190781,7.500396,13.520504,10.964244
1004.332031,2.893699,13.059575,11.678129,4.076046
1004.335938,12.822561,2.743300,6.402012,6.226685
1004.339844,7.652304,8.028432,10.409832,2.194657
1004.343750,20.545957,-4.341786,-0.980312,9.304024
1004.347656,-1.093403,2.759452,4.214740,-0.975686
1004.351562,-3.548560,-5.952716,-2.772792,-5.528672
1004.355469,0.668587,-8.848425,0.476895,-3.431253
1004.359375,-12.675853,-2.606476,-9.742545,-5.662059
1004.363281,-6.244532,-11.343015,-0.049844,-3.740618
1004.367188,-7.371968,-9.620086,-11.012507,-5.841250
1004.371094,-10.541547,-6.466375,-4.243660,-13.078993
1004.375000,-8.902810,-16.008906,-5.561199,-2.941252
1004.378906,-7.733369,-12.684486,-14.275547,-9.534407
1004.382812,-16.723326,-9.745721,-6.525210,-5.725884
1004.386719,-4.906319,-2.962773,-7.912236,-6.725605
1004.390625,4.309860,0.803458,-4.391485,-7.278383
1004.394531,-6.880039,-3.612477,2.021627,-6.488807
1004.398438,4.711595,-1.053648,0.004616,-0.116914
1004.402344,2.342626,0.900441,9.294396,-10.651074
1004.406250,0.499397,5.369501,-2.304892,-1.054062
1004.410156,4.033580,1.204051,1.907262,4.917106
1004.414062,0.690717,5.035965,2.997327,0.614455
1004.417969,14.664838,4.539692,12.005998,6.125922
1004.421875,10.935386,9.330921,20.934068,22.598589
1004.425781,5.648409,7.761222,17.922851,12.151541
1004.429688,10.055371,14.160127,10.656009,12.680424
1004.433594,3.459715,8.202732,2.419767,9.133372
1004.437500,4.465980,1.998227,16.216267,8.568858
1004.441406,3.589365,13.088351,5.789105,5.242759
1004.445312,12.411933,3.534418,-1.514702,6.317431
1004.449219,-7.921601,4.945539,5.016836,2.631366
1004.453125,-8.999473,-1.166628,-1.993528,-3.727535
1004.457031,-2.247558,-5.265649,-6.473023,-9.295245
1004.460938,-8.939925,-8.519619,-4.194220,-4.252896
1004.464844,-11.970056,-6.837402,-10.008008,-10.747678
1004.468750,-10.345268,-6.800041,-16.074046,-16.777370
1004.472656,-10.284580,-6.203282,-12.059677,-17.307135
1004.476562,-5.029892,-4.633269,-9.066179,-1.389034
1004.480469,-9.112097,-6.476852,-10.438315,-4.538948
1004.484375,-14.063909,-8.227523,-5.741817,-9.812544
1004.488281,-10.900940,-0.639024,-6.182853,-7.023323
1004.492188,-2.910229,-7.316258,-1.276074,-1.128846
1004.496094,0.253331,-2.160563,5.477695,-4.685434
1004.500000,4.263482,2.926631,9.423038,0.715286
1004.503906,2.288392,1.357628,0.029471,0.940450
1004.507812,8.206540,-0.719018,3.461556,9.794423
1004.511719,9.160028,11.995089,6.573739,3.812810
1004.515625,9.253687,7.540534,7.050991,0.652772
1004.519531,14.642644,-2.081132,17.702266,7.629610
1004.523438,10.625416,14.825479,9.220709,12.448257
1004.527344,8.440337,6.124103,7.072334,11.797317
1004.531250,8.956337,7.243009,2.475889,9.382908
1004.535156,19.847305,4.280432,0.898723,8.374522
1004.539062,0.139671,14.488223,7.466960,9.880339
1004.542969,5.494380,4.119755,3.878535,-0.212902
1004.546875,0.282267,3.479526,1.647974,-3.454411
1004.550781,-0.305879,10.479582,-0.140658,-0.353716
1004.554688,1.627171,-5.895120,-6.939638,3.776268
1004.558594,-3.168792,-5.573079,-3.543779,-1.938460
1004.562500,-9.150994,-0.126067,-3.124936,-1.556966
1004.566406,-1.132402,-8.550937,-13.518050,-7.429295
1004.570312,-9.722759,-8.419956,-8.200146,-6.510532
1004.574219,-3.479409,-9.615783,-9.797677,-13.372770
1004.578125,-3.346537,-11.971301,-9.962157,-5.905286
1004.582031,-16.454028,-2.443324,-6.527429,-10.138745
1004.585938,-5.314418,-7.675953,-0.092916,-6.391201
1004.589844,-9.183498,-4.357486,-4.940624,-9.658534
1004.593750,-2.007778,-9.343125,-8.226753,-5.291413
1004.597656,0.297580,-2.211727,-0.173902,-8.846667
1004.601562,-7.201217,-3.880521,2.493257,-14.336970
1004.605469,3.266751,13.226673,3.915449,6.228846
1004.609375,-5.389400,6.110289,5.979838,2.892750
1004.613281,10.421104,5.451661,10.754098,8.573481
1004.617188,7.449038,1.067703,7.674252,15.220207
1004.621094,7.855325,12.497703,0.133907,8.918915
1004.625000,-0.511329,9.439190,10.965534,10.424658
1004.628906,9.123656,9.617236,13.849863,6.854126
1004.632812,8.285672,7.950253,12.254046,11.691294
1004.636719,6.570448,10.043926,7.916187,8.230932
1004.640625,3.051790,2.094957,11.092619,2.419847
1004.644531,0.165643,3.108627,8.731438,5.613152
1004.648438,-3.393249,3.777825,-1.331862,6.297409
1004.652344,-7.093142,-1.442323,-4.324267,0.581062
1004.656250,-2.710159,3.827661,-1.714561,-3.601579
1004.660156,-0.269435,-8.158717,-1.616565,-6.669188
1004.664062,-12.558325,-5.316825,-4.019941,-8.207899
1004.667969,-11.065214,-14.241300,-6.816830,-6.546525
1004.671875,-8.234626,-10.958722,-9.923774,-10.062873
1004.675781,-17.104806,-15.550275,-7.762375,-8.371622
1004.679688,-7.249269,-10.281085,-11.187536,-15.638167
1004.683594,-4.091631,-9.009531,-7.625370,-10.612393
1004.687500,-7.614359,-4.184639,-11.572216,-9.571209
1004.691406,-10.137671,-10.126537,-0.230196,-2.810048
1004.695312,-1.174925,-1.668608,-9.736436,-0.546374
1004.699219,7.871925,-2.548690,-0.194623,-0.697933
1004.703125,1.316050,1.332072,1.396696,4.301082
1004.707031,1.555447,1.608429,-5.645692,0.453543
1004.710938,-4.549720,3.570133,3.572934,16.039597
1004.714844,16.706754,12.610615,9.660615,11.424565
1004.718750,6.737796,10.504181,7.271678,7.826424
1004.722656,0.012739,19.138977,10.714184,11.388301
1004.726562,7.710309,13.803172,10.046296,4.522211
1004.730469,13.742028,13.663511,16.626801,11.833373
1004.734375,6.825362,15.058873,8.267421,6.509401
1004.738281,12.865031,12.186872,1.533320,2.149228
1004.742188,3.286606,8.376674,0.123419,3.435471
1004.746094,7.533393,4.106397,7.236573,4.132585
1004.750000,-0.248903,-8.860059,-4.019520,1.799151
1004.753906,1.334242,-0.376455,-2.170149,-2.930951
1004.757812,0.835606,-0.976707,-3.957797,-3.645033
1004.761719,-2.771510,-8.160670,-8.956152,-5.020360
1004.765625,-10.885726,-7.268715,-12.244000,0.560502
1004.769531,-17.270340,-3.174943,0.920594,-3.151433
1004.773438,-15.437441,-9.514786,-11.358494,-11.754443
1004.777344,-9.782247,-11.009360,-16.940335,-5.763815
1004.781250,-5.770542,-16.513446,-9.942740,-14.661564
1004.785156,-7.051204,-1.360869,-6.340101,-8.341736
1004.789062,-10.690938,0.062451,-9.356098,-8.322134
1004.792969,0.576569,1.990453,-8.915279,-4.797305
1004.796875,-0.880684,1.743224,3.955622,-4.670809
1004.800781,-3.366429,-1.582662,3.079190,3.412677
1004.804688,0.805244,5.918734,4.384904,-0.915708
1004.808594,4.808493,4.920208,3.969577,-3.265988
1004.812500,6.423899,4.746113,1.641753,8.170756
1004.816406,8.011723,12.764808,8.559770,6.887910
1004.820312,5.148049,13.587471,3.496171,13.902351
1004.824219,7.701721,3.481575,7.924114,-0.388125
1004.828125,10.296349,7.320125,11.036223,5.327206
1004.832031,9.050095,4.598414,6.637263,9.366415
1004.835938,18.143700,7.180761,11.952312,12.983257
1004.839844,5.050809,3.622074,12.857553,-2.793424
1004.843750,7.327445,5.237016,4.325438,6.024781
1004.847656,4.363331,4.340592,-1.173516,-1.561826
1004.851562,-0.386592,-3.019369,-1.323717,0.860135
1004.855469,-1.591277,-4.419526,-9.965049,-6.798560
1004.859375,-3.295446,-2.592093,-8.675073,-2.610963
1004.863281,-11.104042,-2.065154,-3.747818,-10.588298
1004.867188,-6.206910,-9.249896,-11.247106,-8.515686
1004.871094,-17.553051,-9.880054,-14.165245,-11.057381
1004.875000,-6.621287,-6.043376,-6.405915,-4.591580
1004.878906,-8.635813,-13.776530,-14.838593,-16.425720
1004.882812,-10.268751,-12.501026,-9.226865,-6.615058
1004.886719,-6.735647,-10.820475,-7.424456,-10.390046
1004.890625,-18.407063,-2.936282,-6.048950,0.000106
1004.894531,-0.037673,-3.239784,-5.137992,5.088965
1004.898438,-11.350573,1.687537,-7.488474,-4.579843
1004.902344,2.348642,4.976172,3.284190,-0.571849
1004.906250,4.071512,0.676446,-2.252312,2.731786
1004.910156,8.267619,4.386605,-2.922568,6.760217
1004.914062,9.067391,10.435143,9.407332,11.603860
1004.917969,10.966892,7.703835,7.709603,9.715730
1004.921875,15.275246,15.929505,13.874174,12.943723
1004.925781,8.260531,4.464098,8.950209,11.141287
1004.929688,8.226224,8.834034,10.030258,10.944585
1004.933594,13.951787,10.930082,7.069781,13.055467
1004.937500,7.551886,7.807562,14.670963,2.641467
1004.941406,5.819689,6.821497,3.751065,6.076979
1004.945312,7.379289,3.826713,6.295053,5.881417
1004.949219,-0.461936,-0.677458,-2.835938,1.993018
1004.953125,-0.243763,-1.472096,-6.542569,2.381683
1004.957031,-6.643051,1.820003,-3.534139,-1.659343
1004.960938,-6.956308,2.218700,-5.881597,-5.221278
1004.964844,-1.867882,-11.047206,-8.045543,-5.668953
1004.968750,-10.338335,-12.479362,-12.699065,-3.863793
1004.972656,-12.045878,-8.737141,-9.145401,-12.918483
1004.976562,-9.630913,-9.759937,-14.645454,-18.714102
1004.980469,-8.404462,-11.361941,-6.518237,-10.667309
1004.984375,-9.051946,-9.848329,-7.277556,-14.869790
1004.988281,-8.479322,-6.452478,-5.439442,0.148366
1004.992188,-8.027513,-2.826469,-5.623846,-3.109617
1004.996094,2.694538,-1.310029,-5.648721,-4.901485
1005.000000,4.168646,-3.721023,7.695362,-0.489971
1005.003906,1.152269,5.682679,3.855221,4.544956
1005.007812,4.434415,-1.960500,11.933659,3.675690
1005.011719,7.963752,7.112258,6.428389,6.613639
1005.015625,7.122872,13.826285,11.597199,5.918180
1005.019531,13.254064,4.349119,16.489171,13.298645
1005.023438,6.962887,5.695910,12.532603,11.753655
1005.027344,13.274002,15.437968,7.234395,9.689405
1005.031250,15.088388,8.294752,13.082432,10.508966
1005.035156,4.265997,9.070258,9.558844,2.575634
1005.039062,1.724810,1.473693,6.360118,2.865294
1005.042969,4.644045,-1.606392,5.976226,-2.666220
1005.046875,11.010742,7.124143,-0.351678,10.400101
1005.050781,-4.330790,-1.170194,2.643833,-8.286689
1005.054688,0.681940,9.457570,1.031789,-1.555966
1005.058594,3.227183,-0.666039,-2.728516,-4.382308
1005.062500,-6.070659,-6.782368,-10.998585,-12.145305
1005.066406,-8.567012,-14.147269,-6.748610,-8.738807
1005.070312,-8.220527,-9.772925,-15.204292,-4.316584
1005.074219,-8.095664,-7.716495,-6.780674,-13.231834
1005.078125,-12.223217,-13.466981,-8.120460,-12.470128
1005.082031,-12.016944,-12.952326,-17.896766,-11.105794
1005.085938,-10.719471,-5.212318,-10.246475,-8.275017
1005.089844,-4.251936,-7.639944,-4.249138,-1.529750
1005.093750,-1.357168,-4.581833,-2.888496,-4.639367
1005.097656,-6.213554,2.092571,0.684718,-1.458005
1005.101562,-2.081231,-1.807708,2.223418,1.729526
1005.105469,1.952934,7.983984,0.852009,-0.168152
1005.109375,11.204256,2.814244,6.531616,2.536088
1005.113281,6.002165,0.520054,14.079233,4.675231
1005.117188,7.654951,5.506634,13.632189,13.663770
1005.121094,13.142755,9.262677,16.452189,9.079799
1005.125000,12.555503,3.396030,15.194441,14.835275
1005.128906,13.624792,18.601739,10.026411,14.340381
1005.132812,12.970984,9.139996,15.269244,12.801526
1005.136719,2.470005,3.938981,4.947618,8.625599
1005.140625,7.372979,2.472464,7.718898,2.662201
1005.144531,5.340867,3.952145,12.235132,4.024921
1005.148438,-2.803030,-1.955111,4.922768,4.724720
1005.152344,-0.655589,0.707400,-2.759441,-6.109941
1005.156250,-3.268777,-12.009668,2.118054,-4.183317
1005.160156,-8.160536,-3.055890,2.737329,-5.066391
1005.164062,-6.445178,-1.621973,1.367056,-6.518569
1005.167969,-10.996695,-17.088276,-11.743967,-6.327912
1005.171875,-4.896486,-3.422806,-8.730478,-8.284333
1005.175781,-10.171655,-4.860394,-10.928873,-3.302203
1005.179688,-11.619838,-2.135598,-7.062508,-6.317013
1005.183594,-7.548080,-17.976266,-10.363978,-3.785762
1005.187500,-9.867089,-10.414045,-11.942779,-7.001055
1005.191406,0.404496,-9.779857,-2.326985,-16.611605
1005.195312,-3.446379,-6.929235,4.672190,-4.869987
1005.199219,-1.141549,-1.880934,4.640951,0.201964
1005.203125,3.464832,0.297350,1.145679,-1.607050
1005.207031,4.945348,4.711889,0.159801,4.837274
1005.210938,3.082497,6.560679,4.873351,10.411535
1005.214844,8.651106,7.765181,0.405156,2.431434
1005.218750,14.055682,8.631661,10.821893,8.540745
1005.222656,8.355068,10.176840,17.448423,8.720873
1005.226562,11.047593,10.705298,10.545315,8.863564
1005.230469,7.591679,7.425655,9.448593,5.591830
1005.234375,11.904746,-0.313091,4.417286,0.800202
1005.238281,1.952868,7.853932,2.419434,8.329800
1005.242188,9.106470,7.735684,1.610139,8.385606
1005.246094,-4.011890,6.587840,3.320031,6.006485
1005.250000,4.749321,-3.140892,1.475917,0.090814
1005.253906,-14.373451,-4.560354,-4.447816,-3.668761
1005.257812,-4.087085,-7.500869,-2.579688,-5.538399
1005.261719,-11.588009,-5.277612,-6.261736,-2.106848
1005.265625,-10.231574,-9.423146,-2.190860,-3.647178
1005.269531,-0.411648,-6.142474,-8.838427,-11.126390
1005.273438,-15.944706,-9.867990,-13.090555,-8.882204
1005.277344,-15.561450,-10.340481,-10.387457,-13.950244
1005.281250,-11.593655,-0.906325,-4.228504,-17.264259
1005.285156,-9.684839,-8.196425,-9.931153,-12.010125
1005.289062,-2.079004,-8.576917,-9.628365,-4.484607
1005.292969,-8.893008,-6.436346,-7.575118,1.017440
1005.296875,-4.212310,-8.541411,-2.982763,3.898342
1005.300781,9.977746,6.215322,0.466720,-1.705753
1005.304688,4.543490,-1.361697,4.730560,-0.828492
1005.308594,7.949365,5.608808,2.209194,2.446236
1005.312500,3.133852,15.201242,15.253020,6.919142
1005.316406,13.402278,15.216216,6.982568,5.802231
1005.320312,11.296795,18.958465,14.152689,2.079899
1005.324219,10.642962,12.079089,7.144117,7.409970
1005.328125,5.919653,10.846221,9.173577,9.272000
1005.332031,10.061127,6.057539,8.895139,4.319165
1005.335938,11.167383,9.209341,10.236565,9.546261
1005.339844,2.937610,3.029417,9.694173,3.078421
1005.343750,4.400175,2.595800,8.324250,-0.072344
1005.347656,0.527038,-0.294777,3.718934,-1.843684
1005.351562,-5.020923,1.496353,-4.529616,2.145801
1005.355469,-2.531068,-7.166465,-7.015808,-4.256405
1005.359375,-1.192218,-0.960970,-10.759976,-0.872369
1005.363281,-8.050333,-7.019280,-10.747327,-8.973939
1005.367188,-4.906607,-11.550753,-15.768270,-12.619334
1005.371094,-6.663233,-13.528407,-7.097604,-8.645288
1005.375000,-6.030618,-3.961905,-9.601788,-8.710592
1005.378906,-12.707970,-9.503161,-8.859852,-3.294018
1005.382812,-9.854968,-10.753230,-12.014245,-1.593129
1005.386719,-6.013447,-6.062717,-9.016185,-3.289795
1005.390625,-4.762081,-2.789260,-1.637986,-9.209353
1005.394531,-2.639337,-0.969539,2.078203,-6.337187
1005.398438,1.523246,-6.087970,-5.905742,-9.019948
1005.402344,1.890428,0.386041,-1.864837,2.072081
1005.406250,4.348577,2.905440,-1.648766,8.660888
1005.410156,9.099728,3.330613,7.604095,6.191179
1005.414062,9.660915,-0.504322,5.319477,5.092597
1005.417969,5.176226,4.793907,10.283407,10.384151
1005.421875,7.650983,0.786057,10.990253,14.554294
1005.425781,13.756916,17.880827,4.901401,8.472753
1005.429688,8.058494,10.614582,10.611289,11.342608
1005.433594,0.791411,6.440905,6.074105,1.409052
1005.437500,2.177241,6.190038,4.240524,4.971614
1005.441406,4.180286,6.229695,2.094221,8.309194
1005.445312,9.885467,3.744336,5.257932,3.132334
1005.449219,1.543244,-4.858810,-0.794142,8.167009
1005.453125,-0.725016,-1.368657,-5.637415,-4.699292
1005.457031,-5.524523,0.793562,-7.031647,-1.800091
1005.460938,-6.345307,-3.637877,-13.876618,-9.451393
1005.464844,-14.944000,-8.323343,-15.357171,-10.246328
1005.468750,-5.015864,-5.331838,-8.037480,-6.536328
1005.472656,-13.436644,-10.472819,-13.234550,-2.550719
1005.476562,-3.581335,-0.649306,-16.154176,-8.698356
1005.480469,-13.911319,-8.057313,-4.210734,-11.468658
1005.484375,-8.906654,-12.846102,-1.286844,-2.178248
1005.488281,-7.328468,-5.516614,-9.901026,-12.320704
1005.492188,-7.210456,-0.697444,-5.252930,-4.376607
1005.496094,-2.928856,-0.996777,0.193017,-0.829558
1005.500000,-1.471955,2.848746,1.806921,-2.251226
1005.503906,3.321068,3.696280,-1.183747,0.441321
1005.507812,9.851974,4.981414,4.861897,1.565783
1005.511719,0.189409,2.193676,4.943511,0.949701
1005.515625,11.859491,0.953076,7.029785,6.947600
1005.519531,9.130935,5.564942,13.220986,18.555650
1005.523438,8.346297,4.242955,5.970671,3.836219
1005.527344,0.428695,8.483019,11.015773,17.798208
1005.531250,21.911860,6.523515,10.938713,6.792798
1005.535156,4.049258,7.891923,12.873761,11.326078
1005.539062,6.455728,5.307820,1.095007,11.154273
1005.542969,-2.342818,4.676755,3.411734,1.731666
1005.546875,5.489317,8.705974,5.994731,5.032278
1005.550781,-4.534903,-3.140096,-2.529531,1.340180
1005.554688,-1.656878,-6.351762,0.940431,-4.909227
1005.558594,-10.793127,-7.671649,-11.833248,-1.164801
1005.562500,-14.201282,-13.134309,-4.631408,-9.968456
1005.566406,-11.787453,-11.070821,-9.811345,-14.511490
1005.570312,-10.743064,-7.644142,-14.430751,-8.405292
1005.574219,-15.178693,-3.266099,-7.665719,-17.215907
1005.578125,-4.743249,-13.206528,-12.939228,-8.883508
1005.582031,-7.082469,-10.541421,-3.690276,-15.517622
1005.585938,-5.491326,-6.246233,-8.341300,-4.484197
1005.589844,-1.832770,-5.443929,-6.548024,-7.693758
1005.593750,-8.671676,-7.288264,-5.046560,-6.240397
1005.597656,-1.922738,-3.846399,-10.066990,-2.036964
1005.601562,0.995243,-0.038731,-3.119529,-3.050658
1005.605469,5.448954,6.281917,5.637478,2.739449
1005.609375,0.746045,7.314241,4.112227,1.634127
1005.613281,6.188557,6.029579,9.793236,8.831820
1005.617188,10.786908,9.607279,8.371107,7.342865
1005.621094,9.112778,6.808372,19.694907,13.212593
1005.625000,8.779886,13.998129,11.564763,6.053226
1005.628906,6.900065,15.357438,12.137330,4.463893
1005.632812,3.970757,12.591078,-2.401672,1.492358
1005.636719,12.065444,12.004121,5.320811,0.583445
1005.640625,2.526090,0.136781,-2.479303,8.525520
1005.644531,0.433060,8.385276,3.218743,-2.188375
1005.648438,2.432819,6.847958,-4.151022,5.014837
1005.652344,1.763682,-8.572042,5.142329,-2.349239
1005.656250,-0.327411,-2.473173,-7.378484,-8.349399
1005.660156,-1.419705,-3.769777,-2.302034,-9.199763
1005.664062,-10.780344,-11.190328,-10.828372,-9.454669
1005.667969,-5.964317,-1.997332,-7.723512,-9.763517
1005.671875,-8.326938,-12.393116,-12.594802,-2.805492
1005.675781,-18.989883,-8.412573,-21.557860,-13.622034
1005.679688,-8.943953,-12.245962,-13.910401,-11.752458
1005.683594,-17.772598,-10.063946,-6.272947,-8.605126
1005.687500,-14.533465,-10.094049,-7.712625,-8.536958
1005.691406,-7.403110,-14.355396,-6.862428,-7.313694
1005.695312,-4.487266,-7.213476,-1.304604,1.471696
1005.699219,2.019062,3.385318,2.176344,4.290681
1005.703125,7.918792,-1.783961,15.630473,8.260439
1005.707031,4.681352,-0.830581,4.783288,0.077521
1005.710938,-0.221026,10.528633,0.546504,7.417443
1005.714844,11.918083,4.795774,9.503350,6.119241
1005.718750,6.535407,8.721389,10.518307,5.182912
1005.722656,7.271488,9.299510,5.626780,11.928149
1005.726562,13.840613,9.894560,6.487190,4.655845
1005.730469,13.278584,6.993967,7.535640,11.910735
1005.734375,3.013833,6.172280,6.654524,13.707120
1005.738281,-1.734643,11.079433,8.896601,9.204886
1005.742188,6.941713,6.171077,-0.737663,6.950763
1005.746094,0.903689,1.111858,4.758690,7.377967
1005.750000,0.209999,-1.710223,1.807104,1.490041
1005.753906,-2.571304,-3.760910,-4.968515,1.532300
1005.757812,-2.818598,-5.218352,-8.296025,0.090869
1005.761719,-8.494498,-6.213526,-7.595060,-2.666228
1005.765625,-14.482139,-11.090683,-8.794043,-12.506520
1005.769531,-7.882223,-11.185282,-13.341817,-2.750840
1005.773438,-11.680004,-10.842844,-5.589725,-4.682331
1005.777344,-3.489667,-6.493686,-13.463856,-9.331619
1005.781250,-11.963050,-14.011411,-7.706912,-6.400232
1005.785156,-7.056595,-8.157307,-3.106024,-10.163742
1005.789062,-7.277535,-9.517698,-5.317086,-8.962610
1005.792969,-9.740732,-1.909544,-3.371647,-8.792992
1005.796875,-7.988284,-1.034421,3.743144,-3.120428
1005.800781,-0.123489,1.121479,-0.059402,-0.477708
1005.804688,3.900441,-1.009408,2.787993,2.561154
1005.808594,8.047214,6.420653,3.661226,2.914155
1005.812500,6.838765,5.663531,-3.072559,3.072019
1005.816406,7.978377,14.086508,-0.054069,13.049884
1005.820312,13.803058,9.591304,12.176697,7.611084
1005.824219,7.378100,12.675413,2.752198,3.375562
1005.828125,11.252400,6.931479,6.948910,17.808270
1005.832031,9.581223,12.158731,11.361939,8.309320
1005.835938,8.011209,6.369850,-0.190517,3.305429
1005.839844,7.694790,9.442011,9.074456,0.811723
1005.843750,6.916636,6.348081,5.271345,0.443222
1005.847656,4.630441,0.571685,-2.510180,8.184399
1005.851562,-2.704504,-3.719932,-6.964215,-0.021270
1005.855469,-5.498869,-4.542958,-3.480474,-7.321712
1005.859375,-8.310809,-11.811147,-4.096055,-14.875692
1005.863281,0.509849,-3.225300,-4.526055,-3.472793
1005.867188,-9.640418,-15.060006,-13.500594,-12.823255
1005.871094,-4.822928,-6.056651,-10.167073,-10.804940
1005.875000,-9.300073,-14.297187,-11.245874,-7.255004
1005.878906,-12.501422,-6.631300,-9.705692,-17.381526
1005.882812,-4.220981,-11.138622,-16.770127,-9.541705
1005.886719,-7.298544,-11.169818,-13.030753,-10.635689
1005.890625,-7.953937,2.360148,-3.205864,-8.142223
1005.894531,-1.005861,-6.901968,-2.473892,-7.204573
1005.898438,-2.036086,-2.332741,1.306070,-9.319573
1005.902344,1.083778,-2.705984,2.236589,5.730139
1005.906250,-1.366189,2.920848,5.100917,10.680973
1005.910156,8.026219,2.326421,12.280101,10.031897
1005.914062,11.594091,9.144273,14.999417,-2.190927
1005.917969,8.383058,8.433324,6.942423,9.240510
1005.921875,9.457666,9.347292,8.299923,13.347073
1005.925781,10.795362,11.657849,9.301843,3.607188
1005.929688,12.161953,11.497431,16.246340,11.141020
1005.933594,10.501336,6.610036,19.109525,1.275137
1005.937500,12.225919,5.461662,12.658783,8.571990
1005.941406,7.271007,2.578545,5.597495,3.113288
1005.945312,-2.275894,9.337137,1.198038,-3.791055
1005.949219,-5.906916,0.937483,0.704848,0.404275
1005.953125,2.337577,4.082763,-7.648520,1.457750
1005.957031,-3.278855,-5.158592,-7.874851,-3.590349
1005.960938,-4.925706,-7.943571,-9.958515,-4.109102
1005.964844,-1.548289,-14.346885,-11.224237,-8.435331
1005.968750,-11.401687,-13.104347,-8.038411,-3.042133
1005.972656,-15.695431,-4.544381,-4.078959,-7.838456
1005.976562,-5.257071,-16.014597,-2.824021,-7.459137
1005.980469,-7.896160,2.203244,-9.447268,-5.137315
1005.984375,-8.671026,-13.623713,-9.235134,-7.065915
1005.988281,-8.785232,-7.490938,-6.769602,-12.959930
1005.992188,-7.797590,-9.707593,-8.650312,-9.845809
1005.996094,1.084669,-2.398335,-10.561220,-2.127639
1006.000000,0.557233,3.972487,-7.987552,-1.325869
1006.003906,4.216832,1.844401,0.650507,0.903894
1006.007812,9.344438,1.327879,10.860684,7.467456
1006.011719,4.298747,9.173300,9.694005,6.567750
1006.015625,-1.701632,2.039025,9.167196,5.115314
1006.019531,13.782687,8.329922,6.876914,9.815637
1006.023438,14.070777,17.338379,12.357615,11.327953
1006.027344,4.760054,10.841102,14.291583,0.460183
1006.031250,8.164448,4.992125,3.977110,11.211239
1006.035156,5.281527,10.230019,7.348830,8.041920
1006.039062,10.266418,3.941741,5.323617,0.283475
1006.042969,9.529736,0.976217,8.074512,1.263169
1006.046875,-1.209038,1.837591,-3.449203,0.190820
1006.050781,4.331463,-3.531880,3.095901,3.896219
1006.054688,-2.007406,-11.252042,-6.721162,-1.848798
1006.058594,-6.180405,-4.454421,-5.678443,-7.650895
1006.062500,-5.448073,-3.942480,-7.068894,-3.510605
1006.066406,-7.198895,-6.810769,-13.067986,-11.806278
1006.070312,-9.184878,-6.517984,-10.934501,-17.629073
1006.074219,-14.677590,-16.137604,-12.419109,-10.091279
1006.078125,-13.372562,-15.453562,-11.342860,-7.099939
1006.082031,-9.178571,-11.862637,-17.822317,-17.045439
1006.085938,-14.830361,-7.545136,-13.344077,-5.235205
1006.089844,-4.752559,-0.690465,-4.869377,-2.056200
1006.093750,-1.785894,0.978934,1.158685,-1.829839
1006.097656,1.559854,-4.935346,0.992233,-7.641911
1006.101562,2.855505,5.854580,0.476944,-2.427894
1006.105469,0.017771,-2.601271,-0.115095,8.526146
1006.109375,5.412771,0.433593,4.095468,2.711807
1006.113281,8.749642,3.937840,17.287820,10.326899
1006.117188,7.522936,12.408632,0.827225,8.093715
1006.121094,9.337757,10.430274,10.169324,10.217493
1006.125000,8.991426,7.984072,11.930805,14.636867
1006.128906,13.412348,11.184882,4.387821,15.605952
1006.132812,8.665276,8.488652,7.638598,6.235590
1006.136719,6.606399,5.063684,4.396123,4.470667
1006.140625,5.480083,7.395747,11.666715,5.183997
1006.144531,10.065843,-4.977548,3.301075,-1.650185
1006.148438,0.078513,-0.904977,1.450103,4.010545
1006.152344,-1.141923,-1.532344,-8.509106,2.346615
1006.156250,-3.148241,-7.073109,1.120476,-0.917464
1006.160156,1.749447,-9.136169,-1.942506,-12.497862
1006.164062,-11.315340,-5.462383,-9.906898,-7.972103
1006.167969,-11.872813,-7.189888,-0.580924,-9.292645
1006.171875,-9.102187,-9.646383,-5.890833,-12.631933
1006.175781,-16.516789,-7.981075,-12.652134,-10.824498
1006.179688,-6.486396,-13.762485,-11.935000,-3.324059
1006.183594,-8.014323,-8.538483,-8.980184,-7.806321
1006.187500,-19.031035,-7.000610,-14.177674,-7.974250
1006.191406,-2.029947,-7.703143,-4.497045,-3.341635
1006.195312,-2.612163,-4.443574,0.871587,-9.153502
1006.199219,-1.362688,-1.504023,-0.581699,-4.504390
1006.203125,2.594412,-2.306468,2.560621,-0.821066
1006.207031,10.643988,2.702473,-2.353412,5.832011
1006.210938,9.191684,-1.221827,8.844617,9.873713
1006.214844,6.786785,8.042264,13.160212,10.890744
1006.218750,4.475529,11.878901,9.689499,3.378337
1006.222656,10.872972,11.095130,7.846166,8.050206
1006.226562,4.504854,9.512868,12.373081,9.850222
1006.230469,10.255034,9.930121,5.208630,5.208803
1006.234375,7.328894,8.274184,6.726745,4.753838
1006.238281,1.369729,12.032890,10.194455,4.237726
1006.242188,3.545413,5.744816,4.517739,0.937249
1006.246094,1.898129,7.820483,-0.796148,5.124253
1006.250000,-9.120223,1.670149,-4.771497,-0.858636
1006.253906,-4.719706,0.261073,-0.976287,-6.648088
1006.257812,-11.345232,-1.220331,-2.272621,-9.276765
1006.261719,-5.860996,-7.068069,-4.973921,-1.858141
1006.265625,-3.197967,-7.015794,4.090409,-2.486181
1006.269531,-9.173767,-8.355298,-14.916769,-1.674420
1006.273438,-8.788482,-6.518673,-11.812280,-7.931475
1006.277344,-11.202492,-9.457539,-8.864852,-3.234150
1006.281250,-16.874577,-10.532054,-7.403406,-15.087528
1006.285156,-8.618847,-1.888443,-7.369055,-4.365344
1006.289062,-0.773078,-1.619598,-4.910088,-10.778501
1006.292969,-7.825975,-2.978735,-9.971688,-12.407545
1006.296875,1.955998,-4.353437,-0.166217,-3.528638
1006.300781,-1.566051,2.388188,-2.455538,3.133288
1006.304688,1.373256,1.094784,3.135228,0.328836
1006.308594,4.546692,5.282801,9.632193,2.330011
1006.312500,1.541250,15.540667,8.256284,-0.083231
1006.316406,9.928841,7.983048,7.690365,3.681068
1006.320312,9.558791,12.329920,10.813639,12.685126
1006.324219,7.699708,10.628895,12.662387,4.451840
1006.328125,9.987507,19.069447,10.206069,6.515510
1006.332031,3.713686,12.345279,5.849568,14.593901
1006.335938,1.401259,10.072669,5.844221,6.278147
1006.339844,4.880192,8.846913,5.586066,9.856426
1006.343750,3.995587,8.188430,4.619734,7.001374
1006.347656,0.417946,2.301575,-3.810011,-6.153102
1006.351562,1.964647,-1.537688,4.586842,-8.511482
1006.355469,-3.759579,-5.786373,-10.714382,-6.459984
1006.359375,-11.980888,-10.684063,-8.341330,-10.251292
1006.363281,-12.110195,-4.929154,-3.586088,-5.558743
1006.367188,-9.734757,-9.986866,-12.861238,-11.848185
1006.371094,-11.449561,-15.611619,-13.987037,-10.776855
1006.375000,-9.447383,-12.898892,-5.667214,-4.723346
1006.378906,-10.624399,-16.867468,-7.911551,-4.259498
1006.382812,-4.075955,-7.565138,-9.102785,-11.013489
1006.386719,-0.064193,-8.234364,-9.657850,-9.928018
1006.390625,-1.148324,1.688093,-4.381495,-8.253972
1006.394531,1.171254,-0.349623,3.614778,-5.654658
1006.398438,1.913615,-3.339215,0.645047,-0.350140
1006.402344,4.072183,-5.127291,-4.350030,-3.822079
1006.406250,6.000028,-0.461324,14.796161,3.612477
1006.410156,8.760804,12.647115,3.956613,0.729160
1006.414062,6.113659,7.828376,11.238535,7.182587
1006.417969,6.944054,7.277862,8.870023,7.979616
1006.421875,11.575603,10.800111,10.188019,3.531887
1006.425781,8.244318,9.982907,10.368687,7.554332
1006.429688,6.561888,0.897340,8.623315,8.377602
1006.433594,4.407053,1.054084,3.171173,8.406719
1006.437500,11.471174,1.051105,7.370411,6.731006
1006.441406,4.997432,9.451356,11.190170,0.603422
1006.445312,-2.020796,-1.914768,10.317252,1.907749
1006.449219,5.111571,-0.885547,-0.774716,-4.094451
1006.453125,-1.646282,-1.154409,2.398483,0.320575
1006.457031,-1.902062,-9.124259,-4.473733,-4.960242
1006.460938,-11.809862,-0.691019,-2.896161,0.113084
1006.464844,-7.252201,-11.423186,-13.798149,-2.034441
1006.468750,-6.823474,-6.546279,-11.558504,-15.635309
1006.472656,-4.131399,-8.542462,-9.982782,-14.733657
1006.476562,-11.478211,-13.740679,-9.007798,-13.107626
1006.480469,-9.049167,-10.273472,-14.794378,-13.425617
1006.484375,-7.490693,-15.282656,-3.076255,-10.569182
1006.488281,-2.765481,-0.353461,-12.199405,-0.003968
1006.492188,-5.248608,3.344758,-0.537455,-7.022313
1006.496094,-4.026452,1.064137,3.954367,-2.916721
1006.500000,0.102593,1.634281,-4.388595,-4.509625
1006.503906,3.440925,3.091220,-1.091139,-1.375097
1006.507812,11.282133,9.206013,7.779250,4.093475
1006.511719,10.973226,3.497939,10.061242,5.280123
1006.515625,6.469171,6.707158,0.151753,7.925036
1006.519531,10.729088,8.622584,8.321074,21.666117
1006.523438,8.515038,9.221554,14.225310,11.553394
1006.527344,10.557222,5.470156,6.911453,9.449087
1006.531250,8.254349,1.944767,10.884022,6.401607
1006.535156,3.703296,11.238194,13.690745,7.785480
1006.539062,1.271497,6.266304,8.307219,0.232836
1006.542969,-7.252069,4.748573,0.154041,7.467736
1006.546875,-3.653987,1.934470,-1.322536,1.688467
1006.550781,-4.567806,0.286930,-2.415003,-2.791273
1006.554688,4.102165,-8.111808,1.763522,-4.489120
1006.558594,-6.186712,-4.942320,-3.342420,-6.375772
1006.562500,-8.188163,-8.746637,-7.213627,-6.586954
1006.566406,-8.800477,-5.395659,-8.726927,-9.205090
1006.570312,-5.551426,-12.787159,-10.101463,-13.213793
1006.574219,-17.528021,-5.741724,-6.928096,-9.733624
1006.578125,-9.597011,-6.813030,-14.249487,-6.631956
1006.582031,-12.468069,-9.336910,-3.885993,-12.132778
1006.585938,-6.035888,-12.369541,-4.755831,-9.042910
1006.589844,1.953861,-9.835310,-3.189544,-5.984091
1006.593750,-1.149154,-7.379436,2.248828,-4.436723
1006.597656,-0.016034,0.425853,-0.373352,1.754954
1006.601562,-0.118455,-5.612785,7.129521,-2.804784
1006.605469,3.037786,1.616364,2.638810,-0.182244
1006.609375,8.979319,6.308955,6.261722,10.837060
1006.613281,15.259204,12.180423,9.513822,-3.357233
1006.617188,11.458734,7.407922,9.837702,5.328921
1006.621094,12.021140,10.555151,4.129881,15.340189
1006.625000,7.463023,22.188065,5.780915,8.296679
1006.628906,14.801327,20.006767,8.830693,7.620709
1006.632812,5.468824,8.025732,8.276489,17.304476
1006.636719,17.404001,10.366990,3.432702,10.551739
1006.640625,8.089158,3.728385,4.345877,7.147744
1006.644531,4.738083,5.884045,6.228793,9.013824
1006.648438,0.634997,-8.190878,-2.792835,-3.234295
1006.652344,-3.166284,-2.093208,0.703538,-7.233569
1006.656250,-5.169927,-4.702877,2.779786,-12.354192
1006.660156,-6.361373,-1.275838,-11.928354,-2.769653
1006.664062,-4.973223,-11.096555,-9.240736,-8.942242
1006.667969,-11.650706,-11.038761,-5.304907,-15.050550
1006.671875,-6.003781,-11.955313,-11.993030,-9.247874
1006.675781,-7.799477,-8.373225,-9.206671,-7.447534
1006.679688,-9.769354,-17.728234,-9.387722,-10.034950
1006.683594,-6.490107,-10.259612,-12.418667,-4.453812
1006.687500,-9.427807,-14.468257,-6.372810,-10.035289
1006.691406,-6.025138,-13.860411,-9.157139,-2.460252
1006.695312,1.983658,0.038477,-1.644723,-0.286829
1006.699219,4.216818,3.125212,-4.676734,-1.893960
1006.703125,4.086497,2.305737,6.416570,-5.595779
1006.707031,8.995629,4.966455,2.760610,6.335574
1006.710938,9.748732,14.856305,-1.937180,8.433132
1006.714844,7.493503,12.769974,13.327105,7.640981
1006.718750,9.368311,8.328801,11.403401,3.989614
1006.722656,11.552841,13.144268,7.774329,6.993613
1006.726562,14.799801,4.808942,4.018074,5.402827
1006.730469,15.104475,11.606887,14.467295,8.517574
1006.734375,15.291099,16.015421,7.532540,9.570725
1006.738281,-3.611326,13.552241,11.312478,6.561073
1006.742188,14.330035,4.240619,4.835168,5.457082
1006.746094,-4.820087,2.292783,-1.659630,3.256492
1006.750000,-2.975525,4.450901,2.003973,3.953464
1006.753906,-7.759084,-9.654637,1.255129,-13.989094
1006.757812,-2.883978,-4.246741,-5.615094,-10.512090
1006.761719,-4.134042,-7.142127,-11.859925,-10.953900
1006.765625,-7.262110,-15.736003,-12.860178,-10.239821
1006.769531,1.433996,-12.085607,-8.421878,-8.762799
1006.773438,-4.391219,-16.309651,-9.139833,-5.268570
1006.777344,-13.901340,-5.826970,-12.904273,-4.139746
1006.781250,-4.534637,-11.914394,-6.231007,-8.836044
1006.785156,-11.123270,-14.312256,-0.549302,-6.548717
1006.789062,-7.803656,-8.372040,-7.888687,-11.686780
1006.792969,-3.220737,-0.631749,-10.313739,-9.077611
1006.796875,-4.261046,-6.559459,1.245673,-1.876851
1006.800781,7.974288,0.399362,-0.329930,-0.380580
1006.804688,2.027129,-0.221767,-3.865610,1.785241
1006.808594,1.496048,7.971121,9.576204,10.719785
1006.812500,5.654098,5.677003,7.734679,2.890394
1006.816406,8.661657,2.275805,7.766991,12.308133
1006.820312,2.905406,8.083430,11.146332,14.992784
1006.824219,8.244318,15.246640,10.515101,15.336382
1006.828125,9.799074,12.454625,16.756650,10.393379
1006.832031,8.251275,6.244030,9.737689,7.784281
1006.835938,6.889460,1.510214,5.596894,6.538787
1006.839844,10.215134,-1.849036,5.770594,10.633984
1006.843750,5.489792,6.532549,5.349838,-9.322124
1006.847656,-7.008096,-10.726266,-1.091823,1.296116
1006.851562,2.634650,8.120162,-0.540055,-0.206660
1006.855469,2.618863,4.531927,5.325947,-7.973359
1006.859375,-4.252792,-6.940513,-9.397896,0.613778
1006.863281,-14.607314,-8.234199,-10.717510,-1.602104
1006.867188,-3.585330,-5.045830,-16.794396,-19.201315
1006.871094,-8.355129,-14.510257,-7.189616,-10.413346
1006.875000,-6.148426,-12.901743,-10.528598,-11.785827
1006.878906,-9.564186,-7.282593,-7.402271,-13.301976
1006.882812,-7.721499,-14.492792,-11.613982,-5.429542
1006.886719,-12.288240,-9.583685,-9.429804,-10.193211
1006.890625,-0.497886,-7.814427,-1.923430,-4.040945
1006.894531,-2.196947,-1.442240,-0.649915,-5.922134
1006.898438,-0.872759,0.547142,0.730001,-2.093649
1006.902344,-4.942743,3.724437,4.153047,2.537820
1006.906250,7.555426,4.819634,0.173017,-5.178864
1006.910156,4.791296,0.457005,6.591424,6.167143
1006.914062,10.175397,6.044810,6.626465,10.197703
1006.917969,9.539530,4.064667,6.933784,8.172577
1006.921875,15.265254,19.212664,12.585432,16.720380
1006.925781,9.950009,7.070751,10.519896,14.617257
1006.929688,3.170461,8.234337,8.291146,14.671937
1006.933594,7.217698,17.802795,6.234562,8.544935
1006.937500,8.091782,0.663075,14.260091,5.887340
1006.941406,3.851833,10.618336,-4.395149,9.890150
1006.945312,2.394312,4.532348,7.727903,-1.519902
1006.949219,-4.456215,-1.645734,-1.603170,6.452040
1006.953125,-4.533902,-2.878699,-0.377696,6.122896
1006.957031,-7.683352,-9.371876,-4.785141,-7.164727
1006.960938,-7.701058,-4.871796,-7.464575,-5.301468
1006.964844,-8.059403,-6.256597,-6.270412,-15.635640
1006.968750,-9.751273,-6.532410,-9.555165,-6.841982
1006.972656,-12.833231,-10.499392,-13.034545,-14.448530
1006.976562,-4.935037,-12.229892,-14.912530,-9.464714
1006.980469,-9.935711,-2.470963,-7.937097,-13.582727
1006.984375,-8.592876,-11.438342,-6.593923,-7.890404
1006.988281,-9.072774,-7.303114,-2.090190,-10.177603
1006.992188,-5.620184,-5.355741,-6.726129,-6.148519
1006.996094,-3.051812,1.159993,0.020886,-5.311408
1007.000000,-1.764654,5.467993,5.489716,-4.662046
1007.003906,-8.729628,3.981325,4.545366,-0.216212
1007.007812,5.038461,2.079389,7.375682,-1.396579
1007.011719,0.500562,1.678284,5.538116,7.525002
1007.015625,13.094214,3.034648,9.793108,5.888961
1007.019531,16.363110,8.576269,15.102511,9.560924
1007.023438,16.207169,4.768511,8.183616,6.941922
1007.027344,6.453289,9.531890,9.694521,5.913485
1007.031250,7.841445,12.216901,12.294584,17.114425
1007.035156,10.443275,13.860053,6.500730,8.260213
1007.039062,4.853239,6.577298,11.461409,10.175919
1007.042969,-1.093064,0.864993,-0.900962,5.581174
1007.046875,-9.080366,-2.977110,-0.794821,-0.852564
1007.050781,1.348172,-5.801322,4.148395,4.009846
1007.054688,-2.775367,-2.255445,-0.193011,-5.222980
1007.058594,-4.321131,-3.651560,-8.182522,-1.158353
1007.062500,-6.952049,-7.720010,-3.749060,-3.925439
1007.066406,-12.619761,-8.396794,-5.735508,-5.442347
1007.070312,-7.851404,-11.858823,-11.242876,-4.584033
1007.074219,-7.777579,-8.304431,-15.551331,-5.909813
1007.078125,-6.855370,-10.623697,-14.850457,-10.523058
1007.082031,-5.292131,-4.855066,-6.447590,-8.265645
1007.085938,-11.095792,-6.875560,-5.645662,-7.661745
1007.089844,-12.286490,-6.610956,-6.089420,-4.550481
1007.093750,3.915063,-5.251316,4.692357,-8.735607
1007.097656,3.631385,-1.156745,2.919398,-2.516648
1007.101562,5.597945,3.472151,1.137368,0.549963
1007.105469,-0.282861,3.338847,0.400106,3.610687
1007.109375,-0.183466,3.111297,12.946091,1.783920
1007.113281,7.007468,0.562486,5.887644,-0.372354
1007.117188,4.153432,3.981259,7.999970,11.238808
1007.121094,8.975464,11.031148,8.496940,4.325621
1007.125000,2.973462,9.785363,4.211256,11.917379
1007.128906,10.708791,7.792083,10.873777,9.273871
1007.132812,2.949203,5.882023,8.364411,8.467989
1007.136719,6.139731,9.849352,9.039558,7.965145
1007.140625,9.601901,8.774359,1.276191,10.122661
1007.144531,-1.267872,-6.153250,0.266996,7.735626
1007.148438,2.991356,6.998581,2.449918,-0.070793
1007.152344,1.615335,-8.420248,-3.927555,6.248823
1007.156250,-0.030225,4.137186,-6.742729,-6.154582
1007.160156,-7.972107,-0.968297,-4.594087,-5.507723
1007.164062,-2.065594,-9.464007,-5.889736,-10.516153
1007.167969,-12.770495,-1.221780,-15.871597,-16.732313
1007.171875,-9.026361,-7.267803,-11.533497,-12.880377
1007.175781,-7.894756,-5.943532,-12.431907,-9.786473
1007.179688,-13.791980,-13.684478,-15.377819,-7.551920
1007.183594,-3.780149,-12.201473,-5.179394,-6.224140
1007.187500,-8.660197,-7.772080,-4.914432,-9.188037
1007.191406,-4.956959,-1.856161,-6.873256,-10.954629
1007.195312,-2.730682,-7.342804,-4.959451,-2.909598
1007.199219,3.614762,-4.081233,-3.152524,-7.848959
1007.203125,3.625699,-4.641132,3.605548,-3.923192
1007.207031,3.313215,4.125868,5.202422,-2.642750
1007.210938,5.051565,2.498605,11.842420,8.560715
1007.214844,11.480837,12.335093,7.480630,9.455079
1007.218750,11.225600,5.577043,9.722447,13.656455
1007.222656,14.150265,7.893967,7.771337,-2.029425
1007.226562,5.571603,5.888700,14.969086,12.041157
1007.230469,17.738475,11.415198,13.206251,8.277680
1007.234375,11.642921,2.341968,10.077674,12.908657
1007.238281,7.594456,6.958004,5.516559,7.715979
1007.242188,1.830181,10.106409,0.986956,1.550581
1007.246094,4.678272,3.175581,5.483653,5.327306
1007.250000,4.214728,4.240344,1.607291,6.831398
1007.253906,-3.653312,-0.843663,-5.498952,-1.110427
1007.257812,-3.442736,-3.593932,-10.227207,-1.583516
1007.261719,-5.784148,-6.283317,-0.668652,-8.163576
1007.265625,-12.993468,-9.463607,-11.302271,-3.470568
1007.269531,-10.154197,-10.422657,-3.650782,-7.140764
1007.273438,-13.654471,-11.776254,-14.337284,-6.945753
1007.277344,-3.446675,-12.434426,-14.502383,-9.801168
1007.281250,-9.508305,-7.080136,-10.213533,1.394550
1007.285156,-16.633173,-11.609870,-5.632714,-15.312246
1007.289062,-7.548612,-1.672031,-6.701098,-9.746398
1007.292969,-6.914244,-11.416053,-7.060055,-1.023776
1007.296875,4.612289,1.093476,-1.438323,-3.812551
1007.300781,-6.395938,0.351866,-1.545541,4.303301
1007.304688,-2.749823,-1.456353,-4.302914,2.230958
1007.308594,9.496726,5.665303,5.782447,1.896029
1007.312500,15.795375,3.913240,8.258365,4.673647
1007.316406,15.840464,7.218974,7.084769,8.222579
1007.320312,5.655395,12.969853,12.950650,13.528588
1007.324219,8.555800,7.182309,13.721979,0.936296
1007.328125,9.029194,13.706674,10.804997,5.124813
1007.332031,12.315671,11.999509,8.357958,12.244743
1007.335938,3.707126,11.286518,15.211365,6.821892
1007.339844,-1.051938,6.978682,9.918175,6.699888
1007.343750,-0.305495,-2.008592,7.143976,3.541486
1007.347656,-5.229327,4.861589,-0.112043,-3.808781
1007.351562,-5.698522,-7.842898,-0.637592,0.927998
1007.355469,2.656851,-3.754362,-0.182930,0.368926
1007.359375,-2.800721,-0.997000,-2.489789,-10.075640
1007.363281,-3.761905,-8.237028,-2.550326,-7.357351
1007.367188,-7.058810,-7.955436,-8.336954,-10.064056
1007.371094,-7.160504,-11.514984,-9.316799,-13.114923
1007.375000,-16.029859,-8.785394,-10.959586,-15.543570
1007.378906,-6.186866,-12.253405,-12.340071,-12.609676
1007.382812,2.767991,-11.979745,-9.350977,-11.201095
1007.386719,-10.436713,-7.844345,-8.423000,-6.585068
1007.390625,-10.496366,-10.263914,-12.009448,-10.369501
1007.394531,-0.376129,1.768038,-6.572479,-3.282671
1007.398438,2.184730,-3.088214,-6.806909,-3.737149
1007.402344,2.250281,-3.039499,-3.466246,7.440973
1007.406250,5.766295,2.529828,2.386369,4.447172
1007.410156,0.498506,0.316307,8.614522,5.330943
1007.414062,15.134477,0.345718,14.602587,10.825052
1007.417969,10.503371,14.891753,7.157951,8.281527
1007.421875,6.993670,7.199971,7.732143,11.086230
1007.425781,11.850833,11.519560,6.490768,2.887347
1007.429688,4.744539,14.686434,5.920954,15.056060
1007.433594,6.705294,12.348489,10.588176,6.840243
1007.437500,10.404516,13.477965,5.483143,11.491089
1007.441406,6.848340,1.202547,9.766787,7.023483
1007.445312,-0.378560,7.834812,4.229116,0.796395
1007.449219,-1.691007,7.598284,-7.766569,3.577841
1007.453125,0.647293,-1.020461,-7.499354,-0.471536
1007.457031,-0.659786,-8.079049,-3.056236,-7.089840
1007.460938,-8.340209,-5.508408,-5.745528,-5.243335
1007.464844,-3.910749,-3.112449,-12.659794,-9.932405
1007.468750,-8.313977,-12.882274,-6.427406,-8.574224
1007.472656,-0.916408,-10.696721,-16.283762,-7.783241
1007.476562,-9.484520,-11.753119,-0.266230,-12.021778
1007.480469,-4.514961,-5.585252,-2.148753,-10.048194
1007.484375,-11.203063,-10.795880,-11.179292,-8.927719
1007.488281,-9.408286,-7.498070,-12.689892,-5.673816
1007.492188,2.527004,-4.178204,-4.396912,-6.141444
1007.496094,3.267756,-0.128481,-0.057451,-6.405662
1007.500000,3.259664,-1.031685,4.304739,-11.489138
1007.503906,5.342472,2.192746,5.361460,2.056568
1007.507812,5.598731,6.932208,2.546676,3.908855
1007.511719,2.143099,0.897087,7.821651,10.254192
1007.515625,10.350345,12.112589,7.116329,2.272797
1007.519531,6.715721,5.654587,7.831210,5.001604
1007.523438,5.539632,10.340093,4.716183,11.411765
1007.527344,11.307891,2.229722,9.900795,16.834887
1007.531250,10.465396,8.763064,7.824834,5.687271
1007.535156,7.388657,3.427244,6.470088,0.460419
1007.539062,9.730865,11.148248,2.016206,7.269615
1007.542969,3.237544,13.832748,8.417965,3.986426
1007.546875,4.145202,3.916588,0.954682,-1.643767
1007.550781,5.186455,0.575486,0.888356,-1.324749
1007.554688,-4.288638,-5.671150,-9.930439,0.025871
1007.558594,0.672160,-7.227222,-8.410463,-1.570885
1007.562500,-14.310394,-2.549053,-12.711047,-1.859987
1007.566406,-6.428406,-3.261009,-4.994665,-13.013767
1007.570312,-13.210621,-8.802331,-12.295096,-12.447991
1007.574219,-4.170098,-13.929966,-15.731609,-10.043584
1007.578125,-12.004735,-7.990713,-5.630178,-16.289784
1007.582031,-13.563108,-8.643214,-6.045538,-6.229114
1007.585938,-0.768824,-1.757743,-5.845283,-6.276954
1007.589844,-6.265137,-13.631795,-5.819570,-5.927343
1007.593750,-5.051387,-4.981013,-0.139476,1.284818
1007.597656,-5.478799,-0.683003,-6.586722,-2.888143
1007.601562,9.682048,1.122034,3.922751,6.524712
1007.605469,4.121275,5.002211,4.664447,5.998649
1007.609375,6.016775,15.108956,8.839856,2.887050
1007.613281,6.519147,4.640820,0.446390,6.460866
1007.617188,3.509206,2.055368,13.988369,10.142152
1007.621094,10.251873,14.278420,15.569664,12.713571
1007.625000,4.778215,8.193519,8.245570,5.607319
1007.628906,14.424169,10.442425,8.513015,13.386846
1007.632812,11.043558,6.046224,3.684137,6.885078
1007.636719,10.431106,11.526689,5.235878,4.460993
1007.640625,-0.714416,2.519419,7.544834,7.055850
1007.644531,0.912695,1.018888,3.079817,5.605861
1007.648438,2.550738,2.239527,5.868495,-6.712768
1007.652344,-0.589707,-4.944665,-3.695730,0.004461
1007.656250,4.841585,-1.378344,-11.049258,6.041999
1007.660156,-4.386821,-7.445714,-2.300152,-0.851221
1007.664062,-5.448706,-6.670542,-8.217575,-14.938322
1007.667969,-8.873493,-11.274228,-7.307606,-1.711627
1007.671875,-9.671106,-10.644399,-12.863904,-15.865190
1007.675781,-12.188798,-4.096491,-13.374638,-6.619746
1007.679688,-5.937725,-1.910357,-5.963576,-9.746314
1007.683594,-7.402202,-9.952160,-7.942533,-10.763095
1007.687500,-6.780192,-8.475292,-13.812011,-7.150435
1007.691406,-5.877406,-4.581509,-3.832601,-13.434974
1007.695312,-4.476372,-6.491073,-3.803742,1.826447
1007.699219,0.141720,3.503588,-0.817434,0.103364
1007.703125,-2.580337,4.681527,-3.100262,-4.312358
1007.707031,0.890440,-2.157071,8.172939,7.075107
1007.710938,9.214039,7.301676,-2.431310,5.373064
1007.714844,11.076499,5.491120,9.730988,10.303987
1007.718750,9.462281,4.070169,0.297207,7.144060
1007.722656,14.527847,7.089650,16.496321,10.887384
1007.726562,13.128929,7.200847,9.816395,7.358182
1007.730469,14.542914,6.758365,12.278612,6.027322
1007.734375,6.356679,12.197152,8.614257,9.752400
1007.738281,11.401637,7.284036,0.422027,10.789506
1007.742188,0.454001,10.638833,2.647194,4.828356
1007.746094,-0.564435,0.905362,-0.144672,7.480890
1007.750000,-8.838044,-4.281403,2.821676,0.011663
1007.753906,5.435583,-8.348161,-3.246161,4.319152
1007.757812,1.202163,-5.867268,-9.056423,-0.038341
1007.761719,-5.401189,-5.372483,2.713476,-9.718489
1007.765625,-9.501107,-15.003979,-13.088656,-10.425801
1007.769531,-4.478842,-10.930706,-13.329497,-14.420982
1007.773438,-9.338322,-3.214570,-8.275128,-14.921924
1007.777344,-9.305812,-8.620482,-16.724679,-16.020621
1007.781250,-7.620160,-5.573852,-7.119398,-3.067715
1007.785156,-8.014021,-12.556268,-9.774758,-6.287232
1007.789062,-10.898590,4.796821,-9.077780,-3.959086
1007.792969,2.787262,1.651773,-4.989758,-3.550919
1007.796875,2.427646,-5.024169,-7.697317,2.495466
1007.800781,0.053207,-0.140947,4.728206,0.260681
1007.804688,3.728264,-2.265862,-1.350200,5.887369
1007.808594,4.633446,3.804341,3.795116,2.859166
1007.812500,9.233105,7.920914,9.844291,6.902031
1007.816406,8.273994,7.165927,6.532216,5.932976
1007.820312,14.161716,13.638874,11.464742,9.960449
1007.824219,10.359994,4.123356,8.841799,2.866131
1007.828125,6.376925,12.768890,4.264111,5.172240
1007.832031,12.777575,7.564829,15.876067,1.652595
1007.835938,13.366381,4.613855,3.074352,6.454153
1007.839844,4.948514,5.359617,7.330876,9.004939
1007.843750,1.508134,5.098679,-4.253497,7.135403
1007.847656,1.148473,0.657926,6.806273,9.059670
1007.851562,0.522893,1.506679,-4.850142,-0.695031
1007.855469,2.593975,-2.474658,-3.262242,-7.244830
1007.859375,-4.992811,-1.804825,-4.009551,-7.930253
1007.863281,-15.049764,-7.325751,-6.141518,-3.765538
1007.867188,-10.518837,-8.887123,-5.748909,-9.502883
1007.871094,-8.596376,-8.897818,-10.438300,-5.896675
1007.875000,-4.693639,-11.127449,-1.236916,-23.114584
1007.878906,-6.192297,-4.273823,-11.624468,-15.105338
1007.882812,-8.391623,-13.555643,-15.037570,-10.815696
1007.886719,-9.173897,1.764775,-14.242723,-3.881920
1007.890625,-3.933189,-3.161989,-12.790793,-5.735944
1007.894531,-7.909396,-2.787315,-4.751374,-7.241911
1007.898438,1.483398,-0.672202,-1.745055,1.754801
1007.902344,-1.754470,-0.439650,5.827095,-1.810709
1007.906250,9.671958,3.018335,-3.081547,5.756611
1007.910156,3.703042,12.827772,12.567003,10.371538
1007.914062,8.107265,14.120613,1.448336,5.781755
1007.917969,11.043311,4.724513,5.509698,7.314303
1007.921875,11.542071,11.959779,13.009173,9.942238
1007.925781,8.407570,13.900939,11.832355,11.017135
1007.929688,4.614174,8.545941,16.524532,7.912833
1007.933594,7.373159,5.660572,10.302039,7.725146
1007.937500,9.105627,6.071585,4.275994,5.826160
1007.941406,6.909510,10.187294,6.987852,11.631777
1007.945312,2.414979,4.437779,-5.883341,4.304016
1007.949219,3.028785,3.770796,-2.753606,-2.420744
1007.953125,-6.111238,-6.796118,0.992571,-0.538717
1007.957031,-6.075776,3.158754,-5.693577,-1.665600
1007.960938,-7.149787,-5.294232,-4.241568,-5.943104
1007.964844,-12.814030,-10.422328,-5.027652,-4.682558
1007.968750,-11.251631,-4.511406,-12.710691,-2.368266
1007.972656,-9.748259,-18.690491,-5.993940,-9.100347
1007.976562,-6.499933,-8.450761,-18.220091,-6.510072
1007.980469,-13.464217,-8.336144,-3.936889,-12.186736
1007.984375,-8.802096,-6.421078,-2.235888,2.018831
1007.988281,-7.185124,-8.264847,-4.681829,-11.757024
1007.992188,-5.110084,-8.007302,-5.246815,-1.115156
1007.996094,-7.421548,-5.223881,-0.280405,2.446292
1008.000000,1.087990,-2.515860,-0.343083,-7.777532
1008.003906,1.270715,-3.227841,-2.522348,9.392435
1008.007812,0.493476,7.333279,6.521435,7.491855
1008.011719,9.203743,9.882274,12.356108,5.648838
1008.015625,5.701919,4.648058,7.363781,11.219012
1008.019531,12.530475,6.083222,15.448686,7.516524
1008.023438,4.822145,7.191884,4.135684,6.098440
1008.027344,2.397105,11.653090,9.987708,14.134596
1008.031250,12.679785,6.968269,6.779478,7.694686
1008.035156,8.461557,8.821545,4.418677,7.300313
1008.039062,2.317484,6.671281,9.023407,11.335181
1008.042969,8.066618,1.716676,2.687866,9.007880
1008.046875,-0.319188,8.444667,-7.301002,9.427154
1008.050781,-3.523503,3.845949,4.381926,2.778321
1008.054688,1.428035,-3.085441,0.679156,-1.189461
1008.058594,-10.628932,-2.437540,1.475376,-10.048727
1008.062500,-12.402587,-4.066547,-2.619076,-8.261498
1008.066406,-4.215979,-5.771301,-11.028853,-8.210863
1008.070312,-5.833736,-7.993663,-1.347872,-3.262624
1008.074219,-8.527524,-12.941937,-10.375043,-4.431421
1008.078125,-11.155822,-12.316448,-8.560456,-13.497877
1008.082031,-9.997583,-5.921903,-7.683492,-12.155008
1008.085938,-13.068551,-3.890460,-8.576509,-6.994974
1008.089844,-6.500432,-4.092318,-3.132505,-6.100787
1008.093750,-2.520423,-7.015417,-0.292100,-1.623966
1008.097656,-0.096891,3.350113,0.933553,-4.551072
1008.101562,3.342925,7.011430,4.088976,-6.288911
1008.105469,3.862859,-0.319446,4.978142,6.451089
1008.109375,1.031410,2.958092,2.695315,13.941798
1008.113281,8.580361,4.620494,3.031522,9.002913
1008.117188,3.308500,8.636730,17.550736,9.193918
1008.121094,9.161057,0.481292,6.234244,10.752722
1008.125000,14.319843,10.083320,4.486325,7.753037
1008.128906,15.160464,9.901998,2.130253,7.165175
1008.132812,16.372316,6.857092,15.479672,6.028733
1008.136719,11.377915,9.382062,14.679171,6.157354
1008.140625,1.340426,3.513777,-1.812308,5.823283
1008.144531,8.229042,6.850772,-2.800425,2.467586
1008.148438,4.976281,-0.722737,-6.614122,4.420175
1008.152344,4.685384,7.825306,1.162350,-3.620227
1008.156250,-15.344440,-7.506669,-9.980900,-5.624740
1008.160156,-1.900751,-7.845294,-3.450832,-6.672559
1008.164062,-14.711093,-5.436238,-12.973793,-5.743052
1008.167969,-4.644558,-9.594591,-10.586156,-6.324010
1008.171875,-9.948412,-10.920901,-13.590034,-13.319559
1008.175781,-9.633173,-12.229974,-13.795297,-11.508012
1008.179688,-5.507665,-14.067118,-10.529898,-7.491652
1008.183594,-7.794848,-10.180776,-8.460692,-10.105137
1008.187500,-6.242189,-1.367986,-8.806534,-4.154175
1008.191406,-12.394023,0.652102,-8.544151,-11.346966
1008.195312,-2.554066,-11.681082,-3.837529,-4.042094
1008.199219,0.050133,2.108141,-4.282160,-0.234166
1008.203125,-0.937094,0.742303,-3.181818,0.114352
1008.207031,5.457406,7.363263,2.397595,-0.630059
1008.210938,7.228366,6.895472,3.339875,1.500552
1008.214844,0.605209,9.953748,11.965513,9.659531
1008.218750,10.538281,7.156616,5.849035,6.913445
1008.222656,15.480670,12.453996,9.813553,8.843984
1008.226562,15.875789,4.662362,5.876421,11.106769
1008.230469,6.810963,14.806316,14.126909,2.276144
1008.234375,7.218962,-5.211079,4.046062,5.954513
1008.238281,10.319855,7.155209,5.268463,-2.755424
1008.242188,5.890276,2.201057,-1.477992,-0.592548
1008.246094,3.444802,3.746413,4.842520,8.417759
1008.250000,1.100831,-0.108245,2.403836,-4.232308
1008.253906,6.353586,-9.365202,-3.996600,-3.011533
1008.257812,-1.602081,-2.599871,-3.971399,1.701675
1008.261719,-7.317644,-2.838736,-12.301117,-6.809702
1008.265625,-11.558290,-9.310409,-5.262062,-8.706128
1008.269531,-10.136996,-10.216441,-13.299821,-15.834483
1008.273438,-12.838096,-7.822551,-7.136039,-9.647227
1008.277344,-12.625666,-7.931691,-11.586835,-7.929827
1008.281250,-10.115357,-9.651614,-12.643598,1.416400
1008.285156,-2.543511,-10.717149,-6.454640,-11.248919
1008.289062,-3.469908,-8.605584,-6.173598,-12.389391
1008.292969,-2.483086,-2.453671,-6.031052,-7.780044
1008.296875,5.602068,-2.779432,4.202158,-0.203697
1008.300781,-1.203461,3.208146,0.778699,3.631297
1008.304688,4.089862,4.407539,1.389538,-3.458436
1008.308594,11.560893,12.752947,3.391340,0.634995
1008.312500,17.542092,4.623051,0.906697,2.291596
1008.316406,5.755720,10.977345,11.812340,5.471087
1008.320312,1.834420,14.401170,9.362284,1.070974
1008.324219,11.402938,17.553837,10.928460,12.748433
1008.328125,5.559727,3.035404,6.019902,14.904784
1008.332031,10.768316,10.224161,10.754739,10.212866
1008.335938,7.737619,0.283287,5.382194,5.209433
1008.339844,16.677267,5.446627,5.630672,6.191619
1008.343750,-0.622695,-1.777241,5.587666,1.788821
1008.347656,2.196329,5.988941,-0.024246,0.382293
1008.351562,-1.588833,-6.871902,-1.016896,0.798329
1008.355469,0.274259,-2.302804,-1.157472,2.109785
1008.359375,-3.836837,-12.466936,-2.519884,-10.926110
1008.363281,-5.712673,-6.028571,-13.009731,-11.392641
1008.367188,-11.123376,-8.320354,-10.926707,-12.980836
1008.371094,-11.470868,-9.030531,-12.863282,-14.117289
1008.375000,-9.423605,-18.882925,-0.168080,-12.266794
1008.378906,-6.536876,-3.743459,-6.915284,-13.316969
1008.382812,-7.422023,-10.162057,-4.013396,-12.213412
1008.386719,-8.570829,-10.479572,-10.486803,-9.138288
1008.390625,-3.326464,-4.499584,0.433627,-9.735720
1008.394531,-5.052440,-5.102254,-9.373474,-2.134919
1008.398438,-0.982333,-4.507343,4.667984,-6.521324
1008.402344,3.536441,-3.484624,3.320403,5.385317
1008.406250,1.723861,7.728205,3.793728,5.228595
1008.410156,4.417178,1.653958,1.408773,10.497109
1008.414062,14.336169,2.269526,10.822061,5.240209
1008.417969,10.414151,16.830054,7.074321,14.517127
1008.421875,11.398020,6.680784,7.329735,12.044935
1008.425781,15.874748,9.660159,14.985898,8.050308
1008.429688,16.821253,12.551005,8.406282,6.112716
1008.433594,14.301734,6.431403,6.732512,3.815362
1008.437500,11.340923,6.692563,3.181670,0.282585
1008.441406,4.956014,3.782386,6.779305,7.533284
1008.445312,6.966069,5.149312,1.521944,1.362217
1008.449219,10.284498,-0.423202,-1.322368,-8.436823
1008.453125,-1.290615,-5.641840,2.280460,-3.446163
1008.457031,-2.921952,-9.013258,-10.951479,-9.143313
1008.460938,-3.580616,-10.104541,-4.424509,-4.322635
1008.464844,-7.869620,-9.767250,-7.213064,-3.241163
1008.468750,-12.345833,-11.027508,-7.942620,-7.952367
1008.472656,-11.208570,-16.911230,-6.363875,-7.828750
1008.476562,-4.639109,-5.250637,-7.605923,-9.558660
1008.480469,-3.997725,-5.098886,-8.964040,-13.164173
1008.484375,-12.138827,-3.870285,-15.461395,-14.076447
1008.488281,-8.768487,-12.165036,3.952362,-2.838637
1008.492188,-7.413947,-5.996412,-7.193409,-5.690781
1008.496094,0.534627,-3.179752,-5.968606,-1.675874
1008.500000,-0.117157,-7.206328,-7.581253,6.281093
1008.503906,9.704611,-2.048034,6.885077,4.929210
1008.507812,-0.425801,-1.085176,0.838777,5.679508
1008.511719,0.230082,4.322536,5.655567,5.848263
1008.515625,10.945373,4.544238,9.725061,1.053380
1008.519531,9.558723,5.053584,2.948843,11.484784
1008.523438,11.969950,10.561449,10.845697,6.045338
1008.527344,8.257959,10.071548,13.510012,12.917833
1008.531250,17.648794,17.245354,10.640698,13.618895
1008.535156,6.309807,8.511403,9.059908,10.328766
1008.539062,6.673189,2.327146,4.777208,9.264204
1008.542969,15.740746,1.188138,6.261489,9.268022
1008.546875,0.907791,0.146688,2.373616,2.414648
1008.550781,1.666213,-2.254358,-0.575430,-0.039255
1008.554688,-8.921371,0.456427,-4.745568,0.200595
1008.558594,-3.622951,-11.717136,-9.344140,-0.061372
1008.562500,-6.912367,-8.381120,-7.335338,-3.792285
1008.566406,-4.419686,-17.342089,-6.490840,-10.568927
1008.570312,-1.485709,-12.772147,-4.179185,-11.487624
1008.574219,-4.880246,-11.514848,-11.207372,-5.123040
1008.578125,-5.632549,-12.839430,-11.645854,-7.837519
1008.582031,-1.006802,-12.639953,-10.333678,-8.371532
1008.585938,-3.890266,-5.170064,-7.699755,-4.555937
1008.589844,-4.779692,-6.608996,-4.739430,-5.266484
1008.593750,-7.656467,-2.627658,1.912447,-9.069385
1008.597656,-1.562628,-1.734296,3.600165,-2.611049
1008.601562,6.434713,1.310293,5.251410,7.313799
1008.605469,2.697604,5.965765,3.437904,6.403432
1008.609375,6.280100,6.560776,3.415376,4.349731
1008.613281,2.577201,9.908928,7.285887,9.504846
1008.617188,9.447633,3.218422,2.293862,9.020121
1008.621094,2.506569,19.782792,12.377782,7.015675
1008.625000,5.480817,5.291448,6.478280,13.724542
1008.628906,8.978327,15.324517,5.559889,4.775974
1008.632812,9.591667,4.505699,14.097271,9.192560
1008.636719,12.124551,9.312643,8.726872,6.159805
1008.640625,9.868536,2.383792,1.982938,8.058181
1008.644531,-4.586514,6.720563,-1.836795,-1.216778
1008.648438,3.994408,0.536562,1.043331,7.515553
1008.652344,-2.574938,-1.364579,-1.986293,-1.527729
1008.656250,-2.417736,0.438923,-2.413774,-5.438343
1008.660156,-4.076235,-7.017010,-3.741890,-6.457251
1008.664062,-7.688181,-5.337404,-10.898334,-7.698854
1008.667969,-9.588804,-9.540495,-7.236602,-19.143749
1008.671875,-14.145467,-12.104014,-7.415997,-14.010699
1008.675781,-8.601127,-9.999641,-14.124701,-7.727419
1008.679688,-9.350909,-15.135379,-10.286216,-9.302127
1008.683594,-9.117670,-7.750804,-10.685741,1.488627
1008.687500,-8.806672,-1.156884,-1.102874,-11.205573
1008.691406,-1.465811,-5.561059,-6.428406,-12.162210
1008.695312,-3.884854,-6.008941,-4.732214,-2.378459
1008.699219,-6.372532,0.774425,-1.739383,0.770957
1008.703125,2.480858,-0.178665,2.561530,-0.342307
1008.707031,4.568525,5.073723,9.713692,8.663978
1008.710938,3.070823,12.534327,14.080269,7.576655
1008.714844,3.900012,2.268715,8.752483,9.898152
1008.718750,5.759073,11.644971,10.020888,5.794720
1008.722656,13.048016,12.986497,10.110662,13.843711
1008.726562,12.751207,13.944950,11.319489,6.905180
1008.730469,6.755458,14.242233,4.373537,7.535269
1008.734375,0.953089,6.663271,5.735462,5.545777
1008.738281,3.495662,4.520144,11.998575,1.646473
1008.742188,7.048834,2.911997,6.199920,8.380374
1008.746094,2.962760,5.852309,-0.704047,-0.750423
1008.750000,-7.671882,-0.787945,4.301390,2.710301
1008.753906,-4.683633,-3.377135,0.859335,4.423418
1008.757812,-3.387951,-9.269747,-4.338680,-0.439366
1008.761719,-11.173857,-7.834631,-7.583495,-6.502306
1008.765625,-18.935226,-4.653926,-3.447264,-6.079369
1008.769531,-3.729016,-19.096079,-14.870660,-11.350138
1008.773438,-12.671934,-9.064183,-6.446922,-9.322513
1008.777344,-4.122603,-8.090127,-9.786909,-12.346439
1008.781250,-12.280353,-9.508725,-7.634654,-11.752867
1008.785156,-13.258937,-2.460368,-0.956258,-10.575945
1008.789062,-13.335683,-11.898048,-3.408087,-4.476056
1008.792969,-10.112584,-3.554742,-0.607799,-8.715396
1008.796875,2.676728,-9.465251,1.149900,-2.868487
1008.800781,0.222803,2.774789,-0.153360,-2.334797
1008.804688,4.576958,4.943221,8.941534,5.805710
1008.808594,6.524657,4.877027,11.333565,-6.691261
1008.812500,3.996642,4.167865,8.036377,5.452924
1008.816406,6.801999,7.952529,14.280371,4.262964
1008.820312,5.262268,2.835808,7.222257,10.690226
1008.824219,13.694390,4.723368,8.849635,19.075099
1008.828125,13.754591,12.100634,19.790895,4.283808
1008.832031,8.862989,11.263141,8.762240,5.254100
1008.835938,5.761812,6.390933,7.153890,1.219749
1008.839844,9.165130,9.363937,5.226389,6.375317
1008.843750,2.122319,6.894398,-0.056048,1.109491
1008.847656,1.827716,-3.573962,5.724206,-9.633762
1008.851562,0.628185,2.459349,-3.574228,4.033224
1008.855469,-8.967332,2.229920,-8.926524,-3.897144
1008.859375,-3.465182,-2.015440,-3.596434,1.976432
1008.863281,-3.364959,-10.181134,-4.585266,-0.981813
1008.867188,-7.685910,-5.536595,-6.643081,-12.573460
1008.871094,-8.453874,-12.719121,-6.326958,-9.745285
1008.875000,-10.561528,-10.576526,-10.410825,-12.203894
1008.878906,-14.044488,-2.657640,-9.930257,-2.671416
1008.882812,-11.947540,-11.695716,-7.534557,-10.752241
1008.886719,-13.091726,-10.316113,-6.640262,-13.237105
1008.890625,-2.990114,0.418186,-4.664117,-8.183596
1008.894531,-2.869973,-1.479679,-5.468072,-3.600938
1008.898438,-2.611536,-0.693184,2.448737,-2.661351
1008.902344,9.811879,4.249730,6.684806,1.476746
1008.906250,1.112364,-6.480774,5.264940,-2.878109
1008.910156,10.087514,-1.577535,7.756898,-1.329882
1008.914062,4.377015,16.451773,6.540680,3.325397
1008.917969,13.949817,9.801188,12.821513,8.327316
1008.921875,14.836272,9.695620,5.833820,12.596236
1008.925781,12.882655,12.159122,11.796160,6.731598
1008.929688,8.305273,7.523940,11.436594,9.088346
1008.933594,16.658248,8.473560,13.074244,11.091417
1008.937500,10.255829,14.011570,7.724557,-0.030131
1008.941406,-1.609305,9.514728,10.404727,1.123680
1008.945312,-2.596386,1.524807,6.060311,4.927216
1008.949219,-0.810843,0.445033,-1.487052,3.970523
1008.953125,-0.110488,-3.509464,-0.334804,1.778043
1008.957031,-5.854482,-3.255468,-5.605700,-3.272905
1008.960938,-13.152592,-1.997760,-7.648267,-6.845305
1008.964844,-7.405148,-7.073093,-11.365858,-3.040847
1008.968750,-8.868037,-13.197165,-8.472395,-11.921172
1008.972656,-3.857083,-8.393675,-0.791946,-11.470844
1008.976562,-7.673592,-6.781273,-2.648719,-9.485868
1008.980469,-13.908061,-14.520912,-10.897967,-10.214399
1008.984375,-6.963707,-1.142997,-9.162334,-11.223501
1008.988281,-11.609233,-6.687061,-5.372547,-6.592961
1008.992188,-5.081248,-8.890726,0.199437,-7.719916
1008.996094,-0.113921,-6.712670,0.819847,1.099956
1009.000000,3.364342,1.921317,2.552696,-5.402070
1009.003906,-0.177351,-4.331302,0.812238,5.695808
1009.007812,-0.214085,5.523664,1.494240,-3.026432
1009.011719,8.163951,6.979175,3.231081,12.741360
1009.015625,14.623028,4.966003,9.290151,3.059709
1009.019531,2.990663,-0.784496,14.294217,12.806202
1009.023438,8.485171,2.488427,12.690950,6.640597
1009.027344,11.912750,5.035391,9.673721,12.670280
1009.031250,16.444165,9.582218,4.719817,13.955122
1009.035156,11.774865,6.866992,15.209881,15.085371
1009.039062,5.103252,2.498945,8.979271,19.271220
1009.042969,10.932777,3.808118,-3.443168,3.096162
1009.046875,0.602706,0.432658,1.943880,-2.487646
1009.050781,0.700057,6.582374,0.685892,7.167316
1009.054688,-0.996521,1.155356,1.810394,-4.498123
1009.058594,-2.573752,-0.444305,-3.050703,-11.861588
1009.062500,0.693289,-5.549203,3.535435,-11.940768
1009.066406,-13.891420,-7.439788,-8.040355,-3.138224
1009.070312,-6.414737,-9.698558,-17.649129,-4.652130
1009.074219,-13.153827,-7.471904,-11.919645,-11.237042
1009.078125,-11.377732,-12.212433,-13.990353,-5.160418
1009.082031,-6.957290,-6.127514,-13.985026,-11.672814
1009.085938,-8.330344,-2.677506,-8.538616,-7.237111
1009.089844,-6.472222,-8.851469,-2.697928,-6.935171
1009.093750,1.289158,-1.195137,-4.563285,-7.725351
1009.097656,-3.507961,-4.631531,-4.981459,-0.681539
1009.101562,8.750331,-2.503765,4.845685,6.102672
1009.105469,-3.422463,11.834190,3.564230,3.653654
1009.109375,2.692435,8.308480,1.187104,0.759276
1009.113281,5.359678,4.221629,7.921068,5.823077
1009.117188,-0.637889,3.000819,10.222992,9.944496
1009.121094,13.378726,2.936903,6.754101,0.828426
1009.125000,7.428253,11.938021,20.228938,9.779087
1009.128906,5.528792,7.502099,13.004601,13.168273
1009.132812,12.530542,0.439133,8.736671,5.122225
1009.136719,6.999386,7.839021,7.533882,11.470524
1009.140625,9.724397,5.905568,4.152236,1.533885
1009.144531,4.079246,5.218888,-1.946401,1.711947
1009.148438,-1.965090,-0.184194,0.795999,0.637435
1009.152344,-0.330537,3.227620,4.081647,-3.487414
1009.156250,-4.773661,-8.945165,-8.625970,-5.433240
1009.160156,-2.805004,-2.496674,-1.294355,-11.490728
1009.164062,-5.499417,-8.673786,-4.737330,-2.105554
1009.167969,-14.458222,-10.706260,-6.065569,-6.425533
1009.171875,-11.767200,-14.809593,-12.623045,-12.563128
1009.175781,-9.843161,-4.979518,-7.999558,-5.516502
1009.179688,-12.085277,-10.535783,-4.731244,-5.647910
1009.183594,-10.767540,-11.309904,-9.719331,-3.595211
1009.187500,-10.370256,-12.553589,-7.632531,-12.453929
1009.191406,-8.972424,-2.066902,-5.981372,0.053138
