timestamp,TP9,AF7,AF8,TP10
1000.000000,5.139742,-1.832483,-2.057001,-2.510997
1000.003906,6.968009,-5.333476,-2.498804,1.067532
1000.007812,9.831853,5.875440,5.122897,6.824493
1000.011719,1.124992,5.763486,10.917595,2.228577
1000.015625,7.830557,8.310660,8.232696,8.557695
1000.019531,11.610641,7.794120,13.435729,9.339339
1000.023438,9.410098,8.488754,5.521763,11.485662
1000.027344,15.054967,16.960712,9.990417,8.792601
1000.031250,14.673231,18.303358,1.609997,9.796689
1000.035156,7.121985,3.103334,8.796996,7.883792
1000.039062,3.572818,4.482986,8.972734,9.889742
1000.042969,5.047834,1.079175,15.555207,0.039443
1000.046875,-4.437871,-1.959296,3.576300,2.802142
1000.050781,-10.598011,-3.193175,0.242984,3.358611
1000.054688,-6.276716,-8.245460,-2.262853,-0.723117
1000.058594,-8.624001,-12.184455,-4.188279,-8.226705
1000.062500,-7.002396,-9.722116,-7.226872,-3.966706
1000.066406,-14.602850,-0.501514,-6.390632,-7.491801
1000.070312,-15.689110,-7.531951,-11.367863,-7.106683
1000.074219,-7.120991,-1.239396,-12.369903,-11.259548
1000.078125,-8.984605,-5.423752,-10.250956,-5.133520
1000.082031,-11.436464,-11.557012,-0.777018,-11.806193
1000.085938,0.034828,-1.133409,-9.391301,-7.985035
1000.089844,4.244070,-10.555711,-6.535766,-9.286717
1000.093750,-9.501345,-5.408802,-0.479765,-8.871747
1000.097656,-0.949130,3.319304,0.518251,-0.829820
1000.101562,4.794180,5.266723,-1.878102,3.849006
1000.105469,5.871173,0.774957,10.577680,1.889640
1000.109375,2.058318,9.278650,12.562757,7.963517
1000.113281,6.020152,1.206580,5.537001,7.012086
1000.117188,4.503399,4.266216,10.956884,16.068456
1000.121094,9.895441,17.109800,5.550741,7.383868
1000.125000,9.596176,2.607965,15.270519,11.457405
1000.128906,6.373427,5.916290,12.432987,8.990412
1000.132812,17.247229,14.466669,2.695494,8.417728
1000.136719,3.700807,6.473976,12.410560,7.908941
1000.140625,14.501302,13.055403,3.724562,13.308829
1000.144531,4.399012,8.300853,6.495570,3.896103
1000.148438,-2.567703,6.736127,4.709742,-6.085720
1000.152344,-5.183873,-10.905804,-3.706007,-0.006298
1000.156250,-7.632163,-6.809690,1.358584,-7.496611
1000.160156,-0.066691,-8.238020,0.402101,-3.793106
1000.164062,-2.710708,-8.813119,-6.403905,-8.322607
1000.167969,-10.499398,-12.486652,0.099684,-11.608945
1000.171875,-15.884161,-16.193218,-11.693230,-7.456467
1000.175781,-0.504468,-10.115152,-11.730764,-2.296734
1000.179688,-2.664133,-7.951522,-15.859616,-5.704720
1000.183594,-1.025290,-12.462325,-18.274346,-13.468352
1000.187500,-7.003681,-5.646707,-8.775727,-10.401248
1000.191406,-4.644904,-2.223838,-8.374006,-5.667216
1000.195312,-8.780001,-0.628558,-6.079346,-3.696655
1000.199219,0.177753,1.791886,3.264493,-2.008708
1000.203125,5.621112,2.538050,2.064036,3.450203
1000.207031,1.913763,4.909921,3.078159,6.007682
1000.210938,-1.570196,8.935326,13.639227,5.841988
1000.214844,5.488472,6.583760,13.096433,7.640527
1000.218750,3.338258,3.427377,0.113139,6.695059
1000.222656,14.336421,4.288268,6.045242,-3.520239
1000.226562,12.251533,9.945917,7.797344,20.737462
1000.230469,13.795166,7.923528,8.582724,3.256755
1000.234375,14.411741,8.757173,12.539575,13.368330
1000.238281,14.093016,5.358519,8.418278,13.267109
1000.242188,3.079510,1.723725,1.947106,10.076110
1000.246094,3.874062,2.938596,7.186269,-0.126953
1000.250000,-0.113726,3.526331,1.836056,5.526202
1000.253906,4.256412,-4.668887,-6.532383,-4.763316
1000.257812,-2.732259,-2.801476,-9.411033,-4.762454
1000.261719,1.536324,-10.220116,-8.991889,-12.681657
1000.265625,-14.086386,-10.408512,-15.546453,-9.592436
1000.269531,-7.905737,-9.738573,-10.657574,-10.365700
1000.273438,-9.199942,-8.523728,-11.025113,-8.174966
1000.277344,-11.337180,-10.518834,-1.524230,-10.183724
1000.281250,-3.731994,-11.963368,-5.792268,-9.856188
1000.285156,-4.256323,-2.964572,-16.485120,-10.121557
1000.289062,-3.200859,-6.857600,0.985168,-7.626986
1000.292969,-5.104362,-6.539737,-1.904999,-3.070819
1000.296875,-2.876183,2.293629,0.319623,-1.151655
1000.300781,-2.231066,-2.812639,0.222447,2.068846
1000.304688,3.576331,3.596163,0.222767,1.310474
1000.308594,6.799761,3.788600,3.304099,0.206991
1000.312500,6.265722,4.703516,-1.554714,10.779708
1000.316406,7.811328,8.781318,9.961119,6.801627
1000.320312,5.348360,13.766663,11.656266,6.058047
1000.324219,11.172303,15.560745,7.450309,10.776673
1000.328125,16.264496,9.630869,8.565704,10.939909
1000.332031,9.912797,19.702336,10.565569,4.134607
1000.335938,8.944807,9.909415,1.289547,4.440972
1000.339844,4.402379,9.879598,7.433576,-1.893916
1000.343750,0.794906,4.173399,6.121733,3.853015
1000.347656,-0.849927,-3.734578,-7.178515,9.354173
1000.351562,6.298311,-3.744565,4.114915,-5.898102
1000.355469,-10.982056,-11.772443,2.555680,-1.527321
1000.359375,-7.183456,-8.396035,-7.911263,-4.029320
1000.363281,-7.222676,-4.503210,0.871276,-2.771100
1000.367188,-8.398633,-8.172947,-20.858741,-5.673506
1000.371094,-18.983230,-10.878710,-7.184344,-3.492472
1000.375000,-15.649800,-17.161261,-12.280677,-13.634199
1000.378906,-2.348532,-9.707026,-10.196679,-5.138073
1000.382812,-9.739694,-14.927917,-6.851984,-8.441624
1000.386719,-3.130635,-11.951952,-8.953726,-3.431529
1000.390625,-2.643983,-7.264342,-8.218501,-5.959252
1000.394531,-6.362969,-0.951740,-0.543183,-1.719355
1000.398438,-3.291526,0.802702,-7.905710,-1.989352
1000.402344,1.199123,2.329530,8.004007,7.746245
1000.406250,-6.471696,6.379370,7.107174,6.603495
1000.410156,13.829623,0.616192,10.239211,9.896571
1000.414062,10.430693,9.177027,8.411527,6.519633
1000.417969,4.768019,8.534499,11.917553,20.968300
1000.421875,9.810085,7.949051,11.131700,5.919364
1000.425781,3.370110,16.461864,4.732439,7.439422
1000.429688,11.164554,14.627305,9.552942,6.153496
1000.433594,10.778437,2.698378,4.071086,4.521235
1000.437500,15.860519,4.489244,13.288272,4.809969
1000.441406,0.159896,9.772305,4.808175,3.644999
1000.445312,1.122760,4.712001,0.342781,4.198010
1000.449219,1.835559,-6.982818,2.466007,-1.036372
1000.453125,-4.844271,-3.448514,-2.056065,0.315572
1000.457031,-8.235726,-4.858501,-7.825814,-5.606529
1000.460938,-16.397553,-13.535725,-2.564654,0.573738
1000.464844,-10.226916,-3.873375,-10.189724,-8.625733
1000.468750,-12.843617,-15.418077,-12.962423,-2.715428
1000.472656,-9.597926,-3.676311,-12.761655,-15.095599
1000.476562,-12.046550,-9.656341,-7.863461,-6.943219
1000.480469,-5.206473,-6.317539,-3.696209,-8.794641
1000.484375,-2.819498,-5.261633,-6.528101,-7.548124
1000.488281,-6.584622,-8.944811,-9.790109,-3.760506
1000.492188,-5.397405,-2.655065,-14.878402,-6.213044
1000.496094,-7.161820,0.406958,-8.795124,2.923226
1000.500000,-0.001311,-0.781076,-9.301305,-3.971862
1000.503906,-0.910175,2.409495,3.486672,-0.385286
1000.507812,4.872170,0.680873,0.728684,5.243906
1000.511719,-2.445119,4.009361,2.695599,8.147830
1000.515625,16.288598,8.203283,10.376300,0.286903
1000.519531,4.496463,9.040642,6.623354,12.235226
1000.523438,1.127736,4.827648,12.513700,4.162705
1000.527344,9.688638,11.472823,7.038936,9.739070
1000.531250,13.695686,9.626972,9.213620,17.989736
1000.535156,6.806035,13.253712,13.130546,6.497737
1000.539062,-3.151343,6.199548,7.540154,0.299400
1000.542969,4.208489,1.466380,7.045551,6.196614
1000.546875,1.621726,5.693961,1.925087,0.374908
1000.550781,-1.117718,-6.639503,3.974445,-4.525954
1000.554688,-3.115594,-10.228708,2.195094,-4.654484
1000.558594,-4.171927,-1.720038,-1.623755,-2.945619
1000.562500,4.594079,-1.313178,-8.933861,-15.997141
1000.566406,-5.692618,-4.457634,-11.223114,-13.967513
1000.570312,-9.904914,-4.016418,1.159169,-5.493324
1000.574219,-11.121212,-18.731144,-10.772672,-15.408804
1000.578125,-6.515213,-7.109400,-5.230188,-14.707780
1000.582031,-11.712290,-7.660992,-6.547009,-11.018469
1000.585938,-7.764082,-3.943104,-2.942491,-12.221239
1000.589844,-7.259301,-8.165779,-7.935391,-1.962908
1000.593750,-13.289627,-2.109820,-1.233470,-4.983108
1000.597656,-8.068041,1.916877,-5.030310,-1.229408
1000.601562,-3.461639,3.850834,-7.146492,1.505057
1000.605469,7.844074,7.423866,5.097147,4.767372
1000.609375,3.885280,1.686707,10.154050,3.034407
1000.613281,2.865505,3.381585,15.328461,16.212589
1000.617188,2.264048,13.764341,3.798327,5.951686
1000.621094,4.380619,8.430754,2.767600,9.641229
1000.625000,9.154492,16.427891,8.701681,13.980549
1000.628906,6.841557,15.415909,7.218004,3.145980
1000.632812,14.827473,9.991272,8.878102,6.581717
1000.636719,1.367744,6.603989,4.902655,11.555583
1000.640625,10.688208,3.058895,6.533618,0.728789
1000.644531,8.443877,3.937055,6.693674,-5.809141
1000.648438,3.324465,-0.058026,5.992837,5.961229
1000.652344,2.958663,-1.099880,-8.194783,3.633454
1000.656250,-12.125650,2.593459,-8.057906,-3.129823
1000.660156,-1.578048,-1.348892,-11.929529,-11.748213
1000.664062,-5.149487,-9.108211,-3.390349,-14.340996
1000.667969,-10.198651,-10.992991,-0.968951,-4.189431
1000.671875,-5.076740,-6.956346,-9.649806,-9.374284
1000.675781,0.808901,-6.205686,-12.307695,-2.702514
1000.679688,-4.820145,-14.218137,-10.127120,-7.712798
1000.683594,-16.031767,-13.068302,-17.650839,-11.420089
1000.687500,-5.054434,-9.003705,-9.655850,-9.509409
1000.691406,-6.208249,0.314420,-0.963358,-5.271670
1000.695312,0.351691,-6.758955,2.493376,-5.787760
1000.699219,6.321407,6.973119,1.620312,-6.656162
1000.703125,1.309278,1.529845,-1.441474,-0.757843
1000.707031,0.755071,-2.073618,3.481956,3.592025
1000.710938,3.310150,8.616013,5.417482,7.201012
1000.714844,3.091124,6.767136,9.980113,2.871705
1000.718750,7.554484,4.658133,14.940350,13.432233
1000.722656,3.743248,13.924859,1.367962,12.069933
1000.726562,7.060851,9.223621,16.650239,9.673745
1000.730469,7.031834,8.303636,18.037865,8.265742
1000.734375,16.840092,11.869218,5.120546,10.996012
1000.738281,10.005033,7.424245,0.497646,4.389323
1000.742188,3.348893,3.428255,-0.293331,7.106838
1000.746094,3.589749,7.787757,-3.225193,-1.272900
1000.750000,0.569228,4.653548,1.440485,5.718418
1000.753906,2.347284,4.907189,-5.355423,-2.530801
1000.757812,-9.246768,-9.807252,-1.551349,-7.822267
1000.761719,-8.367465,-7.701075,-6.794270,-0.495590
1000.765625,-7.449616,-13.343386,-6.778077,-12.236076
1000.769531,-10.933898,-5.618634,-9.126731,-4.171745
1000.773438,-18.482432,-3.464073,-7.094418,-15.365053
1000.777344,-11.323521,-11.999925,-10.914356,-14.344354
1000.781250,-2.083014,-12.178603,-11.640334,-16.768519
1000.785156,-6.274196,-16.721029,-8.897416,-10.010624
1000.789062,-4.558970,-5.400661,-5.524373,1.569049
1000.792969,-4.440341,-4.562102,-3.316145,-2.307496
1000.796875,3.090255,1.037781,-0.723831,2.047136
1000.800781,-0.082764,-0.536842,-5.438443,-4.800372
1000.804688,6.538216,-8.624703,-4.611611,5.114222
1000.808594,9.498571,5.841447,4.543416,6.587564
1000.812500,2.071692,0.339888,6.773640,11.418184
1000.816406,7.452160,7.729922,9.070028,10.167240
1000.820312,7.885144,4.722138,12.787763,11.476674
1000.824219,3.766897,14.143098,21.525418,4.928103
1000.828125,11.303690,14.526985,17.971084,10.150397
1000.832031,2.114240,8.961388,7.004525,9.852640
1000.835938,5.562354,7.313972,9.058430,13.120318
1000.839844,5.918087,4.908427,6.215686,-1.388972
1000.843750,-3.529724,4.321089,-2.555840,5.736326
1000.847656,-2.612856,7.519372,5.110140,-1.196975
1000.851562,-2.945491,-3.988306,-0.084427,-5.826890
1000.855469,-4.408482,-4.027898,-2.268871,-0.183396
1000.859375,-3.160452,-5.488775,0.007092,0.831753
1000.863281,-10.866188,-0.102167,-8.335301,-6.248071
1000.867188,-15.424615,-6.886871,-7.640303,-5.970438
1000.871094,-14.164634,-3.561073,-16.363896,-11.395737
1000.875000,-15.392926,-11.318251,-18.719375,-10.861625
1000.878906,-17.252721,-13.508932,-7.545902,-12.130152
1000.882812,-5.108324,-10.280878,-6.384894,-11.514245
1000.886719,0.316505,-10.613432,-11.670685,-10.340402
1000.890625,-8.036544,-3.486189,-11.572361,0.197857
1000.894531,-10.930572,-5.796092,-6.081584,-2.247176
1000.898438,0.550555,-3.757086,1.720108,6.882965
1000.902344,-5.309649,5.184377,5.421142,0.486444
1000.906250,6.850800,2.797079,5.437169,8.522063
1000.910156,3.193535,6.285233,5.478051,5.585268
1000.914062,3.035353,6.044031,9.719207,12.091358
1000.917969,3.067174,8.805175,9.181828,10.244164
1000.921875,12.052968,5.582016,5.070495,9.892496
1000.925781,8.240674,9.284726,12.241138,13.853873
1000.929688,13.597309,9.691502,6.917388,12.999795
1000.933594,9.348138,5.872602,9.751778,9.860173
1000.937500,6.659894,1.383592,12.234507,12.881645
1000.941406,-0.094862,6.507790,4.774854,10.779834
1000.945312,7.252977,2.727930,2.354502,2.108083
1000.949219,1.323849,-0.219266,3.182237,-1.859107
1000.953125,-4.380758,-0.163032,-4.741353,5.568650
1000.957031,3.227082,-7.894936,-5.324797,-4.762832
1000.960938,-8.651706,-14.550704,-4.058595,-8.164979
1000.964844,-3.477488,-9.955970,0.153606,0.349909
1000.968750,-12.134796,-8.622007,-9.407848,-11.712449
1000.972656,-5.591781,-13.338264,-15.279825,-10.674887
1000.976562,-6.914172,-9.307297,-9.537340,-5.675619
1000.980469,-9.209963,-8.956381,-9.034732,-9.329118
1000.984375,-11.083931,-1.415754,-11.384328,-9.945224
1000.988281,-11.049358,3.345637,-2.734845,-4.055525
1000.992188,-4.370522,-3.446847,-6.230736,-5.428509
1000.996094,-7.414074,-6.337802,3.061360,1.664361
1001.000000,3.323271,1.065631,-1.992335,-0.850396
1001.003906,1.388903,9.029601,-1.263452,4.622782
1001.007812,3.810686,2.405062,10.710084,-3.205061
1001.011719,8.134443,5.554534,10.951563,14.597828
1001.015625,4.816888,7.814400,7.492891,7.383759
1001.019531,4.713354,7.124567,1.787891,2.644193
1001.023438,18.715525,7.699955,10.326417,9.443620
1001.027344,8.983820,10.506878,7.123660,9.002172
1001.031250,2.669899,16.933052,10.774951,7.948909
1001.035156,14.251141,9.964209,9.103538,9.886364
1001.039062,8.898768,9.691159,1.058556,6.684232
1001.042969,5.088985,-0.185510,6.920098,-0.308630
1001.046875,5.456214,2.816956,7.527840,-5.366102
1001.050781,-6.631505,2.676555,-0.900501,-2.166431
1001.054688,-0.732092,-4.186221,1.029277,-2.069626
1001.058594,-4.023865,-15.716814,-7.789939,-6.271521
1001.062500,-8.099067,-11.770732,-3.138938,-0.092960
1001.066406,-17.749402,-6.304997,-7.077854,-7.988795
1001.070312,-17.887052,-12.424558,-12.377195,-13.075789
1001.074219,-12.898121,-5.406294,-12.308573,-8.833593
1001.078125,-13.221527,-12.500561,-8.477200,-10.966836
1001.082031,-11.157363,-6.284183,-4.858486,-4.079834
1001.085938,-4.694270,-3.464627,-4.293592,-5.116814
1001.089844,-1.612552,-1.285837,-8.025667,-8.141912
1001.093750,3.291930,2.623965,4.273708,-1.276461
1001.097656,-2.123254,7.755035,-5.313041,4.260890
1001.101562,-2.077850,3.918262,5.320473,6.726286
1001.105469,6.800649,6.692836,2.679410,12.259592
1001.109375,1.908712,3.953008,10.721999,3.770554
1001.113281,3.826073,9.719969,11.567929,2.743380
1001.117188,12.313228,12.940203,10.447936,10.977209
1001.121094,10.061779,10.177314,6.089695,10.937633
1001.125000,5.883529,10.196204,12.811894,7.561549
1001.128906,13.092242,11.169040,5.525828,9.331045
1001.132812,6.229484,9.764531,5.598247,5.565370
1001.136719,9.319096,8.116519,-1.448533,0.134338
1001.140625,6.593645,8.986394,9.932984,3.201434
1001.144531,-3.236909,-2.517191,-5.094935,-0.665404
1001.148438,8.152351,-2.905789,-2.586278,-0.183728
1001.152344,-7.194812,-2.646114,-0.874077,-0.566468
1001.156250,-2.550570,-7.272949,-4.843443,-0.942062
1001.160156,-3.965278,-1.319367,-6.971556,-10.359578
1001.164062,-11.095868,-4.079577,1.875391,-5.833169
1001.167969,-7.474216,-10.305194,0.335194,-16.617518
1001.171875,-14.744030,-14.224711,-10.315440,-6.003987
1001.175781,-4.966241,-9.146551,-14.852576,-3.715944
1001.179688,-4.833234,-13.108341,-10.935018,-7.767293
1001.183594,-6.987836,-6.553370,-8.378838,-4.815422
1001.187500,-7.170207,-2.163231,-4.998132,-7.391580
1001.191406,-6.892540,-6.360958,0.144745,-1.472927
1001.195312,-6.167371,-2.971802,-5.414192,-1.619324
1001.199219,-1.703800,3.706978,0.511032,0.886902
1001.203125,-6.870896,0.320241,0.533397,-0.237764
1001.207031,4.000277,1.179551,4.717416,0.179895
1001.210938,1.384517,3.411521,4.577738,5.885020
1001.214844,3.665465,13.266161,7.166536,10.763685
1001.218750,15.749390,5.528320,13.047152,5.260083
1001.222656,10.092516,10.725696,19.915372,12.123196
1001.226562,4.522138,21.117519,15.632041,7.610731
1001.230469,11.629471,7.637794,9.211620,9.798644
1001.234375,8.708796,9.302870,14.769271,4.241799
1001.238281,9.117504,1.077983,2.245289,2.057312
1001.242188,4.822720,19.377497,5.014100,7.401120
1001.246094,8.783236,3.599874,-2.517800,-1.776970
1001.250000,-4.992372,-0.985727,-2.579018,1.246303
1001.253906,0.729461,-3.010419,-0.532475,-5.513350
1001.257812,-8.363415,-12.430616,-2.307874,-0.323830
1001.261719,-3.431721,-5.506472,-6.669169,-14.254347
1001.265625,-11.262381,-5.993354,-5.882920,-15.719607
1001.269531,-8.654821,-7.311549,-11.068021,-13.546577
1001.273438,-12.841824,-10.197376,-5.572842,-8.966160
1001.277344,-6.364656,-12.208270,-10.006334,-11.956613
1001.281250,-0.315118,-13.856401,-6.379072,-9.720262
1001.285156,-12.930798,-10.198007,-6.714969,-7.927882
1001.289062,-10.295804,-5.170461,1.215510,-4.300722
1001.292969,-5.208965,-6.705970,4.775521,-6.926907
1001.296875,-6.247031,-3.412993,-4.822261,0.209889
1001.300781,2.490803,6.402917,11.515478,-2.691955
1001.304688,1.966582,2.496042,-3.270477,5.557089
1001.308594,8.407695,4.202063,3.719338,7.041035
1001.312500,11.399004,6.950894,4.211578,5.904700
1001.316406,8.606030,11.129256,5.980701,11.917171
1001.320312,13.769696,11.595621,1.365422,4.613049
1001.324219,13.705496,14.745848,10.913790,11.417732
1001.328125,11.749989,8.214703,9.198920,6.294817
1001.332031,9.225243,6.477121,8.747174,12.341489
1001.335938,1.800848,15.702496,2.881831,9.907360
1001.339844,10.729732,9.493999,6.851422,6.966445
1001.343750,-2.953003,2.939262,4.607733,9.904553
1001.347656,0.663414,-7.918398,-3.233182,2.387210
1001.351562,2.163090,-0.940694,7.326706,-0.733361
1001.355469,2.914275,-4.549646,-2.004548,-4.616104
1001.359375,-4.597063,-8.283411,-12.408206,-7.226404
1001.363281,-11.425098,-5.915272,-11.148809,-12.509078
1001.367188,-9.179340,-10.839717,-3.216162,-6.445113
1001.371094,-6.743832,-11.715139,-8.616832,-4.341344
1001.375000,-17.305205,-6.321186,-11.752638,-13.005574
1001.378906,-14.466329,-12.829210,-14.611262,-9.117727
1001.382812,-7.666479,-5.052051,-6.812819,-7.952430
1001.386719,-9.201359,-12.061269,-10.792139,-12.490404
1001.390625,-7.672307,-6.333445,-2.982204,-2.183259
1001.394531,-7.275459,-4.255579,-5.057135,-2.354611
1001.398438,4.565811,-3.964999,1.027429,-0.383716
1001.402344,0.121240,-3.969143,9.454800,8.954262
1001.406250,-0.665307,6.910106,9.865847,-3.333036
1001.410156,4.543340,8.065969,6.714869,2.098288
1001.414062,12.850415,8.304265,7.804473,5.833305
1001.417969,11.408302,7.328077,12.794862,9.635175
1001.421875,7.728290,11.624088,13.561599,13.857687
1001.425781,13.874205,8.868702,13.387779,14.761357
1001.429688,8.173314,8.130616,3.535773,5.816539
1001.433594,13.041886,12.400219,9.434469,6.660760
1001.437500,11.142281,7.205703,2.383448,3.686211
1001.441406,-0.586205,4.987463,2.808245,9.004637
1001.445312,-2.076581,2.225939,6.682585,1.871190
1001.449219,4.428486,0.432746,1.853310,-4.054130
1001.453125,-8.994859,2.864851,-8.771447,-3.587185
1001.457031,-0.211687,-4.437000,-1.030625,-8.676205
1001.460938,-5.005552,-7.658817,-7.809903,-11.111094
1001.464844,-8.399322,-8.255931,-13.263970,-9.576721
1001.468750,-4.863144,-11.533858,-14.249388,-6.686617
1001.472656,-13.286517,-6.868741,-8.313880,-9.400795
1001.476562,-13.440765,-7.483142,-1.603007,-17.411866
1001.480469,-7.324065,-9.763030,-5.570647,-4.671500
1001.484375,-10.824526,-12.711780,-8.906908,-11.444981
1001.488281,-4.415513,-0.488072,-4.364627,-8.034423
1001.492188,-5.529978,-1.259228,-3.416453,-1.134701
1001.496094,-10.349028,1.780408,-2.908530,-6.456535
1001.500000,1.444712,-7.660649,-7.846587,-1.112870
1001.503906,1.334565,7.235293,0.584611,4.227045
1001.507812,3.302817,5.451975,5.316304,4.668109
1001.511719,8.738070,7.241813,0.727335,10.400879
1001.515625,6.221261,9.994229,9.468352,10.245793
1001.519531,3.984704,14.978856,5.765951,7.943786
1001.523438,13.924521,7.339596,12.279277,12.792410
1001.527344,11.482926,2.411802,9.048921,7.669691
1001.531250,6.753939,7.127882,13.194714,6.741512
1001.535156,11.857776,4.583805,13.296249,7.833940
1001.539062,9.370076,6.862218,5.912401,7.837167
1001.542969,4.784873,1.188063,5.681802,6.018074
1001.546875,3.527414,-3.291353,5.802382,13.461128
1001.550781,-4.281066,-1.336254,2.321358,-2.399583
1001.554688,-7.214950,-7.236777,-4.670677,1.168092
1001.558594,-1.847756,0.262973,0.149497,-6.807882
1001.562500,-8.362029,-1.705790,-15.935263,-3.244377
1001.566406,-10.376026,-8.536657,-8.500951,-11.872281
1001.570312,-6.688206,-7.808570,-6.990341,-5.892539
1001.574219,-9.463152,-12.434086,-13.663637,-9.869487
1001.578125,-8.441254,-13.392392,-2.984957,-11.580474
1001.582031,-5.667473,-15.243366,-8.383947,-4.075967
1001.585938,-10.555783,-9.093954,-5.392178,-10.436802
1001.589844,-10.074261,-6.354702,-2.263462,-5.814853
1001.593750,0.216124,-3.440683,-10.913067,-11.498090
1001.597656,-2.233332,0.747509,0.709149,-0.360434
1001.601562,4.977234,3.026443,3.975720,0.549386
1001.605469,-0.082311,5.024428,-0.016845,5.691891
1001.609375,4.441571,3.688978,4.639805,3.284908
1001.613281,5.963454,11.334767,16.945747,5.479306
1001.617188,3.496845,9.695407,6.869045,8.238954
1001.621094,9.657459,9.445110,3.287256,13.073109
1001.625000,9.383109,18.354114,1.340529,9.402992
1001.628906,8.457461,4.335666,6.110237,7.941088
1001.632812,14.869615,4.262427,14.068839,8.912306
1001.636719,4.714192,11.792389,7.386787,9.652932
1001.640625,-2.563393,5.644874,15.562280,2.450937
1001.644531,4.660770,-3.510616,-0.427404,0.628037
1001.648438,2.183008,3.263151,5.181944,-1.406392
1001.652344,-7.187099,-8.508612,2.864693,-2.105353
1001.656250,-6.506501,-9.893292,1.008535,-2.539035
1001.660156,-7.557369,0.172568,-5.462986,-4.928640
1001.664062,-3.033117,-8.501072,-7.461111,-9.022624
1001.667969,-4.559534,-11.913704,-14.960997,-9.928814
1001.671875,-6.186160,-15.503103,-6.992727,-10.928181
1001.675781,-16.147501,-8.689543,-13.666250,-7.414524
1001.679688,-9.905141,-5.037306,-16.088367,-7.861171
1001.683594,-11.499787,-15.540097,-8.739708,-10.234995
1001.687500,-2.417831,-4.255093,-2.963718,-5.816455
1001.691406,-4.691681,-8.710504,-12.178809,-2.436497
1001.695312,-3.478247,-4.459689,-1.130326,3.157497
1001.699219,-2.274912,-0.770775,-6.181164,-1.056095
1001.703125,9.636605,-0.961680,3.569080,-0.660580
1001.707031,1.328286,0.644612,6.375878,-1.804235
1001.710938,0.765229,8.738626,6.061050,13.394522
1001.714844,11.264927,7.764094,4.872345,5.335535
1001.718750,10.311024,15.607350,10.255229,12.953317
1001.722656,7.650870,8.547064,2.273545,10.666916
1001.726562,7.064991,11.513452,10.803702,9.957262
1001.730469,7.885224,6.263778,11.849223,13.462088
1001.734375,10.422797,9.674657,9.474986,10.228904
1001.738281,4.097520,7.085972,5.607980,7.520320
1001.742188,1.213504,-1.444685,14.475899,9.856445
1001.746094,3.808179,5.034487,3.007837,2.826097
1001.750000,-0.661634,1.777539,-8.282329,-3.323279
1001.753906,-0.678422,-3.344480,-5.633274,-4.179699
1001.757812,-7.347543,-0.410817,-8.441832,-0.430419
1001.761719,-5.426088,-7.599670,-10.015292,-0.341225
1001.765625,-0.857579,-5.635791,-13.726607,-15.002488
1001.769531,-10.066281,-8.264315,-6.145432,-4.002337
1001.773438,-10.730434,-1.941343,-10.669711,-5.637765
1001.777344,-9.779352,-10.546964,-10.517734,-9.803469
1001.781250,-7.859446,-6.389814,-9.276309,-4.974305
1001.785156,-4.740939,-14.162550,-4.413020,-9.059222
1001.789062,-12.408850,-8.905492,-3.395278,-3.381853
1001.792969,-9.032842,-5.269806,-10.947699,-5.778965
1001.796875,2.175105,3.247601,-17.088348,-10.889416
1001.800781,-2.896700,6.517242,-1.909750,-1.202030
1001.804688,6.600581,1.260793,-5.386925,1.880264
1001.808594,7.548291,5.833503,1.178309,7.815268
1001.812500,10.718472,1.956280,10.334337,6.953429
1001.816406,5.306295,10.130659,4.419684,7.616722
1001.820312,13.248850,8.690210,8.164568,14.956630
1001.824219,7.004801,13.244247,9.811815,3.540951
1001.828125,8.427406,7.864250,13.504113,10.751961
1001.832031,2.708584,2.589779,4.705210,11.593932
1001.835938,8.342826,15.831273,8.231164,2.648532
1001.839844,9.067935,2.691249,10.843898,4.637525
1001.843750,-1.101616,6.255513,5.228879,3.716319
1001.847656,2.543558,2.793926,3.950164,-2.040322
1001.851562,-0.704283,-3.152711,-2.335501,-3.305667
1001.855469,3.498366,-5.737953,-9.803285,-6.420224
1001.859375,-2.408703,0.205545,-7.367098,0.450655
1001.863281,-3.749528,-7.038290,-4.029456,-4.976639
1001.867188,-11.548360,-1.466859,-14.464190,-8.135496
1001.871094,-15.694269,-11.871453,-2.600456,-5.477284
1001.875000,-3.213584,-5.787664,-11.777580,-9.801842
1001.878906,-9.094750,-14.649384,-18.622461,-12.386921
1001.882812,-12.301007,-14.389956,-12.691444,-7.346618
1001.886719,-8.840613,-12.392038,-9.157897,-2.348217
1001.890625,-6.409949,-1.407174,-8.673797,-10.357578
1001.894531,-2.515939,-2.357092,4.375620,0.775065
1001.898438,0.878041,-2.085863,-11.476385,-2.397108
1001.902344,-2.061320,6.527835,4.440059,0.304287
1001.906250,-0.002439,0.816613,10.723562,-1.940106
1001.910156,8.001018,3.398605,-0.122473,5.807958
1001.914062,1.656030,5.646674,7.968352,0.153152
1001.917969,12.065840,7.088688,2.669015,2.379847
1001.921875,11.632502,6.078723,12.262320,4.308220
1001.925781,17.475571,23.008875,15.531110,14.597709
1001.929688,3.042911,5.122717,12.904573,12.435733
1001.933594,5.781959,15.059301,9.475468,18.541464
1001.937500,-3.182239,-4.685560,10.605923,6.243347
1001.941406,6.899286,5.612702,-1.350000,2.954825
1001.945312,0.368093,4.629231,6.246238,-2.402081
1001.949219,2.058428,0.816962,-5.220187,-3.120914
1001.953125,-6.765279,1.182106,-0.716120,1.614772
1001.957031,0.009651,6.607903,-2.763233,-5.726700
1001.960938,-3.660510,-5.529502,-6.323344,-6.238488
1001.964844,-9.092714,-4.268903,-12.741257,-7.687532
1001.968750,-13.175002,-9.524113,-9.456964,-7.747269
1001.972656,-15.544963,-2.882233,-7.999181,-11.420254
1001.976562,-13.248675,-5.686988,-9.775982,-6.760238
1001.980469,-14.144210,-1.248228,-5.702086,-7.795275
1001.984375,-12.328682,-6.034900,-15.112684,-9.248270
1001.988281,-14.961635,-8.304903,-7.239276,-5.941259
1001.992188,-0.736596,-9.236564,-2.817058,-5.190793
1001.996094,-2.994617,1.086864,-1.086902,-6.408505
1002.000000,2.721645,-3.091741,-0.978647,1.098129
1002.003906,8.004413,1.165359,-1.826640,-4.135153
1002.007812,3.654435,5.949973,0.839749,7.288189
1002.011719,14.083157,2.405582,8.733576,5.406943
1002.015625,-2.607459,3.347502,5.387152,5.111469
1002.019531,6.392301,10.323071,9.460551,5.640296
1002.023438,11.154115,8.306195,6.402755,15.614498
1002.027344,10.821440,10.448907,16.831304,9.795017
1002.031250,6.448957,8.245999,4.335977,7.903010
1002.035156,3.139900,9.993786,8.761711,11.861185
1002.039062,5.032010,3.898847,8.888523,9.387730
1002.042969,7.281994,0.771401,7.641678,2.346690
1002.046875,0.153959,-0.822300,-1.148268,3.201674
1002.050781,-0.942498,-2.235080,4.798512,2.730243
1002.054688,-0.584469,1.427136,-1.807770,-0.827962
1002.058594,-8.382110,2.196541,4.715631,-3.907406
1002.062500,-9.805267,-5.937233,-13.254755,-10.057619
1002.066406,-7.972369,-8.518062,-4.616028,-6.045089
1002.070312,-8.132747,-7.695625,-12.953466,-10.572482
1002.074219,-17.897645,-17.908640,-14.557144,-5.708551
1002.078125,-14.017530,-10.259011,-8.565968,-10.610630
1002.082031,-11.582243,-12.755937,-3.460385,-6.441773
1002.085938,-5.057886,-12.511171,-12.700670,-7.491246
1002.089844,-3.702189,-13.311442,-10.125619,-13.429004
1002.093750,-1.411583,-2.408651,-2.590713,0.940902
1002.097656,-4.712052,-5.422408,-5.721047,2.421820
1002.101562,2.731603,7.356072,0.142811,-1.284543
1002.105469,3.404995,1.547709,7.060948,-1.754066
1002.109375,12.077894,14.788309,4.115558,7.889340
1002.113281,8.687199,7.517193,7.749076,13.226653
1002.117188,5.415453,2.837950,8.976664,8.788088
1002.121094,13.068469,4.231605,7.443779,6.797309
1002.125000,15.060427,14.436888,5.530123,7.533399
1002.128906,9.289327,13.744975,3.019613,16.996268
1002.132812,8.075555,12.017802,9.681266,4.761585
1002.136719,8.223458,6.041701,6.097738,11.589159
1002.140625,8.814760,-0.185225,11.677877,9.875756
1002.144531,1.767515,9.464454,11.953324,-2.794733
1002.148438,-1.855953,-2.739199,-4.191581,1.086452
1002.152344,-5.538079,-8.362740,-6.971276,-5.096747
1002.156250,5.773491,-7.861440,-6.825043,-9.445459
1002.160156,-6.080136,0.069674,-2.490313,-6.685514
1002.164062,-8.873782,-3.735525,-17.548325,-8.598782
1002.167969,-8.266506,-6.328767,-8.213555,-12.558552
1002.171875,-7.452930,-9.666512,-13.590550,-10.109764
1002.175781,-3.403230,-4.333794,-7.816676,-13.626211
1002.179688,-9.519630,-10.979839,-3.662346,-9.758154
1002.183594,-6.757637,-7.364567,-10.489856,-6.446383
1002.187500,-10.047156,-3.689669,-7.684274,-5.939207
1002.191406,-5.532770,-10.427250,-6.346712,-7.531013
1002.195312,-6.297690,2.406127,-2.485941,-2.459456
1002.199219,-5.753062,-4.915757,-1.957262,0.486291
1002.203125,2.590470,7.336720,6.210064,1.530319
1002.207031,9.035555,3.375906,4.954016,-1.604502
1002.210938,5.176373,7.960365,2.180774,1.953621
1002.214844,4.871101,5.005974,11.163620,6.210033
1002.218750,15.001331,10.917168,6.384628,11.798297
1002.222656,6.817122,10.115602,10.698942,17.830987
1002.226562,9.596330,15.348315,5.182462,12.526784
1002.230469,8.590213,9.324318,4.068424,10.485589
1002.234375,3.256399,5.881380,3.966847,16.985430
1002.238281,4.300686,5.756646,9.379849,6.138930
1002.242188,10.381620,5.200715,-2.600354,12.868131
1002.246094,2.259489,0.193054,1.659154,3.280560
1002.250000,6.290127,-0.066446,2.136408,0.415469
1002.253906,-2.544623,0.591186,-2.459491,-5.414570
1002.257812,-5.418452,-9.799225,-2.976217,-0.993286
1002.261719,-10.471444,-2.636480,-4.614944,-0.841621
1002.265625,-5.707278,-4.945963,-13.630351,-12.564168
1002.269531,-11.832990,-7.131419,-12.873936,-6.726196
1002.273438,-10.256093,-5.034369,-8.209977,-9.304932
1002.277344,-10.383130,-11.241492,-10.518235,-6.686729
1002.281250,-7.973602,-11.001782,-5.714242,-15.563905
1002.285156,-9.490592,-2.286721,-10.873877,-6.976995
1002.289062,-10.577361,-14.249091,-7.084647,-5.816136
1002.292969,-6.951820,-4.078822,-2.417810,-1.202035
1002.296875,-3.314460,3.917391,-6.914705,-3.495531
1002.300781,-5.494444,-0.680204,9.650371,-1.360165
1002.304688,-2.646255,4.061925,-4.996999,-0.150685
1002.308594,4.792079,-2.761523,3.021633,7.382384
1002.312500,3.265720,12.018297,5.792036,1.586673
1002.316406,5.937975,16.380370,3.574530,13.509908
1002.320312,10.791457,14.590301,11.076524,-1.336283
1002.324219,5.979391,6.178360,9.920838,14.098143
1002.328125,6.254453,13.098270,9.540749,14.418348
1002.332031,9.027830,-0.641976,11.967292,14.659138
1002.335938,2.385547,3.897901,10.865990,7.039679
1002.339844,2.059330,0.462398,9.716466,12.363688
1002.343750,4.464808,1.779231,-2.136784,8.813954
1002.347656,5.068854,1.151975,7.308215,4.246246
1002.351562,-3.926750,-0.625347,0.534649,-3.560994
1002.355469,-4.140992,-11.242071,-1.147741,-1.941525
1002.359375,-1.895680,2.133305,-7.940946,-2.529764
1002.363281,1.149251,-6.965925,-7.536692,-6.425705
1002.367188,-5.763836,-4.388580,-17.057907,-11.486302
1002.371094,-2.713480,-8.624931,-9.643977,-15.218848
1002.375000,-10.771941,-11.003482,-7.767484,-11.633022
1002.378906,-5.610479,-6.761389,-11.657077,-10.913956
1002.382812,-6.872712,-11.142009,-6.427399,-14.901098
1002.386719,-7.635052,-10.023439,-6.950796,-0.524219
1002.390625,-3.725155,-5.734751,-8.706369,-2.516841
1002.394531,2.480239,-9.222738,2.324566,3.343539
1002.398438,1.320778,-7.840611,1.898422,-3.665008
1002.402344,-0.035606,4.170580,-1.426431,-0.214794
1002.406250,9.509291,6.549312,3.804412,2.606211
1002.410156,1.530230,10.847430,8.925578,-0.672076
1002.414062,3.504991,6.618430,9.423137,8.699364
1002.417969,7.950470,9.659133,6.053064,9.510693
1002.421875,1.024054,14.370288,16.720194,9.330554
1002.425781,5.911790,11.391111,12.072911,4.689277
1002.429688,11.291784,2.068582,10.765722,15.225372
1002.433594,13.789089,9.712009,5.183473,7.879556
1002.437500,6.826262,2.528066,9.719779,6.632874
1002.441406,4.375792,3.250632,14.903176,7.914797
1002.445312,6.236754,9.000202,9.856656,6.004965
1002.449219,5.271151,0.348965,0.095408,-1.569986
1002.453125,-1.592107,-7.554089,0.224371,0.564023
1002.457031,-4.621482,-4.206863,-8.354313,-1.014773
1002.460938,-1.668513,-1.680909,-5.158123,-14.739158
1002.464844,-7.125057,-7.268543,-8.625963,-14.423868
1002.468750,-0.283405,-12.736519,-8.268105,-9.224789
1002.472656,-6.619828,-7.776940,-6.498285,-11.630397
1002.476562,-1.474345,-7.354964,-9.682670,-4.016817
1002.480469,-9.148276,-12.020620,-21.734831,-13.238438
1002.484375,-10.516842,-9.266060,-12.408179,-3.324663
1002.488281,-5.958184,-3.670910,-9.496382,-1.758186
1002.492188,-1.262895,1.531644,-3.002880,-5.181335
1002.496094,0.612048,-5.814611,5.049888,-2.928119
1002.500000,-9.750831,3.916528,7.443144,-1.758715
1002.503906,0.952503,3.204617,-0.630593,1.379618
1002.507812,6.318810,6.820557,7.337341,9.686584
1002.511719,-0.528094,5.885336,-2.085383,12.002072
1002.515625,10.785761,4.042295,6.487655,9.176910
1002.519531,9.028756,11.827106,9.829600,8.183306
1002.523438,14.086484,8.285099,3.719140,12.382789
1002.527344,6.734007,10.083422,7.448869,12.232423
1002.531250,13.138346,5.884414,9.605681,9.675994
1002.535156,10.660807,10.560013,7.803145,6.106512
1002.539062,3.226716,2.471635,3.517249,1.942288
1002.542969,-0.243777,7.041014,5.908626,4.765709
1002.546875,-2.219564,0.953111,3.555274,2.800297
1002.550781,-8.214677,-0.701296,3.231949,3.764292
1002.554688,-2.969256,-2.027425,2.255951,-6.284262
1002.558594,-1.135111,-7.899232,-7.952138,-6.379938
1002.562500,-9.616414,-3.313962,-12.420193,-8.223574
1002.566406,-10.453513,-13.426951,-15.109616,-8.049287
1002.570312,-3.583720,-15.938783,-0.071361,-4.763273
1002.574219,-17.165463,-13.767605,-6.816206,-1.032622
1002.578125,-8.537042,-10.213930,-11.876046,-11.962607
1002.582031,-7.471627,-11.173387,-10.495436,-13.591053
1002.585938,-9.003837,-6.263552,-10.805204,-11.436999
1002.589844,0.766027,-3.709310,-2.617635,-8.454572
1002.593750,-2.913118,-7.900117,-4.788532,-11.129316
1002.597656,2.452649,-2.510080,-9.966737,-1.642750
1002.601562,2.792945,-2.073435,0.771545,-2.019490
1002.605469,8.200617,3.564994,4.595614,2.475670
1002.609375,11.700495,10.703487,12.135565,6.448670
1002.613281,8.074753,5.743914,4.974930,2.208785
1002.617188,4.404700,3.232983,0.990149,7.328020
1002.621094,9.139726,10.730738,9.302422,4.825666
1002.625000,10.107983,2.256379,17.808830,8.801616
1002.628906,13.239332,2.609356,8.220311,8.892376
1002.632812,6.825030,12.087907,13.731270,15.067451
1002.636719,7.672339,9.138616,2.625440,9.298782
1002.640625,4.538775,10.221986,9.661198,9.022664
1002.644531,0.570452,-4.191208,-3.027434,4.815191
1002.648438,-1.391667,4.860230,-4.266752,5.162619
1002.652344,-7.529394,-1.039067,-1.973524,2.103150
1002.656250,-0.362789,5.079772,-2.904571,-0.301904
1002.660156,-8.661176,-6.271128,-5.269321,-8.165857
1002.664062,-5.943979,-7.802438,-16.551934,-3.191041
1002.667969,-7.514309,-7.079413,-6.665740,-11.006436
1002.671875,-10.674416,-9.554737,-16.355434,-8.132757
1002.675781,-13.511106,-14.930552,-8.841913,-10.517552
1002.679688,-4.314174,-10.438988,-12.028172,-3.383982
1002.683594,-5.967655,-11.670483,-8.853045,-11.498487
1002.687500,-11.273065,-7.501817,-14.575959,-1.968660
1002.691406,-7.211927,-6.853328,-3.321911,-12.285199
1002.695312,-3.624819,-1.985585,-0.450008,0.653474
1002.699219,-3.278533,-1.435106,-2.351648,-2.390307
1002.703125,-3.942956,9.743877,-2.188639,0.819356
1002.707031,5.471650,13.289796,-3.069979,4.883798
1002.710938,7.538111,7.037922,3.671335,9.581921
1002.714844,6.741879,3.720109,11.920815,2.945074
1002.718750,6.842644,7.885638,1.590570,5.548212
1002.722656,2.458714,4.672288,4.706972,12.042882
1002.726562,10.101806,18.431961,6.242161,8.864052
1002.730469,10.041323,6.211143,4.368773,8.205136
1002.734375,7.558816,10.719736,0.686445,10.941134
1002.738281,3.125605,5.556033,0.008739,10.688478
1002.742188,0.070040,9.897660,5.606776,9.837258
1002.746094,7.179035,4.448628,-1.980768,8.731189
1002.750000,0.596630,7.195765,3.133705,0.260901
1002.753906,-0.376724,-1.893881,-8.164074,1.602170
1002.757812,-2.272256,-3.158123,-2.508531,-6.013263
1002.761719,-2.051038,-8.221814,-6.363071,-3.527545
1002.765625,-11.268290,1.188929,-14.464717,-18.334790
1002.769531,-8.148553,-15.506613,-3.287422,-6.816244
1002.773438,-9.450159,-0.906829,-10.945633,-12.000291
1002.777344,-13.191390,-15.750478,-8.939890,-13.748316
1002.781250,-9.042216,-16.568990,-12.018439,-10.675243
1002.785156,-3.926366,-9.199826,-4.138711,-17.663655
1002.789062,-3.648418,-1.628687,-6.214551,-9.395998
1002.792969,-2.366826,-6.192237,-5.967946,-3.596318
1002.796875,4.478805,0.713247,1.813542,-4.171508
1002.800781,5.011044,-2.302075,0.765826,4.942014
1002.804688,-2.976077,6.026421,8.127063,-5.148434
1002.808594,9.142674,6.964809,3.944328,-1.975483
1002.812500,12.499501,13.306363,9.580512,2.794216
1002.816406,4.718778,6.558891,5.789540,15.359551
1002.820312,4.781758,3.624784,11.116727,11.032709
1002.824219,9.628581,12.198332,7.642802,14.169183
1002.828125,8.892965,7.244153,6.723976,1.493268
1002.832031,11.828672,4.006738,13.512905,8.218272
1002.835938,16.354782,5.851185,13.068195,18.152382
1002.839844,2.751962,0.011780,3.792602,-1.369667
1002.843750,4.866099,12.217200,5.884573,7.709108
1002.847656,-0.147464,6.555217,3.802126,3.101689
1002.851562,-3.550720,-1.914615,4.233492,8.301954
1002.855469,-6.446133,1.053577,1.210832,-4.135999
1002.859375,-9.549947,-8.211106,-5.512372,-2.546908
1002.863281,-11.010213,-9.572470,-16.473453,-9.677689
1002.867188,-5.416289,-9.023721,-8.928993,-2.398712
1002.871094,-10.295444,-9.852843,-10.638333,-13.583222
1002.875000,-4.935992,-10.426610,-5.822623,-12.160963
1002.878906,-8.837150,-8.374818,-9.877024,-7.153122
1002.882812,-7.848609,-11.433919,-12.781018,-3.773100
1002.886719,-8.813664,-7.081834,-7.761471,-3.195323
1002.890625,-7.277618,1.449674,-7.642190,-4.021898
1002.894531,-7.905448,0.539142,1.075108,-5.170934
1002.898438,-6.867322,-2.960072,2.269736,-3.086193
1002.902344,3.941974,-1.274278,2.288221,4.465059
1002.906250,4.344776,-3.232269,2.705652,4.288029
1002.910156,7.556095,-2.621380,7.767070,9.394554
1002.914062,1.011291,6.771059,3.350199,1.793848
1002.917969,7.815500,8.926964,7.164769,2.899887
1002.921875,9.600085,3.608732,9.276914,6.128005
1002.925781,6.376673,15.695271,14.361478,12.877016
1002.929688,10.155505,14.328479,5.658890,8.429439
1002.933594,3.230836,9.844012,2.447380,3.464422
1002.937500,2.333119,1.836013,7.885367,11.227870
1002.941406,4.800743,11.648507,1.350902,3.080895
1002.945312,3.058213,-4.186232,7.460016,3.069478
1002.949219,3.110842,-6.887410,7.068280,2.759252
1002.953125,-0.593565,-0.880639,-2.338072,-3.290621
1002.957031,-6.251402,-4.718100,-5.930645,-6.016971
1002.960938,-4.970561,-6.620982,-8.057620,-9.771658
1002.964844,-10.339362,-0.717914,-0.758883,-12.686009
1002.968750,-11.503853,-13.796265,-10.019143,-11.257592
1002.972656,-14.487231,-15.684134,-10.748180,-13.614294
1002.976562,-10.677022,-9.734225,-19.390731,-14.081599
1002.980469,-13.479674,-6.191245,-6.495173,-13.298932
1002.984375,-5.245461,-10.598668,-4.034582,-9.643109
1002.988281,-8.072713,-15.994740,-4.061860,-4.380229
1002.992188,-3.022691,-4.181479,-1.094508,-3.385173
1002.996094,3.063959,1.926620,3.258055,-8.841333
1003.000000,7.864492,-2.406565,-4.010445,3.481544
1003.003906,4.445963,-5.789416,2.076415,1.116079
1003.007812,6.316981,8.113301,5.497444,6.641061
1003.011719,9.594824,8.377538,13.178602,4.807382
1003.015625,9.963856,1.166350,3.554360,3.470638
1003.019531,7.526087,10.120927,10.514832,4.532592
1003.023438,5.692022,9.138251,12.159380,6.732334
1003.027344,7.215674,9.789050,12.524903,14.891440
1003.031250,13.988262,13.513336,15.418754,12.382930
1003.035156,11.832945,6.125196,8.850398,8.777903
1003.039062,5.941179,9.715802,6.874994,10.594322
1003.042969,-1.151055,11.318770,4.444807,5.861145
1003.046875,4.107134,4.386607,1.227517,-3.079182
1003.050781,4.548081,-0.806142,-4.671708,4.687465
1003.054688,-9.213351,-2.642838,6.025513,-3.874016
1003.058594,-12.421447,-0.853568,-0.439851,-2.830701
1003.062500,1.985453,-11.301343,-0.654551,-8.249842
1003.066406,-7.350577,-9.675831,-13.511383,-3.493099
1003.070312,-6.069064,-13.449654,-5.504500,-7.670845
1003.074219,-17.424051,-9.151049,-4.502062,-7.752744
1003.078125,-6.927299,-6.928919,-5.170077,-19.695036
1003.082031,-11.354994,-13.450347,-5.217909,-5.091864
1003.085938,-7.258633,-11.420070,-4.150702,-12.888896
1003.089844,-3.761187,2.363102,-2.479587,-5.436649
1003.093750,3.619117,-1.031463,-8.617026,2.262542
1003.097656,2.821442,5.140313,2.033541,-1.817278
1003.101562,-0.338283,-4.449196,1.050402,6.012608
1003.105469,-0.423022,-0.800140,2.274785,-4.362068
1003.109375,11.159346,6.571115,6.542222,2.135252
1003.113281,13.694255,3.929369,6.251818,11.460976
1003.117188,9.847126,6.798605,8.404834,11.490174
1003.121094,8.012475,15.194377,8.457894,11.206908
1003.125000,3.664622,10.590654,8.429946,9.874861
1003.128906,7.870145,11.774352,7.710621,5.959164
1003.132812,14.274973,8.559882,8.968874,6.505975
1003.136719,10.263484,4.675347,12.144725,2.990603
1003.140625,8.979310,2.060933,4.626704,5.699240
1003.144531,6.518349,5.322774,-4.679478,5.474950
1003.148438,2.740749,0.385646,-5.691865,8.454569
1003.152344,-6.347346,-1.645826,-0.705516,-1.373767
1003.156250,-7.739658,-0.613160,0.215720,-0.506756
1003.160156,-6.584621,-7.095365,-10.093250,-7.953985
1003.164062,-9.706321,-13.059598,-6.775909,-11.081131
1003.167969,-4.301628,0.690751,-9.320510,-8.544938
1003.171875,-11.751701,-12.180123,-10.052434,-6.312631
1003.175781,-12.690698,-15.841547,-10.388227,-14.240057
1003.179688,-9.272150,-11.001179,-6.713369,-8.885055
1003.183594,-12.089551,-9.954250,-10.403874,-8.425649
1003.187500,-7.717770,-2.212165,-8.472765,-8.227993
1003.191406,-9.837187,0.593384,0.426573,-6.292041
1003.195312,-0.282839,-7.038810,-7.919839,-0.881617
1003.199219,-3.583046,4.224122,0.215323,0.725812
1003.203125,-4.512836,5.087817,2.676191,-0.311217
1003.207031,9.214231,4.111292,8.083425,3.577334
1003.210938,8.799783,2.083069,5.405150,4.693570
1003.214844,9.229764,8.223628,10.113007,6.788643
1003.218750,15.824638,13.642861,10.662897,5.441191
1003.222656,8.284796,13.708061,11.900251,3.266389
1003.226562,4.433764,13.693890,3.973466,13.888625
1003.230469,11.855960,5.714028,5.643126,9.477489
1003.234375,18.346104,7.238568,8.082244,8.950859
1003.238281,3.502097,8.449415,0.146034,3.604037
1003.242188,7.481608,12.832483,9.016759,6.863919
1003.246094,0.146645,-0.500081,7.553766,8.217565
1003.250000,2.294069,-3.082159,-2.379072,3.945521
1003.253906,-2.371217,0.475679,0.220917,-5.213661
1003.257812,-1.228898,-7.054717,-2.669757,-3.140771
1003.261719,-6.088623,-10.406370,-8.272868,-1.612854
1003.265625,-16.682462,-7.936804,-7.319631,-11.801324
1003.269531,0.352123,-8.666424,-7.378487,-10.379106
1003.273438,-13.529610,-12.284095,-9.577716,-8.617801
1003.277344,-5.567409,-4.690797,-14.265308,-11.004782
1003.281250,-6.537063,-9.671412,-15.000893,-14.325475
1003.285156,-6.409174,2.381897,-1.897723,-8.102163
1003.289062,-13.842381,-11.585090,-3.018938,-3.422290
1003.292969,-7.852116,-0.073857,-1.875828,-4.809604
1003.296875,-4.827794,1.945732,5.681683,0.295190
1003.300781,-4.457684,2.593027,1.906530,2.708805
1003.304688,9.848433,5.196282,4.315761,9.846863
1003.308594,8.465275,-0.141011,9.982578,11.769496
1003.312500,8.414915,4.020946,12.309912,0.579681
1003.316406,4.228371,11.672807,-0.550315,5.608872
1003.320312,8.324025,14.737692,6.123750,12.269814
1003.324219,13.936421,15.889601,4.946492,10.762621
1003.328125,10.745485,6.480582,11.605061,8.527006
1003.332031,6.093212,4.334871,10.363641,17.718831
1003.335938,2.256540,19.531819,3.266050,8.026378
1003.339844,4.711042,17.030354,10.776199,12.348291
1003.343750,5.284868,4.913288,-1.160803,5.755551
1003.347656,6.024569,-1.699578,7.473509,1.070392
1003.351562,-3.696648,-0.974381,-3.704362,1.896728
1003.355469,3.970574,-7.418555,-13.693604,-2.302177
1003.359375,-6.955620,-4.065274,-1.811646,-6.802337
1003.363281,-9.665654,-3.875557,-0.971568,-7.315556
1003.367188,-6.508670,-0.064925,-0.246473,-7.899458
1003.371094,-12.644318,-11.159361,-2.582248,-3.024441
1003.375000,-5.296639,-0.670224,-6.195163,-13.012733
1003.378906,-4.571011,-14.810609,-10.851944,-11.143991
1003.382812,-7.450393,-2.891152,-11.532985,-8.020812
1003.386719,-9.316295,-8.728283,-13.644499,-6.091423
1003.390625,-11.971236,-8.517194,-0.607435,-7.112879
1003.394531,-3.649896,-2.011416,-0.381078,-5.972624
1003.398438,-3.303094,2.272246,-0.041727,1.239816
1003.402344,-1.376021,1.817677,-1.622992,7.313448
1003.406250,4.630537,3.461909,9.513073,12.136500
1003.410156,9.009078,3.694929,-4.987730,9.110940
1003.414062,6.832913,6.358964,-0.154536,12.244870
1003.417969,8.095095,6.106363,14.893444,-1.245582
1003.421875,11.320053,4.208824,8.959328,9.077972
1003.425781,2.904192,5.117569,11.102516,4.264508
1003.429688,8.877558,7.779563,10.719539,8.400381
1003.433594,14.107041,11.208893,8.269387,11.288152
1003.437500,6.993815,11.749868,12.607385,3.756701
1003.441406,5.434197,9.723484,1.394791,7.926569
1003.445312,4.534161,5.834078,8.092337,6.738037
1003.449219,0.088479,-2.935347,-0.859477,5.484502
1003.453125,1.917752,0.534341,-2.730026,-6.668898
1003.457031,-9.265374,0.858615,-5.141814,-10.033941
1003.460938,-7.351293,-8.690039,-7.458486,-1.379348
1003.464844,-7.929283,-3.975374,-3.318715,-3.347288
1003.468750,-12.677366,-10.101492,-8.663318,-4.913691
1003.472656,-15.219937,-8.635319,-5.419448,-11.137272
1003.476562,-13.649237,-6.694304,-7.630038,-4.729650
1003.480469,-16.846126,-11.138720,-6.408829,-14.136625
1003.484375,-5.551295,0.949981,-15.833671,-3.667066
1003.488281,-15.979124,-6.837833,-8.949373,-9.671197
1003.492188,-4.851188,-10.018618,-4.827333,0.543285
1003.496094,-4.711093,-3.331222,-0.884020,-7.227241
1003.500000,-0.839974,-3.732334,0.540819,-4.261265
1003.503906,5.867866,3.259733,-1.921601,2.624741
1003.507812,9.482011,2.200346,2.037612,6.547954
1003.511719,1.208789,0.936783,4.122289,10.142346
1003.515625,9.985414,11.316058,4.409138,8.827577
1003.519531,8.264739,12.214006,9.102206,2.580996
1003.523438,4.443120,11.969673,4.207650,10.392452
1003.527344,10.938472,9.648539,17.007249,11.012101
1003.531250,13.849123,12.265916,3.874787,6.984432
1003.535156,11.935148,6.968144,7.788028,8.744151
1003.539062,11.523724,13.522875,4.956516,4.799331
1003.542969,3.553771,7.321987,4.974895,3.528198
1003.546875,2.097582,4.246954,6.769850,-2.592340
1003.550781,0.570704,-0.596536,3.799193,-4.129340
1003.554688,0.381520,-6.349619,-1.719637,-7.924499
1003.558594,0.233113,-5.118326,-2.782829,-10.776251
1003.562500,-4.703488,-0.448652,-12.055781,-5.112813
1003.566406,-8.892754,-7.172973,-4.591172,-8.554766
1003.570312,-10.591879,-12.270375,-7.916726,-6.533384
1003.574219,-5.994078,-8.775044,-7.211056,-12.584079
1003.578125,-10.955641,-3.098995,-6.573979,-5.724809
1003.582031,-8.008852,-16.456411,-5.165054,-8.831760
1003.585938,-4.046987,-11.252261,-6.401925,-6.801280
1003.589844,-0.414045,-2.238903,-2.563030,-5.847962
1003.593750,-8.708780,-1.066226,-3.409578,0.540406
1003.597656,-2.398284,-2.383272,-3.836750,1.868360
1003.601562,-1.410188,-4.744597,0.422080,-4.917250
1003.605469,6.529903,1.419561,6.046407,0.698762
1003.609375,7.363231,7.901956,6.459077,1.000341
1003.613281,6.960470,3.823183,4.907053,9.152978
1003.617188,1.951063,9.896979,6.930459,11.314427
1003.621094,12.849571,7.094254,7.480246,7.833750
1003.625000,6.713601,7.783210,6.791442,4.191224
1003.628906,8.789631,13.167169,12.352309,16.494878
1003.632812,13.443762,14.149792,13.674959,17.079328
1003.636719,12.387129,6.914396,2.762447,3.470521
1003.640625,0.720638,4.141986,4.943820,1.474560
1003.644531,-5.441567,-0.957134,-0.997131,-4.721246
1003.648438,8.253648,-1.775210,4.200376,2.449828
1003.652344,0.936123,-1.911422,1.199084,3.515758
1003.656250,3.333778,-7.047011,2.271374,3.085526
1003.660156,-6.561644,-11.529579,-14.091343,-1.573794
1003.664062,-6.751916,-9.249312,-12.140460,-4.780828
1003.667969,-3.323134,-14.830104,-12.030483,-12.514501
1003.671875,-10.011340,-5.254734,-10.234399,-2.578725
1003.675781,-10.001782,-10.364500,-8.863770,-12.408608
1003.679688,-12.353485,-6.966037,-12.812668,-7.311816
1003.683594,-4.442931,-8.762839,-12.208647,-8.103161
1003.687500,-8.344279,0.096361,-5.930401,-0.085959
1003.691406,-10.292029,8.849528,-8.760090,-5.343191
1003.695312,-3.923408,-7.855359,-5.857846,-6.183340
1003.699219,0.870298,3.255140,-0.078080,-1.545515
1003.703125,0.917218,-1.853705,-5.177051,4.253751
1003.707031,11.871978,6.409012,-2.100687,2.412798
1003.710938,4.973732,7.896367,5.153640,4.576836
1003.714844,1.453360,12.892203,1.363781,5.314470
1003.718750,12.866969,9.930116,17.096893,6.391884
1003.722656,7.896964,9.729888,13.706533,5.913228
1003.726562,11.474807,5.854294,7.044800,8.307319
1003.730469,9.389445,12.714817,5.322538,13.804895
1003.734375,11.763387,9.770610,7.341640,5.943580
1003.738281,8.363926,6.219253,7.631311,5.689754
1003.742188,10.838933,6.627318,3.302012,5.112399
1003.746094,0.471681,0.139898,-1.951493,1.254901
1003.750000,4.000557,2.142535,0.658194,5.341820
1003.753906,-1.419089,5.824487,4.369921,-4.160474
1003.757812,0.275993,-0.640590,-1.347122,-7.508049
1003.761719,-1.005057,-13.587203,-8.060755,-15.160681
1003.765625,-3.887440,-14.458352,-3.479523,-10.735489
1003.769531,-11.155525,-6.909840,-9.280812,-2.046827
1003.773438,-11.644608,-11.085047,-10.800116,-10.551593
1003.777344,-8.898968,-7.572659,-11.040263,-11.247010
1003.781250,-12.635390,-11.061567,-7.026905,-8.497151
1003.785156,-9.735312,-14.665314,-17.301958,-9.307077
1003.789062,-8.988473,-0.677672,-9.286341,-5.639299
1003.792969,-5.508982,2.565388,-0.713105,1.315807
1003.796875,-3.071552,-5.647356,-0.858470,-0.791468
1003.800781,-2.138955,4.360749,-2.850564,6.335551
1003.804688,-1.841813,-0.296217,9.922364,1.230304
1003.808594,3.424406,3.209695,11.898937,6.272396
1003.812500,5.943434,7.029617,10.261793,13.136622
1003.816406,10.346763,8.546202,2.723302,2.084658
1003.820312,9.315428,13.068999,14.611801,12.383717
1003.824219,11.427028,5.320679,11.935443,2.452147
1003.828125,4.779661,9.131327,9.118751,10.888909
1003.832031,12.644600,13.228619,11.958205,8.237906
1003.835938,4.260272,3.469758,10.973532,11.831459
1003.839844,4.778240,5.199038,8.906147,4.899379
1003.843750,5.980690,8.748431,3.771259,-2.939283
1003.847656,1.975181,4.171490,2.351017,2.100866
1003.851562,-2.032897,1.765889,-2.700925,1.564169
1003.855469,-9.484080,-2.642733,-5.801240,-3.803096
1003.859375,-7.878767,-0.618757,0.432833,-8.118160
1003.863281,-14.857299,-2.719256,-8.244033,0.915862
1003.867188,-12.655696,-10.642071,-12.616323,-9.181621
1003.871094,-13.627177,-14.227426,-9.596917,-9.205534
1003.875000,-8.796992,-5.259533,-9.905056,-9.871604
1003.878906,-12.366715,-9.928648,-10.603021,-7.517735
1003.882812,-4.342110,-4.770490,0.111647,-10.816585
1003.886719,-7.518419,-2.579195,-5.030747,-10.271216
1003.890625,0.267204,-2.568713,-2.662349,-6.464350
1003.894531,-10.917244,-7.692761,-5.698361,-6.938527
1003.898438,-2.594624,-3.529685,-3.501435,-8.978615
1003.902344,0.970606,7.093862,6.839575,2.952365
1003.906250,2.823166,5.218571,3.015299,5.593065
1003.910156,7.527362,5.062571,16.680834,3.574111
1003.914062,5.399334,4.914623,0.441854,2.719763
1003.917969,6.749336,10.515680,14.967682,8.143218
1003.921875,19.130666,9.568224,8.928155,11.282800
1003.925781,6.000964,10.850747,7.878806,12.994622
1003.929688,10.459968,9.080302,7.689486,7.691324
1003.933594,6.559761,6.121847,9.109518,-3.147919
1003.937500,7.788953,2.674483,3.719756,7.284888
1003.941406,4.540194,11.847610,14.486438,5.538426
1003.945312,6.429689,8.831454,0.442986,-0.504659
1003.949219,-4.328023,3.832404,3.210977,2.582238
1003.953125,-2.882590,-3.096718,-3.095225,-1.962949
1003.957031,2.586033,-6.882971,-7.459020,-8.710008
1003.960938,-7.059866,-4.423871,-0.679678,-10.800564
1003.964844,-10.410346,-5.984476,-8.114599,-10.573909
1003.968750,-6.781595,-8.172540,-11.019848,-4.848795
1003.972656,-16.993538,-11.448006,-15.814876,-9.314849
1003.976562,-14.595809,-6.234584,-15.695051,-16.746530
1003.980469,-10.468297,-4.413944,-10.797284,-13.166873
1003.984375,-10.777163,-10.053208,-6.499999,-9.568468
1003.988281,-11.934222,-8.196099,-15.010299,-11.591459
1003.992188,-1.874765,-6.648001,-6.965523,-6.816681
1003.996094,-0.699223,-8.611651,-9.198429,-1.623851
1004.000000,0.980945,-1.128498,2.169670,-2.402717
1004.003906,-0.476752,3.182835,6.663676,3.693981
1004.007812,-3.096581,2.362099,8.822072,4.227389
1004.011719,3.230406,17.736437,12.941189,8.585447
1004.015625,5.545870,8.319680,11.102779,12.406414
1004.019531,18.004147,10.770277,11.645808,11.269340
1004.023438,18.934281,14.582394,10.850506,7.123915
1004.027344,5.166052,17.897220,16.900985,13.764057
1004.031250,7.654797,6.581373,3.095761,5.584518
1004.035156,7.315436,8.209259,10.199415,13.104673
1004.039062,7.988428,8.633007,6.736178,0.985285
1004.042969,3.293521,9.562965,-0.422627,6.066028
1004.046875,7.464627,7.916222,-0.047098,5.265481
1004.050781,-0.137135,0.258826,4.143474,-2.265849
1004.054688,-7.700185,-7.651186,-5.027021,3.992629
1004.058594,-1.882473,1.312855,-6.432003,-7.421116
1004.062500,-8.425046,-7.446943,-8.315495,-11.996333
1004.066406,-13.407760,-9.010401,-10.360605,-6.540244
1004.070312,-7.390634,-13.446031,-10.611622,-15.298663
1004.074219,-5.552729,-8.031532,-8.137566,-10.183361
1004.078125,-13.294158,-16.013663,-3.072609,-5.432631
1004.082031,-17.285538,-3.864055,-6.209540,-14.104058
1004.085938,-9.143102,1.090095,-0.427713,-0.555612
1004.089844,-12.336682,-2.560155,-5.106732,-5.344901
1004.093750,-7.992602,-7.285140,3.414769,-5.938418
1004.097656,-0.832481,1.203211,-3.339386,5.112124
1004.101562,2.145175,1.681627,4.434478,1.613521
1004.105469,6.033182,2.371209,7.264769,11.178072
1004.109375,11.463586,3.896322,5.545233,6.667516
1004.113281,10.176310,4.155516,15.951191,11.213012
1004.117188,3.697201,13.379193,8.208952,12.789694
1004.121094,14.604233,7.910279,7.833690,14.039592
1004.125000,10.568619,5.724886,4.971121,13.016281
1004.128906,1.873335,15.080502,5.257011,7.187122
1004.132812,11.633194,10.586365,9.361773,6.629739
1004.136719,3.764882,4.817522,12.237524,8.927544
1004.140625,8.512164,6.680658,5.816092,-3.182792
1004.144531,-1.197996,4.111355,4.841310,3.596607
1004.148438,5.108861,-1.375404,4.826541,0.967021
1004.152344,-9.399404,-1.037484,-2.838647,-3.909867
1004.156250,-0.022118,-6.820164,-8.590670,-8.063055
1004.160156,-5.157155,-1.264171,-1.467438,-1.739445
1004.164062,-7.729281,-11.354463,-7.056630,-2.187006
1004.167969,-9.674116,-10.543024,-12.690321,-6.433949
1004.171875,-12.901758,-8.476897,-8.805263,-12.769327
1004.175781,-14.269069,-6.667478,-5.835096,-10.943813
1004.179688,-14.214075,-7.210764,-7.268186,-10.190868
1004.183594,-5.888956,-11.050492,-8.870850,-10.105566
1004.187500,-17.748501,-9.092717,-9.771213,-13.258345
1004.191406,-3.803148,-4.953120,-5.979355,-7.923195
1004.195312,-3.792416,-9.350490,0.717121,1.572696
1004.199219,-5.129073,-0.583768,-2.363016,9.105539
1004.203125,8.902690,6.959175,6.263588,0.793593
1004.207031,-0.479666,10.209746,-0.012115,9.504475
1004.210938,6.972138,7.532527,8.913759,-2.433963
1004.214844,4.383924,10.159357,8.649873,8.185568
1004.218750,11.680382,6.507625,2.437133,12.388299
1004.222656,4.695284,8.476934,8.778855,13.256587
1004.226562,7.713997,5.641073,10.901343,13.016180
1004.230469,16.210143,12.905828,10.000975,1.829759
1004.234375,11.798666,10.755507,11.597909,9.658695
1004.238281,7.547031,-2.292394,8.480228,5.256606
1004.242188,4.799598,8.624660,0.814825,4.094867
1004.246094,4.110510,5.303080,-3.219631,0.595058
1004.250000,-0.851774,-4.285925,-0.864120,-2.023066
1004.253906,-8.120042,0.746453,-2.712092,2.399280
1004.257812,1.094461,-12.428199,-5.579764,-0.253744
1004.261719,-6.747322,-13.620072,-5.250704,-4.905199
1004.265625,-15.314978,-10.007859,-5.395581,-2.824111
1004.269531,-10.292856,-18.638243,-8.449962,-9.548909
1004.273438,-3.950243,-18.418709,-9.404358,-13.052404
1004.277344,-13.737970,-12.837611,-8.848886,-10.390555
1004.281250,-7.823591,-6.234180,-9.000023,-8.352567
1004.285156,-6.033051,-8.760555,4.937889,-7.324733
1004.289062,-9.966922,-3.742821,-3.506875,-0.609991
1004.292969,-5.878166,-9.175381,-1.209107,1.363791
1004.296875,-3.332048,-2.157230,-0.665697,1.254749
1004.300781,2.503564,-3.426096,-8.321131,2.010100
1004.304688,0.403190,-0.364112,8.713504,6.041449
1004.308594,8.847263,10.094316,3.062566,3.973540
1004.312500,5.822169,6.410358,9.712796,9.190344
1004.316406,12.403033,2.284206,15.682931,3.346927
1004.320312,9.548186,3.730771,12.205327,8.586657
1004.324219,10.216682,12.582849,10.509040,10.039722
1004.328125,14.059082,7.933304,16.955173,22.943439
1004.332031,12.365460,11.420306,6.929629,13.750008
1004.335938,2.713364,10.003697,6.157965,10.171519
1004.339844,6.713327,9.685867,12.290642,4.390694
1004.343750,2.879132,5.057530,7.001285,7.712076
1004.347656,10.222660,-3.230139,-4.846519,-1.428501
1004.351562,0.111241,-13.635306,-0.426166,-3.940751
1004.355469,-4.545627,-3.037676,1.291638,-5.817260
1004.359375,-4.812399,-7.260635,-4.258880,-10.643532
1004.363281,-7.332135,-8.659297,-7.792786,-8.322483
1004.367188,-2.892686,-10.503710,-6.749826,-9.464093
1004.371094,-14.787560,-5.388880,-5.197992,-10.412880
1004.375000,-15.920417,-11.650958,-9.021451,-7.289184
1004.378906,-4.134705,-9.608400,-9.458211,-11.084916
1004.382812,-0.507390,-7.496943,-4.154498,-11.566116
1004.386719,-6.355899,-9.466424,-12.134708,-3.668262
1004.390625,-4.307828,-11.766413,1.070405,-2.214329
1004.394531,6.062174,-9.330136,-6.300160,-3.246125
1004.398438,1.606816,-0.253953,0.206570,-5.885142
1004.402344,3.623865,5.224889,3.657031,9.673034
1004.406250,5.994684,-2.367746,4.622156,13.723229
1004.410156,4.658306,2.468570,3.567826,3.280260
1004.414062,8.036944,10.863040,4.453414,7.362272
1004.417969,18.965049,15.247733,7.691996,12.957904
1004.421875,9.200591,14.840640,12.195483,14.671160
1004.425781,7.574751,11.709075,11.263602,7.206290
1004.429688,16.511629,11.827078,10.213121,6.593775
1004.433594,9.369467,4.792188,13.839360,9.402850
1004.437500,14.916999,9.617415,13.087204,5.318838
1004.441406,1.714216,3.873905,10.998052,10.108338
1004.445312,-3.806059,5.090994,1.272791,-3.496430
1004.449219,-1.533938,4.190193,-11.594160,0.223457
1004.453125,2.208258,5.174392,3.618710,3.769848
1004.457031,-10.931143,1.303152,-5.510326,-5.843333
1004.460938,-0.867849,-2.390269,-9.736993,-5.856643
1004.464844,-11.362744,-5.118338,-12.220229,-7.744636
1004.468750,-3.254982,-4.411724,-12.830234,-14.222611
1004.472656,-10.413748,-13.680742,-6.450644,-11.140838
1004.476562,-7.240033,-6.669236,-15.893756,-3.616641
1004.480469,-9.479453,-8.617665,-10.425194,-5.878343
1004.484375,-5.941317,-4.895618,-8.311008,-17.297478
1004.488281,-7.677120,-5.346972,-9.468017,-8.910545
1004.492188,-3.116791,-9.438798,-2.951467,-7.891758
1004.496094,1.079335,0.132174,4.930545,-1.203292
1004.500000,-3.950952,2.596990,-0.748875,5.984431
1004.503906,-2.045594,-1.700199,-0.021203,3.585749
1004.507812,1.601305,10.495776,-2.375947,-3.477335
1004.511719,8.709852,8.938903,3.890870,10.344541
1004.515625,9.975215,18.196319,7.641525,10.541907
1004.519531,11.124893,15.564906,9.826932,5.249639
1004.523438,9.420778,10.062711,13.415796,8.393477
1004.527344,12.737318,17.075746,7.571349,10.241725
1004.531250,7.417636,8.807425,7.240907,-1.687332
1004.535156,10.883177,8.065747,10.039980,7.258942
1004.539062,5.921323,10.165655,5.015146,5.990666
1004.542969,6.406516,4.646629,8.839918,6.264971
1004.546875,0.674681,3.843476,0.720460,5.359038
1004.550781,-5.541806,-1.587255,-3.233214,-4.060296
1004.554688,-0.055772,-1.489225,-5.671455,1.726245
1004.558594,-8.537239,-3.062271,-5.916158,-2.087785
1004.562500,-8.810781,-7.207488,-8.490293,-9.095329
1004.566406,-16.561090,-11.608630,-5.990864,-9.304240
1004.570312,-8.278202,-10.729222,-9.661212,-12.652993
1004.574219,-17.441219,-7.170517,-11.432172,-10.447165
1004.578125,-2.986090,-11.426680,-14.907780,-8.671689
1004.582031,-12.608209,-10.530820,-5.314714,-17.944408
1004.585938,-9.379592,-5.279247,-9.859811,-7.525391
1004.589844,-5.152575,-5.639975,-10.677863,-7.166079
1004.593750,-0.666910,3.402746,-2.983914,-11.016907
1004.597656,-3.617934,-11.489044,-2.758070,-3.709300
1004.601562,9.910202,-1.885526,3.245129,4.247656
1004.605469,-3.354681,9.177375,1.029201,3.076462
1004.609375,0.222016,7.917311,7.785960,0.121955
1004.613281,6.674339,7.913774,4.004500,7.620810
1004.617188,9.279118,9.551770,7.590112,12.104826
1004.621094,9.066561,7.562792,7.535091,10.574358
1004.625000,5.348347,7.744573,11.121756,9.995074
1004.628906,0.507478,16.323053,7.925438,1.968628
1004.632812,9.150159,14.813328,2.603890,15.632526
1004.636719,7.006581,7.444836,5.733410,5.428256
1004.640625,12.903421,11.842667,11.329465,7.980069
1004.644531,3.224983,4.448629,-1.625373,3.525036
1004.648438,-1.451883,5.247009,1.170730,-2.564240
1004.652344,1.603655,-2.126100,1.591557,-3.908674
1004.656250,-5.653268,-8.956154,1.386876,-4.665927
1004.660156,1.205493,-9.343192,3.322628,-8.109423
1004.664062,-8.112482,-7.049016,-6.958704,-8.595300
1004.667969,-6.009211,-10.638031,-6.000896,-3.585232
1004.671875,-7.493383,-7.081069,-11.181459,-3.507058
1004.675781,-6.527444,-8.733967,-12.779642,-11.200263
1004.679688,-5.004218,-8.119226,-12.690480,-6.663902
1004.683594,1.450194,-3.354566,-9.254490,-7.163209
1004.687500,-13.396108,-7.007544,-6.710345,-7.836384
1004.691406,-1.059980,0.080453,-9.247643,-3.078208
1004.695312,1.658039,-5.622245,-1.989687,-4.065736
1004.699219,-9.315338,0.193699,-5.778092,0.066538
1004.703125,6.924807,3.103365,8.639349,-0.543680
1004.707031,-0.492930,1.416599,4.502148,8.905802
1004.710938,8.761970,9.290877,11.271567,8.183376
1004.714844,9.261404,5.811792,5.735334,8.840797
1004.718750,1.077913,8.271621,6.226550,7.436425
1004.722656,10.136736,13.662572,15.890367,3.556977
1004.726562,11.175467,2.978401,15.625764,21.560216
1004.730469,9.415864,7.339182,16.038519,8.530144
1004.734375,7.439405,8.170652,11.246835,4.068003
1004.738281,9.597177,5.048479,7.571151,5.485081
1004.742188,15.065050,5.971284,-2.055222,2.676227
1004.746094,6.139432,-2.842362,1.044317,2.878343
1004.750000,-4.446900,-1.459097,-1.040980,-0.334903
1004.753906,-5.181264,1.012495,-3.231779,-9.262848
1004.757812,-0.172013,-14.272855,0.178871,-6.982396
1004.761719,6.601248,-8.919888,-8.083422,-4.239300
1004.765625,-16.551797,-11.528270,-8.134119,-7.105173
1004.769531,-6.061444,-7.204204,-11.528278,-6.512086
1004.773438,-12.003291,-8.106073,-6.445515,-11.106341
1004.777344,-16.866813,-17.575444,-7.614128,-9.823409
1004.781250,-6.811169,-6.639791,-8.116758,-12.475799
1004.785156,-4.800356,-18.431094,-15.164701,0.048526
1004.789062,-10.161954,-4.954625,1.819895,-2.622783
1004.792969,-7.917846,-4.441761,-1.176877,-5.064750
1004.796875,-6.091245,2.323475,7.014913,-6.115173
1004.800781,-3.404486,-0.962828,5.331416,-1.814728
1004.804688,-1.130503,8.132846,3.723284,0.409806
1004.808594,8.000235,4.280985,3.175996,6.288054
1004.812500,3.128688,5.547108,9.268985,9.651240
1004.816406,9.700300,4.841644,11.443721,0.859982
1004.820312,15.716228,0.189269,5.243875,7.441714
1004.824219,8.495440,15.174821,4.684343,9.769634
1004.828125,11.014816,3.603580,6.741646,12.633125
1004.832031,12.873260,7.373008,8.558221,6.534240
1004.835938,9.698253,8.752373,9.908184,13.579464
1004.839844,9.122785,5.576115,1.834787,10.938748
1004.843750,3.466974,1.679495,3.293929,7.920704
1004.847656,-2.759488,1.992078,5.066464,3.022210
1004.851562,-1.375984,-3.462468,-2.280216,-3.976751
1004.855469,-4.725266,-0.384913,-1.643506,-9.139083
1004.859375,-6.481427,-3.017707,-11.114320,-6.690245
1004.863281,-11.402061,-9.015896,-4.764475,-7.480723
1004.867188,-6.540863,-9.368149,-3.433382,-12.276589
1004.871094,-6.724086,-10.569690,-7.506335,-13.680315
1004.875000,-13.551262,-4.045625,-15.429424,-11.908940
1004.878906,-8.875143,-7.085666,-17.510327,-6.879493
1004.882812,-9.770927,-11.063919,-3.740734,-15.196040
1004.886719,-5.619954,-16.917970,-16.914189,-9.960296
1004.890625,-1.209763,-6.096214,-2.222693,-6.374642
1004.894531,-8.552390,-0.359614,-4.671199,-8.279524
1004.898438,0.401092,-1.179358,5.426734,-0.676352
1004.902344,2.220506,-0.505589,3.862316,-0.842680
1004.906250,7.397797,0.032900,13.476411,1.038288
1004.910156,0.072038,9.655232,0.583957,1.318032
1004.914062,11.754877,5.289151,8.719495,10.166335
1004.917969,2.142438,9.744491,12.352846,5.523965
1004.921875,19.163213,13.645872,7.776158,9.076270
1004.925781,8.465619,9.615619,4.835092,14.711105
1004.929688,0.434056,4.514488,11.858915,7.527881
1004.933594,11.493271,10.024252,5.005735,9.966885
1004.937500,-0.281729,9.623153,6.289529,0.614165
1004.941406,-2.335119,-1.259435,2.909941,-1.604406
1004.945312,0.288127,9.375391,1.852903,-1.989929
1004.949219,3.206776,3.674113,1.004082,-2.608400
1004.953125,2.652178,-0.290356,1.916354,1.690212
1004.957031,-3.385357,-3.209596,-8.193210,-2.427203
1004.960938,-7.233380,-8.047745,0.051085,-3.186427
1004.964844,-8.912844,-5.995699,-11.547728,-10.905747
1004.968750,-6.127980,-5.155052,-13.639871,-2.938350
1004.972656,-3.329294,-7.808328,-15.496057,-5.392814
1004.976562,-4.677581,-3.318126,-8.122499,-6.744236
1004.980469,-10.073033,-10.866437,-10.064225,-7.375639
1004.984375,-6.119537,-1.982671,-1.929043,-7.221303
1004.988281,-12.873437,-7.816203,0.463405,-12.132065
1004.992188,-5.513549,-9.620073,-2.386572,-7.944162
1004.996094,-1.341563,-2.704247,-6.852385,-2.688222
1005.000000,-2.718070,0.513223,-4.566160,-1.462211
1005.003906,-1.424009,7.134606,-3.241141,6.089605
1005.007812,9.730540,4.862002,12.162996,3.004148
1005.011719,3.546268,6.965681,10.139736,6.160691
1005.015625,2.242445,9.189762,8.999762,1.722306
1005.019531,11.441447,6.914464,10.345667,13.152479
1005.023438,9.981966,11.305805,7.376687,9.946159
1005.027344,15.919251,4.088191,15.963987,11.713211
1005.031250,4.465262,13.525919,8.482011,10.819703
1005.035156,9.588425,3.582171,13.401492,-0.200918
1005.039062,7.744421,8.154844,8.420512,5.292060
1005.042969,3.278857,3.650840,-2.858753,6.944136
1005.046875,-2.302547,3.609329,4.960847,3.409992
1005.050781,4.058980,-5.251568,9.520609,4.387944
1005.054688,-4.595202,-9.520017,-7.523670,-0.710438
1005.058594,-4.308899,-12.763573,1.437788,-4.894268
1005.062500,-9.418036,-6.372851,-7.008883,-6.065453
1005.066406,-2.788945,-13.529603,-5.774266,-6.311731
1005.070312,-2.800005,-3.509174,-5.146996,-11.578900
1005.074219,-12.740224,-7.504030,-9.608090,-14.468109
1005.078125,-11.686193,-14.842834,-14.388771,-13.124334
1005.082031,-9.762231,-6.662006,-16.509188,-8.980765
1005.085938,-11.101382,-10.088902,-9.234200,0.363096
1005.089844,-11.313795,-2.917880,-5.356603,-9.124263
1005.093750,-5.524623,-12.090456,-7.839157,-11.416366
1005.097656,-0.096643,0.991479,-8.518471,-6.745902
1005.101562,3.842835,-9.683775,-6.023469,-5.228912
1005.105469,7.846098,-1.930514,10.852309,2.282493
1005.109375,4.296714,3.395699,0.378640,14.431795
1005.113281,5.294698,11.126126,3.356944,7.398108
1005.117188,6.371883,4.328635,6.004497,11.865878
1005.121094,5.299217,4.702559,16.329772,13.980215
1005.125000,15.817188,5.707606,14.693205,9.618764
1005.128906,8.339985,4.919853,12.980099,16.393606
1005.132812,0.375423,7.326670,17.262995,9.558080
1005.136719,11.450398,0.758617,8.012194,4.348723
1005.140625,9.928817,5.028869,15.517084,4.425347
1005.144531,10.783883,8.055896,11.826831,-0.889996
1005.148438,1.197207,-2.862046,-1.065431,-0.671359
1005.152344,-1.578739,1.388650,-6.216110,-3.221087
1005.156250,-5.948420,-5.281067,-2.522987,-1.612309
1005.160156,-3.476969,-5.493732,-6.785176,-9.254443
1005.164062,-3.258616,-10.688564,-12.356966,-5.631552
1005.167969,-10.802110,-9.005252,-18.513397,-4.156106
1005.171875,-5.257518,-15.658045,-17.883840,-17.923427
1005.175781,-9.795499,-12.955588,-6.701080,-6.979346
1005.179688,-8.165124,-8.849728,-8.723243,-4.265041
1005.183594,-12.303550,-13.823891,-15.582982,-5.918499
1005.187500,-9.093199,-1.958579,-7.605322,-6.067285
1005.191406,-11.233099,-3.509843,0.306497,-1.316021
1005.195312,-5.065859,-1.167879,0.096321,-6.494604
1005.199219,-5.144485,5.977102,-2.397135,-1.918631
1005.203125,5.623088,6.113302,-2.650665,5.991802
1005.207031,1.705397,2.971097,0.205377,4.716199
1005.210938,9.164536,5.848663,9.587396,5.128067
1005.214844,6.103935,9.916829,9.399836,8.461638
1005.218750,2.725078,-1.928023,16.043852,12.090406
1005.222656,7.210209,7.048009,7.203232,2.459389
1005.226562,3.589304,9.195207,10.025209,11.990526
1005.230469,12.319117,3.052061,11.223664,9.011409
1005.234375,1.054546,6.751467,10.235620,3.357524
1005.238281,6.479574,8.582637,7.496743,10.846402
1005.242188,2.809160,-1.046265,7.023550,2.563638
1005.246094,-1.244498,0.787856,2.653648,2.708194
1005.250000,-2.417408,-2.319738,1.856776,7.355830
1005.253906,-7.020077,-5.772039,-4.914445,-7.593684
1005.257812,-2.005542,-0.686565,-5.062837,-7.641284
1005.261719,-2.356512,-2.764786,-7.184836,-6.114658
1005.265625,-12.369899,-9.210818,-4.657227,-11.393406
1005.269531,-13.993567,-7.171498,-12.707065,-15.087769
1005.273438,-11.294082,-13.947217,-12.347475,-10.146989
1005.277344,-12.140151,-15.424631,-9.188609,-11.444358
1005.281250,-6.508917,-10.135154,-9.930905,-1.564508
1005.285156,-4.842040,-14.131975,-13.365904,-10.130770
1005.289062,-6.841129,-0.347211,-2.030650,-3.030941
1005.292969,1.346930,-1.407462,-4.393687,-0.133101
1005.296875,-0.727618,-10.752076,-5.339998,-4.765985
1005.300781,1.642589,-2.255214,-0.075928,-7.613611
1005.304688,3.981439,3.500475,2.590787,2.334633
1005.308594,-1.764428,3.026850,-1.655031,7.795758
1005.312500,2.877059,2.688647,10.409632,4.687706
1005.316406,12.835415,7.130699,14.942153,9.698502
1005.320312,12.725220,3.652916,10.437757,2.222036
1005.324219,14.542162,10.743258,12.202848,13.078732
1005.328125,16.387884,14.158901,4.746799,13.067258
1005.332031,10.599160,9.626729,10.585884,7.150085
1005.335938,5.114549,1.211832,7.944302,12.453547
1005.339844,9.710599,10.611286,3.410696,5.698141
1005.343750,4.914619,6.378375,-1.691006,7.104470
1005.347656,-2.456897,3.052586,2.787002,6.560540
1005.351562,-4.885471,2.270837,5.818139,2.743554
1005.355469,-4.784678,-5.069657,-2.294920,-1.257133
1005.359375,-0.859538,-1.555419,-8.153347,-3.359174
1005.363281,-7.850308,-1.583008,-4.137603,-7.610815
1005.367188,-14.720328,-12.417880,4.573410,-16.877128
1005.371094,-10.377294,-11.420096,-9.716324,-5.406465
1005.375000,-9.942838,-17.790178,-3.971431,-1.419626
1005.378906,-19.254979,-13.756147,-8.835459,-14.492325
1005.382812,-4.227691,-16.359430,-11.163661,-11.941733
1005.386719,-5.806233,-11.319838,-6.088392,-0.805734
1005.390625,-7.112072,-6.709384,-9.409530,-8.165983
1005.394531,-3.416184,-2.254835,-8.722009,-1.828191
1005.398438,-3.008140,-4.760214,-4.399803,-4.828402
1005.402344,-6.976704,1.525074,-1.646629,0.660432
1005.406250,4.773756,2.024927,4.592224,0.872689
1005.410156,4.002161,6.062316,3.666113,9.439481
1005.414062,1.167352,14.150456,7.603764,14.553738
1005.417969,0.249980,11.542002,10.817815,13.643524
1005.421875,17.492515,11.747235,8.053996,12.462198
1005.425781,11.014861,14.312692,7.211210,9.762317
1005.429688,9.474385,14.396183,10.054628,15.197668
1005.433594,8.718448,9.860728,8.622051,7.614153
1005.437500,3.686769,9.906469,9.540605,10.633546
1005.441406,4.663002,4.950979,1.222583,-1.928927
1005.445312,12.143352,1.478523,1.615483,3.455753
1005.449219,3.775415,1.712828,-5.138687,1.079016
1005.453125,-0.434959,3.246513,-3.052788,-8.791757
1005.457031,-6.648636,-3.062424,-6.472490,-6.525507
1005.460938,-11.309225,-11.260578,-3.477867,-4.243527
1005.464844,-8.296954,-2.650834,-9.545666,-20.502446
1005.468750,-16.187190,-11.232204,-13.762351,-16.250822
1005.472656,-16.917865,-14.782078,-9.572862,-8.409106
1005.476562,-18.055836,-0.746003,-10.606478,-7.087019
1005.480469,-4.861699,-9.629436,-14.733414,-11.572050
1005.484375,-6.083868,-7.264763,-0.897778,-8.706645
1005.488281,-12.991857,-6.445444,-5.985159,-6.064502
1005.492188,-0.156982,-1.652216,-5.273308,-5.239971
1005.496094,-2.846570,-2.237104,-6.090057,-3.986393
1005.500000,2.232749,0.123932,7.487733,-2.000350
1005.503906,6.813474,2.123486,1.594649,-1.983292
1005.507812,6.714610,2.437174,-1.452907,2.375381
1005.511719,4.064420,5.056519,9.418005,1.421048
1005.515625,9.919465,5.754167,12.975101,3.278287
1005.519531,5.500518,-1.722405,5.334398,1.616652
1005.523438,16.222087,12.241854,13.295225,17.273438
1005.527344,5.787466,11.905161,7.244946,13.597218
1005.531250,9.771113,10.505985,7.223494,12.634980
1005.535156,4.845832,1.777739,11.524358,10.299015
1005.539062,6.077782,4.715376,7.930293,9.519415
1005.542969,1.330226,4.709582,1.731305,1.347460
1005.546875,6.721249,9.324420,-0.413122,1.245808
1005.550781,2.331581,-2.125952,6.330525,0.158157
1005.554688,-8.774216,-3.849273,-0.396824,-7.739827
1005.558594,-5.072760,-11.369525,-4.752569,-4.829291
1005.562500,-8.434666,-6.156331,-5.111109,-7.177083
1005.566406,-10.263893,-8.527957,-8.142423,-3.837168
1005.570312,-15.112021,-16.342087,-11.152009,-12.791278
1005.574219,-4.283600,-13.070701,-6.146500,-6.452375
1005.578125,-7.771669,-9.545706,-10.542171,-3.696322
1005.582031,-5.371601,-5.462216,-11.145008,-9.137968
1005.585938,-9.487332,-6.580126,-5.734249,-8.804157
1005.589844,0.730174,-3.509528,-5.273972,-9.337446
1005.593750,-1.966506,-1.789941,-3.143268,-7.749777
1005.597656,6.410102,2.281348,-1.557437,-1.629123
1005.601562,3.363835,6.484405,-6.578380,0.790572
1005.605469,0.395444,-3.783112,9.338855,9.826877
1005.609375,4.892994,4.991333,2.612904,0.420193
1005.613281,8.389014,4.358840,-2.492429,9.333297
1005.617188,11.037728,11.772382,12.795894,2.479744
1005.621094,10.762978,11.387512,10.108167,7.698353
1005.625000,7.082683,8.546322,9.306074,6.001745
1005.628906,7.150468,12.273019,13.469684,4.132703
1005.632812,8.567732,1.759867,12.910011,13.693265
1005.636719,18.078291,11.762992,5.650837,0.846789
1005.640625,10.877641,6.760535,6.227671,5.148204
1005.644531,7.604550,3.649348,1.343764,-1.767838
1005.648438,0.172184,7.604524,3.528713,2.626146
1005.652344,-6.342801,2.975977,-1.712704,0.893942
1005.656250,-3.409011,3.125495,-6.321722,-9.192481
1005.660156,-8.597002,-7.291382,-1.022202,-8.598267
1005.664062,-10.111152,1.273285,-3.099183,-7.907897
1005.667969,-13.362658,-8.452412,-10.165903,-8.218869
1005.671875,-8.482940,-10.134903,-10.864020,-18.734535
1005.675781,-12.265693,-6.710320,-6.151446,-15.668454
1005.679688,-9.282820,-9.435735,-14.068682,-3.981447
1005.683594,-10.857965,-7.198386,-6.814996,-13.336803
1005.687500,-3.603358,-12.899233,-2.532215,-10.304895
1005.691406,-5.788262,-1.711713,-2.931777,-10.142879
1005.695312,-3.024177,1.944258,-8.749268,-1.695779
1005.699219,-2.125627,2.627531,4.400878,-0.709444
1005.703125,3.045570,3.934966,2.315229,11.954830
1005.707031,5.464975,6.567700,8.308850,0.155841
1005.710938,14.409027,2.326185,9.947602,6.728135
1005.714844,8.151267,10.785801,8.894401,3.562012
1005.718750,7.247081,10.239330,-0.937723,12.624641
1005.722656,11.896706,12.892486,9.300642,10.826413
1005.726562,6.357849,7.844264,6.766269,2.042390
1005.730469,2.817484,4.837559,15.210284,10.176130
1005.734375,10.533870,10.000964,12.724798,11.227907
1005.738281,4.127868,8.672375,9.049007,12.127324
1005.742188,9.015538,0.362283,5.973815,4.584887
1005.746094,5.605687,-1.949104,-0.481628,1.785520
1005.750000,-1.242395,-5.641361,2.872659,0.272962
1005.753906,-12.348028,-3.047903,-12.057224,-1.750344
1005.757812,-7.255235,1.108378,1.105063,-5.985817
1005.761719,-5.979901,-2.275375,-4.754404,-1.915710
1005.765625,-7.887388,-9.794893,-1.874568,-8.064285
1005.769531,-12.066281,-12.073552,-13.561231,-10.680963
1005.773438,-12.722977,-13.952768,-9.021325,-11.515322
1005.777344,1.839427,-11.340171,-12.269679,-8.921944
1005.781250,-7.620467,-10.789172,-7.259578,-13.387606
1005.785156,-9.305384,-4.346400,-10.275912,-3.992334
1005.789062,-4.076063,-9.593086,-3.839938,-11.123494
1005.792969,-8.299152,-1.529164,-5.828895,-3.879578
1005.796875,-6.862687,-1.138660,-4.209551,-6.161074
1005.800781,-1.358194,1.028436,4.243664,0.639580
1005.804688,11.131315,1.391448,3.473182,9.631806
1005.808594,7.216570,2.402207,4.204262,1.538124
1005.812500,12.856461,6.239195,2.733992,9.230939
1005.816406,15.231192,1.300429,6.185678,10.413769
1005.820312,3.695618,7.454825,6.276589,7.768503
1005.824219,10.899892,6.891478,14.552006,19.899030
1005.828125,3.819918,8.107971,5.143641,8.082934
1005.832031,8.569456,6.648666,7.854692,12.290381
1005.835938,6.778441,9.743548,15.882379,8.303036
1005.839844,9.346855,8.279275,7.313589,15.219289
1005.843750,6.324840,-1.680183,5.179002,1.657737
1005.847656,2.375906,7.290144,6.593340,5.619223
1005.851562,-1.683777,-0.788520,6.162282,-1.296890
1005.855469,-8.281865,-6.160018,-3.077597,-2.394050
1005.859375,-10.590764,-6.960269,-1.389132,-2.806991
1005.863281,-9.749128,-0.976472,-4.691292,-6.300312
1005.867188,-11.652812,-6.109372,-1.226635,-8.812085
1005.871094,-4.221083,-8.173573,-5.512425,-9.088323
1005.875000,-15.429602,-7.153483,-4.089720,-13.674155
1005.878906,-15.906170,-8.154007,-9.565163,-4.261398
1005.882812,-10.935965,0.073807,-13.227513,-9.237541
1005.886719,0.265884,-9.416424,-5.590690,-8.248607
1005.890625,-6.207219,1.076196,-2.582119,-7.076479
1005.894531,-2.476041,0.062528,-8.458260,0.428047
1005.898438,2.733167,3.515559,-1.381162,3.502713
1005.902344,7.980699,-0.404777,8.847130,0.611229
1005.906250,3.929494,2.547084,0.961681,0.639489
1005.910156,11.453643,3.580942,11.096588,7.283292
1005.914062,11.900497,11.816538,4.984181,0.546894
1005.917969,9.784683,14.835548,13.608883,10.498404
1005.921875,5.715696,13.530001,8.712848,11.178845
1005.925781,11.013043,9.981566,10.588906,12.919235
1005.929688,16.241497,10.230717,8.873995,9.784196
1005.933594,4.865974,6.517114,7.925355,13.970625
1005.937500,4.765121,3.818397,14.353621,11.913491
1005.941406,1.823811,8.313143,9.754669,8.179153
1005.945312,0.316213,-0.857805,3.078083,-1.436828
1005.949219,3.144198,2.625515,-0.805081,-1.641376
1005.953125,-0.355449,-2.039358,-1.836535,5.207452
1005.957031,-5.910298,-4.485297,-11.803885,-9.161417
1005.960938,-5.153259,-5.721170,-6.688884,-7.573391
1005.964844,-8.338442,-3.219304,-9.807692,-8.721567
1005.968750,-14.599759,-3.385565,-5.232659,-8.172906
1005.972656,-13.614329,-9.933190,-12.020957,-12.652216
1005.976562,-12.242423,-9.156546,-13.837704,-8.826580
1005.980469,-9.211948,-9.362407,-1.582138,-5.697761
1005.984375,-7.505857,-6.858483,-15.525698,-5.433205
1005.988281,-3.283406,-14.223932,-5.093024,-7.731024
1005.992188,-2.546217,-12.359150,-5.081709,-4.211271
1005.996094,-5.341641,-3.434313,2.831021,-7.609452
1006.000000,7.808051,2.922878,-0.730783,-1.768148
1006.003906,3.530450,-2.555847,5.100470,0.634300
1006.007812,3.952086,12.125720,7.029567,1.691719
1006.011719,3.594237,-3.635153,8.486134,5.306893
1006.015625,2.653954,5.584800,11.768095,15.439925
1006.019531,18.350184,11.985043,4.925902,13.058608
1006.023438,14.464272,10.385971,2.237090,8.516716
1006.027344,10.163483,11.351969,14.818705,9.194529
1006.031250,10.219758,17.069401,5.877134,3.058445
1006.035156,11.089536,12.850413,5.122206,7.498749
1006.039062,9.442224,9.953018,6.846923,8.924238
1006.042969,7.562010,3.804613,5.304601,4.503341
1006.046875,-0.769870,3.765443,2.509103,3.544708
1006.050781,-6.273228,-4.871093,-2.858703,-3.331889
1006.054688,-6.247634,-5.155634,-2.466507,2.443527
1006.058594,-7.987725,-5.223424,-1.644121,-7.361744
1006.062500,-10.159741,-7.100787,-7.654931,-10.999689
1006.066406,-6.756394,-6.144372,-11.557572,-7.788789
1006.070312,-6.275367,-10.248830,-14.370333,-7.994649
1006.074219,-13.495593,-4.852294,-6.018865,-9.841139
1006.078125,-13.239494,-9.257276,-10.428452,0.194909
1006.082031,-7.998875,-9.268174,4.351324,-13.229873
1006.085938,-3.968516,-10.726481,-10.707573,-11.464416
1006.089844,-3.690591,-6.113910,-11.769762,-8.155806
1006.093750,-9.175949,-7.609435,-6.543076,-3.105814
1006.097656,-2.092285,1.380296,0.856853,-0.763134
1006.101562,-1.679612,3.176226,-4.440650,5.771279
1006.105469,3.949415,3.504391,11.971676,-0.983234
1006.109375,0.806579,4.086148,-0.386830,10.374685
1006.113281,2.392551,12.785457,0.954236,5.707166
1006.117188,13.744997,3.625627,9.458764,6.734274
1006.121094,11.542281,12.125462,9.925166,9.428703
1006.125000,11.488916,11.559460,11.874430,11.459160
1006.128906,18.334857,8.798721,8.806461,10.652719
1006.132812,11.057244,8.642618,5.851574,12.838963
1006.136719,5.109677,7.762878,3.757948,0.557174
1006.140625,5.894148,1.040597,9.606104,5.514662
1006.144531,11.071385,4.855904,0.000280,6.305830
1006.148438,2.872154,-0.338447,-0.110427,0.895678
1006.152344,1.686752,-2.097917,-0.083270,-0.935428
1006.156250,-4.012506,0.310174,-6.127690,-9.566420
1006.160156,-5.968568,-1.176713,-11.536127,-4.883838
1006.164062,-12.887920,-10.507003,-12.668614,-3.956539
1006.167969,-7.005283,-11.175629,-7.373313,-9.849666
1006.171875,-11.298640,-16.186814,-11.124256,-10.433802
1006.175781,-9.695806,-5.050934,-6.805568,-14.185477
1006.179688,-4.343766,-5.730465,-12.731891,-5.631673
1006.183594,-7.489348,-8.134853,-6.671732,-15.755477
1006.187500,-1.480562,-3.980343,-10.634348,-8.324689
1006.191406,-9.508163,-2.416665,-4.294435,-2.227409
1006.195312,-4.326156,-1.021445,-6.239327,-1.254182
1006.199219,1.780095,0.070656,-5.348773,6.310408
1006.203125,4.498579,-1.599765,0.027074,-0.121982
1006.207031,7.261916,2.336573,-1.069977,1.083764
1006.210938,7.428021,5.466732,12.144861,5.824190
1006.214844,2.770186,7.125538,5.459729,6.380830
1006.218750,8.541043,10.309089,15.952395,13.564792
1006.222656,9.520941,8.034779,1.714370,16.099324
1006.226562,13.341586,9.756308,19.103355,13.341674
1006.230469,6.230373,14.083185,12.431859,11.173453
1006.234375,12.972301,7.898646,12.416406,5.416401
1006.238281,9.943370,5.558688,1.020766,14.937033
1006.242188,10.571533,6.234199,-2.735711,0.560121
1006.246094,-1.304945,0.617435,8.445270,13.801781
1006.250000,-0.368773,-3.217746,5.894544,-3.358839
1006.253906,-1.413053,-3.665977,-4.119377,-4.194653
1006.257812,0.792916,2.890972,-5.039251,-8.210828
1006.261719,-5.344872,-4.879422,-2.970526,-5.443003
1006.265625,-9.743326,-12.486058,-11.693964,-13.195173
1006.269531,-16.411965,-9.777322,-17.616290,-1.014589
1006.273438,-12.318141,-15.168280,-11.932215,-10.233280
1006.277344,-13.733708,-12.054692,-3.431789,-7.006210
1006.281250,-9.630707,-7.026059,-10.542179,-11.333568
1006.285156,-9.996503,-3.711226,1.581506,-8.427996
1006.289062,-2.870960,-8.174484,-7.415014,-5.777754
1006.292969,-4.125366,-0.908148,2.578392,-11.805836
1006.296875,0.316710,-5.253341,-5.796553,0.827893
1006.300781,6.781947,5.108897,4.185192,2.615379
1006.304688,5.640648,-0.648991,2.866267,3.199671
1006.308594,7.382187,3.609564,8.749593,3.000193
1006.312500,4.803267,10.658290,13.287624,0.059483
1006.316406,10.922269,6.798399,13.174024,4.202132
1006.320312,3.737464,7.353655,9.393460,15.657362
1006.324219,14.031647,12.047120,5.642063,13.979807
1006.328125,13.033385,8.080838,6.004441,3.899823
1006.332031,16.139945,12.140409,6.856193,11.593904
1006.335938,9.815462,9.362716,7.858772,1.569858
1006.339844,3.618473,7.747065,10.847434,8.042753
1006.343750,1.536545,9.173804,6.601696,6.669575
1006.347656,3.101068,1.652339,-0.444686,4.346483
1006.351562,-8.986219,3.635836,-9.031836,-1.393262
1006.355469,-2.055925,-8.196686,1.646983,-9.233625
1006.359375,-4.964150,0.388384,0.730835,-4.264037
1006.363281,-6.085378,-10.431001,-5.077514,-6.820730
1006.367188,-4.600970,-7.507876,-16.527562,0.061874
1006.371094,-9.177984,-5.125913,-5.584354,-18.549764
1006.375000,-9.574691,-9.326827,-10.600290,-12.799296
1006.378906,-13.503715,-4.945139,-11.449792,-7.504772
1006.382812,-12.379347,-10.006363,-6.373134,-11.732341
1006.386719,-8.372370,-6.066476,-10.220181,-5.367879
1006.390625,-2.718039,-6.724283,-9.669877,-6.235802
1006.394531,-1.231618,-9.037258,-1.622554,2.112989
1006.398438,-4.819126,-0.409464,4.389879,-6.206558
1006.402344,5.470266,-0.295299,0.031140,4.121757
1006.406250,3.637285,3.558396,4.241650,9.973515
1006.410156,4.989379,2.693674,3.109549,8.950449
1006.414062,7.113394,3.258258,5.555641,6.014780
1006.417969,16.092472,-0.365585,11.544459,8.612297
1006.421875,10.487946,11.152916,7.378391,9.332086
1006.425781,7.875260,7.402589,8.048630,9.749509
1006.429688,13.824103,1.971137,11.812059,7.920375
1006.433594,4.201577,5.190385,8.676682,1.641552
1006.437500,-1.405126,3.990226,10.727716,1.647610
1006.441406,10.790440,-1.233667,1.891077,6.739613
1006.445312,1.675140,-1.243427,1.595330,-4.613438
1006.449219,2.956908,-10.611273,1.986878,-1.062249
1006.453125,4.558877,-2.679346,-4.326275,0.022300
1006.457031,-10.554238,-6.812001,-5.849844,2.259945
1006.460938,-9.724232,-9.169720,-10.412547,-7.318703
1006.464844,-5.678329,-9.288075,-13.473649,-5.878149
1006.468750,-8.072999,-14.787234,-3.846700,-7.379279
1006.472656,-4.629596,-13.914587,-5.002368,-9.161525
1006.476562,-11.737519,-12.506973,-13.571409,-19.692923
1006.480469,-5.967032,-9.836501,-3.826732,-13.308700
1006.484375,-16.557420,-3.735683,-11.459574,-13.794071
1006.488281,-8.605285,-9.357433,-0.676418,-9.297637
1006.492188,-4.992101,-4.816970,-5.057395,-3.129845
1006.496094,1.844532,-2.946660,-6.467346,-4.807302
1006.500000,5.539623,-0.274118,-1.613867,-5.376043
1006.503906,-4.145054,12.275089,6.140595,8.550995
1006.507812,4.038427,9.123188,-0.285007,5.994795
1006.511719,5.741162,1.465469,8.476285,-2.238190
1006.515625,9.273314,11.147208,12.560822,4.770315
1006.519531,11.709581,8.328928,1.466126,9.201286
1006.523438,19.553173,10.972129,13.110907,10.528638
1006.527344,0.156029,3.271679,5.999232,9.915021
1006.531250,14.843888,7.708026,8.905399,7.487374
1006.535156,-1.165894,16.535684,13.152584,5.330827
1006.539062,16.459374,5.219377,5.149741,6.650430
1006.542969,-0.754844,7.084043,4.067613,5.965601
1006.546875,-1.000471,1.974303,8.071372,-1.087605
1006.550781,1.919492,7.601093,1.315089,4.230290
1006.554688,3.234944,4.442104,-7.275098,-5.890046
1006.558594,-4.959328,-8.040760,-4.710423,-4.268767
1006.562500,-3.999127,-0.906864,-3.889702,-5.025930
1006.566406,-9.784454,-8.986026,-12.078602,-7.089689
1006.570312,-9.752783,-18.602903,-12.524691,-14.803823
1006.574219,-9.939326,-5.896784,-10.840997,-11.517791
1006.578125,-8.077446,-10.821381,-7.526340,-9.549375
1006.582031,-6.856067,-0.792596,-14.723665,-17.953410
1006.585938,-3.818992,-16.923786,-9.790364,-3.655737
1006.589844,-4.333090,-7.226354,-6.110210,-4.438255
1006.593750,-2.466147,2.125339,-7.272325,1.221715
1006.597656,2.281506,8.407702,-4.224024,-3.962650
1006.601562,-1.398583,3.388089,6.811341,0.108711
1006.605469,9.341143,3.899521,4.370449,-3.377653
1006.609375,12.452184,5.189851,10.271749,8.029399
1006.613281,2.271470,17.429791,9.877281,10.333034
1006.617188,2.409058,8.115157,13.186398,6.161517
1006.621094,12.401641,5.975902,5.607607,11.346750
1006.625000,14.407490,9.886863,6.058755,15.774103
1006.628906,12.949864,4.743828,4.966978,10.341662
1006.632812,3.708560,0.130545,10.902662,6.908441
1006.636719,5.581860,8.993279,9.715505,11.268114
1006.640625,-1.264157,8.253756,2.062171,6.990563
1006.644531,5.277910,4.813419,2.953266,8.811226
1006.648438,0.433817,-2.559297,-0.946230,1.835974
1006.652344,3.672730,4.469171,3.653907,-3.104526
1006.656250,3.848497,-6.183606,-6.596635,-6.606728
1006.660156,-10.600972,-9.041171,-7.245793,-4.639178
1006.664062,-4.328730,-1.224904,-15.918453,-2.791815
1006.667969,-11.914429,-2.209830,-8.034571,-7.355396
1006.671875,-9.452858,-10.011739,-7.985458,-11.605799
1006.675781,-10.303572,-8.735323,-4.335802,-7.239316
1006.679688,-10.944553,-7.074943,-11.911703,-6.173129
1006.683594,-8.545252,-11.357215,-9.568496,-10.981920
1006.687500,-3.295549,-8.991451,-6.116234,-11.903309
1006.691406,-3.373188,-2.728138,-5.907018,-12.145822
1006.695312,-7.556251,-1.101836,-8.275290,-10.993539
1006.699219,4.932237,2.594895,-1.669798,-1.596405
1006.703125,2.292127,2.360718,3.486332,4.171313
1006.707031,10.468376,6.750088,9.123579,4.667032
1006.710938,6.544394,2.559752,11.548845,7.463355
1006.714844,5.127178,-2.090682,9.333279,5.644793
1006.718750,13.942711,8.223587,12.118401,4.704155
1006.722656,8.141149,4.181559,10.534281,9.412040
1006.726562,8.734222,6.590070,7.413617,11.320639
1006.730469,6.693400,8.770955,7.464193,7.098709
1006.734375,0.426843,8.036935,12.430292,-1.642170
1006.738281,6.260623,1.334745,3.268003,9.284953
1006.742188,6.628496,1.101194,8.613927,6.234624
1006.746094,1.823129,-6.774725,4.749182,7.135123
1006.750000,6.309849,-3.968968,4.490623,-1.640565
1006.753906,0.095799,-0.636155,1.536162,-7.834578
1006.757812,-11.547363,-7.123276,-2.133181,-7.620858
1006.761719,-7.266366,-6.666572,-14.944109,-6.989494
1006.765625,-10.706159,-11.312872,-8.588021,-12.812367
1006.769531,-12.872984,-15.453173,-10.473092,-3.961271
1006.773438,-11.401342,-2.504092,-5.739788,-12.970493
1006.777344,-8.697919,-4.946834,-8.110346,2.288503
1006.781250,-8.480204,-8.906085,-8.146953,-10.261733
1006.785156,-12.170106,-14.006081,-10.262986,-5.592574
1006.789062,-4.990666,0.393368,-2.802047,-6.441677
1006.792969,-3.656616,-5.066310,-2.743164,2.210172
1006.796875,-1.774907,5.104803,2.338500,-2.779828
1006.800781,-3.968967,-6.062786,-0.871891,-0.027969
1006.804688,-0.328743,8.497056,0.965416,-1.733450
1006.808594,3.418877,4.648905,11.722107,12.139924
1006.812500,12.105689,13.241013,10.019429,6.419425
1006.816406,16.469911,12.862727,7.342843,11.199271
1006.820312,10.182081,14.852440,7.551567,11.208591
1006.824219,5.073039,9.433545,5.744116,12.910537
1006.828125,9.228601,10.960782,1.202571,5.924808
1006.832031,2.027474,4.063766,9.769013,0.651310
1006.835938,14.664764,4.556888,9.443230,14.726935
1006.839844,-3.847753,7.745803,7.629177,7.763855
1006.843750,8.361234,-4.457935,4.096709,10.363561
1006.847656,1.801069,2.548307,0.136012,-0.951073
1006.851562,-4.995753,-2.378629,0.545296,5.077876
1006.855469,-4.077688,1.329504,-3.786846,4.241975
1006.859375,-5.638071,-3.763875,0.806773,-1.306295
1006.863281,-7.107158,-4.945799,-0.422131,-9.648599
1006.867188,-7.662889,-4.832521,-9.456900,-6.688495
1006.871094,-9.788635,-4.823560,-8.529406,-12.886760
1006.875000,-9.250586,-9.560638,-14.544532,-12.435934
1006.878906,-9.671464,-14.248400,-6.909119,-10.829540
1006.882812,-0.266372,-6.945724,-10.586679,-11.859007
1006.886719,-10.295671,-4.716067,-14.480799,-13.305670
1006.890625,-6.422281,-7.127400,-4.865228,-4.024181
1006.894531,-1.027077,-0.879104,-5.867149,-7.012589
1006.898438,-2.799167,1.005994,1.960203,-2.265350
1006.902344,-0.860936,1.459484,-1.279942,1.584327
1006.906250,2.240627,11.990352,9.048019,6.318731
1006.910156,3.309942,7.731820,6.725268,-4.861919
1006.914062,10.831813,4.512671,5.422291,12.728600
1006.917969,5.134098,7.861210,16.959927,6.106697
1006.921875,6.718928,5.139009,8.433967,10.413948
1006.925781,9.548772,16.813989,17.710588,9.804721
1006.929688,3.553522,15.706394,15.612214,9.073364
1006.933594,8.305784,11.542567,5.836460,16.140409
1006.937500,13.031279,6.565843,7.894822,4.967190
1006.941406,3.629468,4.880611,6.458830,0.008421
1006.945312,6.038008,5.887486,8.476577,1.881071
1006.949219,-2.794764,-1.128343,-3.458874,0.820581
1006.953125,5.501732,3.032510,0.451294,-4.131732
1006.957031,-11.880307,-5.460062,-6.506048,-8.118176
1006.960938,-9.964055,-11.217084,-6.406820,-4.943077
1006.964844,-10.654535,-8.151217,-9.916646,-3.535978
1006.968750,-10.015434,-17.995019,-8.425504,-12.205172
1006.972656,-3.325835,-1.356235,-7.966180,-5.177221
1006.976562,-6.604411,-15.014492,-12.818871,-3.063061
1006.980469,-9.933820,-12.658110,-6.573619,-4.059688
1006.984375,-12.407402,-15.631362,-10.535443,-14.718707
1006.988281,-8.781200,-4.366067,-0.397977,-5.935245
1006.992188,-0.347420,5.656146,-11.275195,-7.905907
1006.996094,-5.659255,-6.157860,-7.146839,-5.168165
1007.000000,-0.140884,4.567441,-1.012229,2.579656
1007.003906,6.439200,1.167587,7.741784,-0.451037
1007.007812,2.962689,4.371826,6.545721,4.118683
1007.011719,2.208807,1.290261,5.367268,9.980960
1007.015625,17.830943,6.885356,6.452610,7.693998
1007.019531,8.491473,5.542737,9.945347,7.131767
1007.023438,4.666252,8.038527,14.141581,4.739970
1007.027344,6.376301,11.595648,8.076687,9.121312
1007.031250,8.176048,10.101793,15.609503,10.628207
1007.035156,9.322257,10.980737,-1.873542,9.567796
1007.039062,11.815511,11.850537,3.737818,-2.515183
1007.042969,2.408859,7.649753,7.919470,1.107619
1007.046875,-0.257116,1.578006,2.498082,1.525035
1007.050781,1.185729,-2.292176,-2.028406,-2.458977
1007.054688,-2.987547,-5.138679,2.702355,2.768776
1007.058594,-5.475441,-3.429643,-5.203708,-7.603828
1007.062500,-3.421672,-9.514284,-0.295400,-8.680675
1007.066406,-12.872117,-6.946586,-12.607642,-6.673969
1007.070312,-12.359714,-12.415790,-11.041106,-16.507370
1007.074219,-8.430313,-11.902057,-10.789852,-20.565838
1007.078125,-12.742004,-7.921446,-8.699013,-15.846131
1007.082031,-16.749335,-11.546373,-11.943935,-2.709663
1007.085938,-4.227309,-8.981872,-11.347195,-2.864858
1007.089844,-5.017806,-13.541956,-5.973327,-3.632299
1007.093750,-5.810769,-6.904110,-2.476367,-5.487196
1007.097656,5.096874,-0.294754,8.284735,0.910279
1007.101562,-2.859741,2.635179,-1.586649,-4.331940
1007.105469,1.273738,7.193995,8.090588,6.218347
1007.109375,5.352790,-3.038150,14.103149,2.171947
1007.113281,3.740047,3.014659,10.032328,6.610333
1007.117188,16.634443,6.609169,15.795232,6.620953
1007.121094,7.495610,3.690289,9.944864,5.960870
1007.125000,12.010467,6.748533,13.134461,4.731825
1007.128906,7.471651,12.201553,10.136854,7.323261
1007.132812,9.290519,12.284281,3.778922,10.149030
1007.136719,-1.418683,6.339682,7.820972,3.778329
1007.140625,1.206873,10.793441,2.410036,-0.130450
1007.144531,-1.014578,2.912292,4.914061,10.402021
1007.148438,-4.245816,-3.792910,3.457190,-3.141337
1007.152344,-9.964413,3.268991,-0.064790,0.681783
1007.156250,-0.509834,-6.257772,-5.280141,1.201830
1007.160156,-3.105909,-9.156144,-3.433916,-4.233960
1007.164062,-3.804055,-4.119160,-11.206880,0.496428
1007.167969,-3.935119,-13.799519,-11.898456,-4.473674
1007.171875,-10.348088,-5.842430,-7.517871,-3.074641
1007.175781,-9.056949,-18.519588,-12.510904,-11.599441
1007.179688,-5.786020,-9.376390,-12.528454,-7.972263
1007.183594,-7.174146,-12.690932,-10.102947,-5.994618
1007.187500,-11.609759,-17.703857,-8.834385,-7.968241
1007.191406,-1.082727,-0.880025,-0.621068,-4.345298
1007.195312,1.163078,1.460252,-5.792784,-7.033826
1007.199219,0.180970,2.766390,1.664178,-0.805400
1007.203125,4.913085,1.421833,2.473335,8.108041
1007.207031,5.900856,3.465379,8.329747,3.160718
1007.210938,4.476690,6.131103,3.585291,12.249879
1007.214844,8.651644,10.903583,8.922069,9.011543
1007.218750,7.305445,8.978539,13.137571,5.157638
1007.222656,6.505745,7.499464,12.106413,4.318347
1007.226562,10.478391,6.901063,12.214835,4.376311
1007.230469,9.130117,12.238599,8.044649,8.935319
1007.234375,12.210312,5.893658,7.147520,6.498567
1007.238281,3.020537,-4.187603,7.731163,1.931206
1007.242188,1.863652,-1.880001,5.647888,12.904121
1007.246094,4.736398,5.653560,-0.431358,4.762625
1007.250000,2.907459,-0.827137,-4.792722,-2.636705
1007.253906,-2.380705,-6.568545,-4.585266,-3.229839
1007.257812,-6.207339,-4.379303,-2.569985,-2.053423
1007.261719,-6.075717,-5.911293,-10.116801,-9.723791
1007.265625,-5.650330,-0.108195,-11.066120,-0.199595
1007.269531,-17.526717,-9.769061,-7.423048,-13.374265
1007.273438,-11.640523,-7.457971,-7.158978,-9.740445
1007.277344,-10.698086,-5.124813,-18.021816,-6.198364
1007.281250,-14.436836,-8.808279,-7.668435,-11.160153
1007.285156,-9.442437,-12.850387,-9.176756,-8.910286
1007.289062,-1.611298,-2.332693,-6.604605,0.300563
1007.292969,-5.804420,-9.184841,-8.473834,-6.619178
1007.296875,-0.979769,0.608396,3.286987,-1.261451
1007.300781,-3.243697,-1.627174,0.975032,0.400239
1007.304688,-5.442410,2.475570,1.724471,1.884994
1007.308594,5.136448,4.584243,0.139667,-2.114274
1007.312500,-2.494866,1.179104,12.804038,4.711980
1007.316406,3.242077,14.981752,8.074820,2.100218
1007.320312,7.557054,9.291160,3.182783,12.663110
1007.324219,13.042521,7.065543,12.087956,13.137664
1007.328125,4.669216,3.755718,10.710167,9.192419
1007.332031,16.672761,11.328049,12.025505,17.506654
1007.335938,8.703008,9.926526,7.635154,7.067225
1007.339844,9.274577,-4.009295,-0.835508,-4.477300
1007.343750,2.644296,9.032197,4.279577,-0.847228
1007.347656,-2.317509,3.870453,-2.595234,0.079092
1007.351562,-0.111618,-5.752727,-2.974621,-4.462085
1007.355469,-5.366246,-0.012931,2.616923,-10.256382
1007.359375,-2.116759,-10.319918,-3.261045,-15.203432
1007.363281,-12.624097,-3.949026,-4.650592,-3.632944
1007.367188,-3.033384,-6.126355,-11.887024,-3.079433
1007.371094,-11.889056,-6.292227,-7.195701,-8.270726
1007.375000,-14.805506,-11.724460,-1.089846,-8.595134
1007.378906,-7.686971,1.821105,-12.156116,-13.704326
1007.382812,-8.007090,-11.088168,-10.526126,-13.176041
1007.386719,-9.061091,1.610276,-6.209649,-11.451282
1007.390625,-12.790626,-2.962629,-0.971645,-6.950260
1007.394531,2.055810,-3.082619,-1.949692,-4.819791
1007.398438,-2.827136,-1.925134,-0.255050,-6.488045
1007.402344,1.549438,2.506211,-0.611425,0.688417
1007.406250,0.840325,1.695983,-1.448117,9.085511
1007.410156,9.470002,6.613704,4.495227,1.078917
1007.414062,7.814371,3.025923,4.814349,14.086909
1007.417969,0.287397,12.082861,13.053485,10.400856
1007.421875,11.358508,8.346250,4.657675,8.677648
1007.425781,12.867291,16.727555,8.017999,9.345369
1007.429688,11.129005,9.490464,6.424477,6.778054
1007.433594,7.937762,12.016915,8.857841,11.372597
1007.437500,7.986598,9.594138,4.745498,9.978842
1007.441406,8.094017,9.849105,4.381961,3.478843
1007.445312,4.181123,-3.309157,6.438599,1.312651
1007.449219,-2.834553,6.080957,-5.935710,5.664619
1007.453125,1.955093,9.590634,-0.366894,-0.785048
1007.457031,-4.561228,-8.444796,-5.911053,-6.590006
1007.460938,-10.565985,-8.298284,0.145981,-11.739314
1007.464844,-6.131227,-7.122592,-2.257854,-13.855284
1007.468750,-16.570224,-7.565306,-9.396832,-14.517124
1007.472656,-3.125744,-9.967058,-16.161992,-0.836116
1007.476562,-8.448665,-17.773572,-17.282304,-6.587701
1007.480469,-7.606042,-4.501928,-8.118276,-9.707772
1007.484375,-10.223626,-15.656239,-6.428556,-12.562021
1007.488281,-6.261607,-12.046506,-13.118869,2.624344
1007.492188,-0.033644,-5.170325,-5.579088,-7.398948
1007.496094,0.716524,3.735947,-6.713247,3.229303
1007.500000,-3.426426,-2.553501,-3.856714,-0.405457
1007.503906,1.147767,1.587207,4.230694,6.985198
1007.507812,8.710888,-7.663154,3.412794,5.601282
1007.511719,5.001107,4.700809,7.928203,7.657911
1007.515625,12.686971,15.769103,-1.210690,5.426436
1007.519531,13.472500,8.498360,8.980525,13.793218
1007.523438,9.794797,8.268396,13.749825,6.816488
1007.527344,11.801230,8.054764,13.634065,10.713568
1007.531250,9.095792,12.634042,12.879723,5.510093
1007.535156,3.272102,9.940176,8.615927,12.436120
1007.539062,6.121789,5.164952,11.540269,2.618043
1007.542969,4.074972,4.470660,10.554766,2.540298
1007.546875,-4.481196,6.331073,-3.423356,2.268552
1007.550781,-1.246900,0.004123,-1.473563,-0.347335
1007.554688,-5.177579,-7.212281,-3.680352,0.520534
1007.558594,-12.115475,-11.156794,-1.690386,-7.022839
1007.562500,-9.696173,-5.419834,-9.116470,-1.176645
1007.566406,-7.989721,-5.148789,-15.874777,-7.199337
1007.570312,-4.994415,-10.587945,-8.881705,-4.374136
1007.574219,-12.005211,-9.019123,-5.305600,-13.582190
1007.578125,-8.837302,-11.466962,-6.487818,-15.763435
1007.582031,-9.829090,-8.687942,-5.726648,-11.570343
1007.585938,-11.928816,-8.891729,-7.894330,-8.551383
1007.589844,-6.430198,-7.527037,-8.608100,-12.738632
1007.593750,-6.894205,-0.748508,-2.253700,-2.740745
1007.597656,0.580015,2.368747,1.831083,-0.757039
1007.601562,6.342877,-0.246549,-0.239798,4.074816
1007.605469,11.211461,10.372937,-0.179249,-5.229118
1007.609375,-2.385887,2.328887,6.648563,5.933449
1007.613281,7.554075,10.906618,10.064381,5.209387
1007.617188,8.069290,8.523007,3.751321,4.684437
1007.621094,14.735460,10.361803,12.560276,9.935075
1007.625000,9.093306,7.872218,6.106035,13.945249
1007.628906,0.978694,9.197786,14.843725,8.939129
1007.632812,1.117290,7.181159,12.822037,10.726815
1007.636719,8.239083,3.213370,-1.362647,7.682715
1007.640625,3.460453,4.732000,5.763326,2.837979
1007.644531,4.237496,-0.092032,2.634555,2.636285
1007.648438,4.659159,9.232245,5.621784,-2.171163
1007.652344,2.789636,-4.524374,1.404810,2.323048
1007.656250,7.211058,-4.812784,-7.194069,-9.857973
1007.660156,-5.883014,-6.382196,-10.316043,-3.006694
1007.664062,-5.360528,-14.398375,-6.937425,-10.244728
1007.667969,-9.914868,-6.675284,-5.260274,-9.631943
1007.671875,-13.575481,-9.329075,-12.545965,-5.954969
1007.675781,-7.797282,-14.336051,-13.371460,-8.510575
1007.679688,-7.895281,-8.134435,-18.383119,-13.818195
1007.683594,-10.541317,-8.199967,-5.693331,-6.552080
1007.687500,-13.362001,-7.045540,-7.952588,-1.283944
1007.691406,1.012884,-7.277873,-0.244317,-1.677155
1007.695312,-0.587073,1.353771,-3.019392,1.917185
1007.699219,3.530860,-0.754914,-3.064812,-3.104892
1007.703125,0.984616,-1.495808,1.531636,2.794404
1007.707031,9.929252,3.894053,11.622357,8.387489
1007.710938,7.188384,6.887297,9.306012,7.155877
1007.714844,6.236543,8.871734,7.220335,3.437916
1007.718750,11.755988,10.312583,10.472158,8.925335
1007.722656,6.731057,13.506061,12.353628,9.574765
1007.726562,9.083018,8.574687,13.264753,7.920203
1007.730469,3.353915,8.237637,8.109092,12.119177
1007.734375,14.399383,12.647970,2.789071,2.711097
1007.738281,9.693986,-1.914098,3.498123,3.548138
1007.742188,12.874547,4.903108,-1.691748,11.286049
1007.746094,-0.077042,-2.871374,2.925360,1.918962
1007.750000,-1.843378,-1.638631,-2.147832,-8.021743
1007.753906,-3.391603,-3.738992,2.752946,0.154134
1007.757812,-4.713727,-3.862259,-6.635093,-3.066177
1007.761719,-6.163618,-1.359766,-4.957011,-0.260023
1007.765625,-9.870201,-9.648473,-5.763151,-8.733033
1007.769531,-2.689665,-16.006922,-12.513713,-16.197926
1007.773438,-16.187762,-9.743067,-14.767038,-9.120428
1007.777344,-15.480740,-3.305566,-6.413070,-16.411154
1007.781250,-5.325798,-8.497345,-3.596800,-17.065265
1007.785156,-14.618660,0.753384,-13.195191,-1.499282
1007.789062,-12.094838,-3.414656,-4.850068,-14.530854
1007.792969,-6.683618,-6.936157,-4.091993,-5.272288
1007.796875,-2.828026,2.753089,-2.703235,-8.152847
1007.800781,-0.944171,-4.476596,-5.258294,1.809750
1007.804688,-2.248996,5.279071,-0.900691,4.528337
1007.808594,4.569429,-0.109432,-0.311346,9.758839
1007.812500,7.206052,9.675373,3.327263,9.146754
1007.816406,8.476630,12.934584,8.313824,7.068939
1007.820312,11.610786,4.670502,11.799647,4.868187
1007.824219,8.305972,6.332578,17.548452,8.049638
1007.828125,8.340277,10.610493,13.580347,6.823773
1007.832031,6.518826,7.992532,12.623921,2.800246
1007.835938,10.294519,7.482189,7.978819,9.460142
1007.839844,0.467096,5.355335,7.133599,4.256724
1007.843750,1.285571,9.451333,3.278704,10.726424
1007.847656,3.475170,1.088067,-1.016888,-0.514356
1007.851562,-1.295634,-4.101184,-8.364917,4.433793
1007.855469,-8.840114,-4.901884,-6.369642,-5.061002
1007.859375,-7.215467,-7.549164,4.492394,-12.958012
1007.863281,-8.363009,-3.762234,-7.057938,-3.133887
1007.867188,-6.110328,-8.609873,-6.632999,-12.669311
1007.871094,-12.349668,-12.632723,-7.050106,-10.634389
1007.875000,-17.162397,-8.286777,-9.178438,-14.692513
1007.878906,-8.629063,-7.189026,-8.023236,-6.355290
1007.882812,-5.163415,-7.384028,-12.939611,-5.969271
1007.886719,0.447720,-12.001446,-5.139329,-2.846922
1007.890625,-2.989361,-5.864350,-3.612473,-2.394589
1007.894531,-2.523062,-8.261111,1.719234,0.298998
1007.898438,4.677498,-5.299135,-0.574090,-11.821548
1007.902344,6.346398,0.653428,5.313258,-0.069246
1007.906250,8.010005,7.439938,0.937432,4.155811
1007.910156,10.945751,11.350879,5.272113,7.152214
1007.914062,8.070088,4.181388,13.238452,8.624322
1007.917969,3.647985,7.942882,5.176847,10.868428
1007.921875,9.367574,12.675803,7.363721,5.509124
1007.925781,8.732844,19.573099,13.222649,13.189802
1007.929688,15.578301,11.270995,11.527198,6.170396
1007.933594,14.996593,9.139556,7.020540,6.956428
1007.937500,6.844062,0.017643,8.841374,10.004063
1007.941406,5.623330,7.068695,4.391428,5.471081
1007.945312,9.416702,2.454587,-0.482925,5.473292
1007.949219,1.168738,-0.662140,-1.229210,2.460165
1007.953125,-6.704438,-5.647114,-7.101515,2.989862
1007.957031,-0.272259,3.423270,-1.036211,-6.195158
1007.960938,-0.634173,2.969379,-2.502834,-0.752853
1007.964844,-8.215341,-8.766924,-1.944563,-12.134487
1007.968750,-12.264629,-12.121132,-10.328884,-9.725906
1007.972656,-8.015164,-19.648307,2.547653,-9.306288
1007.976562,-6.245839,-6.846631,-6.157759,-12.327087
1007.980469,-5.552216,-13.243586,-15.564444,-11.449358
1007.984375,-4.992336,-6.606741,-10.598022,-8.857887
1007.988281,0.852173,-5.382482,-3.346384,-7.085899
1007.992188,-1.208907,-6.095576,-5.267664,-1.762116
1007.996094,1.556430,1.037098,-3.203355,-1.662062
1008.000000,1.865692,-0.583198,1.664399,0.087874
1008.003906,1.991771,-0.226450,3.846997,4.564078
1008.007812,7.858856,2.464241,5.625392,6.839476
1008.011719,6.191924,16.031294,13.293389,7.487918
1008.015625,18.072685,11.992507,4.694109,10.913791
1008.019531,11.518023,3.675656,5.956364,6.269376
1008.023438,11.091460,16.479663,16.203959,14.884974
1008.027344,15.012988,14.085723,9.960093,14.079989
1008.031250,10.384399,6.560482,14.283660,6.392451
1008.035156,11.907537,7.861221,11.980605,6.316245
1008.039062,6.661377,8.245208,8.069339,9.427836
1008.042969,4.522307,-4.987110,5.527250,-0.963689
1008.046875,2.029667,4.968647,-4.526830,3.615273
1008.050781,-0.154752,-5.835482,-3.657800,-0.903313
1008.054688,-10.972338,-2.079679,3.318784,-5.449058
1008.058594,-4.448305,-3.480862,-8.142473,-4.336545
1008.062500,-5.607240,-5.771698,-11.852458,-7.917194
1008.066406,-1.031456,-7.769125,-11.713403,-10.783489
1008.070312,-11.930673,-7.170121,-6.580238,-6.127730
1008.074219,-14.452267,-9.898711,-6.078000,-6.992104
1008.078125,-3.910961,-12.944205,-2.395210,-11.146540
1008.082031,-6.912052,-8.394533,-10.703892,-15.210221
1008.085938,-1.503367,-2.154524,1.351460,-14.032042
1008.089844,-5.908679,-10.100275,-0.875235,-8.197558
1008.093750,0.204558,-8.791171,0.713830,-9.033196
1008.097656,1.949406,-9.987482,-6.102665,3.869916
1008.101562,-5.803772,1.868154,4.674473,-2.890928
1008.105469,6.656144,0.937019,3.996053,3.593338
1008.109375,11.645321,9.896777,4.625094,9.990710
1008.113281,2.146473,15.406985,8.470986,5.296778
1008.117188,4.924800,3.288005,5.410080,12.003061
1008.121094,10.452692,8.920183,14.006091,6.286916
1008.125000,9.173993,6.913625,9.623398,15.666003
1008.128906,9.886071,14.109666,11.736245,13.122298
1008.132812,13.000428,4.211388,17.774120,9.486583
1008.136719,16.288916,5.492245,9.358420,3.523089
1008.140625,8.647511,3.922667,3.578044,7.795856
1008.144531,11.893121,4.295762,5.683648,5.172624
1008.148438,-2.035857,-0.197170,11.704343,6.634745
1008.152344,-4.003395,-0.434818,-3.446216,5.006668
1008.156250,1.942074,-5.473776,-0.828369,-3.482681
1008.160156,-16.812424,-1.867604,-6.720114,-9.902196
1008.164062,-8.139837,-10.963540,-3.765805,-17.184233
1008.167969,-17.421815,-0.360935,-0.290516,-9.787328
1008.171875,-8.657888,-11.745348,-4.625336,-16.378833
1008.175781,-7.780451,-2.019107,-13.932865,-20.357905
1008.179688,-13.148092,-5.975533,-6.001650,-11.460458
1008.183594,-12.345680,-4.847347,-9.393620,-5.855942
1008.187500,-12.068984,-7.751986,-8.350930,-9.679179
1008.191406,-2.696593,-2.092458,-10.291039,-4.681303
1008.195312,-7.748962,-6.148679,1.292994,-4.075386
1008.199219,1.452766,-2.200961,-9.772015,-4.126368
1008.203125,4.688985,1.887900,-0.163092,2.960736
1008.207031,2.950210,8.539343,3.604142,1.081450
1008.210938,8.178495,5.288169,7.841056,8.356089
1008.214844,7.901102,3.685228,1.285568,-1.187207
1008.218750,7.662753,11.480328,13.234334,9.884902
1008.222656,12.012546,6.340139,10.976282,8.527672
1008.226562,5.224270,10.347255,11.799145,3.596286
1008.230469,11.678000,8.981528,7.479872,15.500075
1008.234375,4.653573,10.482488,7.454046,10.752338
1008.238281,0.183938,3.082234,8.320522,9.467328
1008.242188,0.054383,2.244640,12.551185,7.826056
1008.246094,-1.586516,-2.270024,1.150263,9.571110
1008.250000,-0.337878,-10.690850,-2.316804,0.749168
1008.253906,-4.531149,-5.580289,-3.057169,-7.335097
1008.257812,-7.899900,-5.695131,-5.299915,0.194213
1008.261719,0.321124,-4.917397,0.500675,-7.779804
1008.265625,-9.825271,-13.604373,-2.212756,-7.349987
1008.269531,-6.068770,-9.311541,-11.573978,-14.960317
1008.273438,-7.028967,-10.923906,-14.382868,-9.052041
1008.277344,-16.477901,-12.073550,-8.100818,-9.640440
1008.281250,-9.254954,-11.376496,-12.439481,-6.661033
1008.285156,-0.016703,-8.422150,-8.498261,-13.164025
1008.289062,-8.040386,-6.045627,-1.330058,0.249871
1008.292969,-4.400076,-8.562460,-9.157074,-10.940129
1008.296875,-2.834077,-4.430838,4.584791,-6.496451
1008.300781,4.126578,6.420597,2.340221,-1.775446
1008.304688,1.802179,-1.049052,3.518542,14.066648
1008.308594,7.769085,10.984778,10.223102,10.676667
1008.312500,5.325202,9.500571,0.599904,8.689112
1008.316406,18.306360,14.090824,10.204799,3.503167
1008.320312,7.678546,16.776321,7.262476,11.135673
1008.324219,19.127069,9.261253,3.620689,13.024619
1008.328125,7.441972,7.615380,11.940361,8.484752
1008.332031,11.420034,12.075281,2.965715,14.133281
1008.335938,12.259250,1.532232,5.333818,10.634023
1008.339844,7.604814,7.492759,2.435681,4.157270
1008.343750,8.983171,1.421203,5.852547,7.205189
1008.347656,-4.246540,5.522309,0.203994,-2.599681
1008.351562,-4.705411,-10.309606,2.578606,-1.174952
1008.355469,-3.228014,6.603040,2.795977,-0.880941
1008.359375,-2.765133,-4.467466,-6.911045,-1.524915
1008.363281,-8.317117,-17.840178,-9.246658,-9.105750
1008.367188,-10.913634,-15.098814,-9.376811,-12.064227
1008.371094,-6.100925,-10.935257,-6.416349,-7.117269
1008.375000,-12.229184,-11.052915,-8.791791,-6.993151
1008.378906,-4.779212,-5.998613,-13.036928,-5.292604
1008.382812,-10.543553,-5.153340,-1.610210,-10.416175
1008.386719,-2.281960,-6.730126,-5.470939,-12.047382
1008.390625,-6.282595,-6.639443,-1.017850,-9.846859
1008.394531,-5.292530,-1.337814,-3.298433,-0.694889
1008.398438,1.105941,10.847211,0.521845,-2.188875
1008.402344,2.378810,2.134966,-0.498642,-4.299895
1008.406250,1.970510,-0.126536,4.800579,5.207848
1008.410156,6.338627,3.244597,1.528885,6.835859
1008.414062,12.342506,7.017727,13.199347,6.003024
1008.417969,11.656193,10.737056,2.965271,14.533244
1008.421875,9.114758,9.251141,9.968628,11.996818
1008.425781,2.457387,8.930536,8.607264,11.927055
1008.429688,11.893457,6.790270,17.188181,11.845158
1008.433594,6.393087,9.305584,4.527918,13.528897
1008.437500,3.121063,-0.717892,14.653203,7.485728
1008.441406,7.275556,-0.541873,6.021139,2.590304
1008.445312,3.507786,5.328784,4.369361,1.616866
1008.449219,-2.342908,5.016094,3.608292,6.347084
1008.453125,-5.289464,-2.835679,-1.139981,2.125723
1008.457031,-2.642324,-9.039071,0.144503,-4.690663
1008.460938,-9.248509,-1.842931,-2.917337,0.834641
1008.464844,-9.017053,-5.946381,-11.135038,-5.761727
1008.468750,-9.457772,-10.779926,-14.515687,-4.331519
1008.472656,-7.498115,-4.401954,-8.828385,-8.626594
1008.476562,-8.255131,-11.069527,-8.005020,-8.940092
1008.480469,-8.727481,-3.127332,-7.128832,-5.982917
1008.484375,-8.328606,-7.984536,-2.621540,-8.634509
1008.488281,-12.318144,-5.326936,-5.667365,-6.915766
1008.492188,-4.913864,0.219194,-0.804250,-10.835363
1008.496094,4.165530,-4.525850,0.000317,-5.231671
1008.500000,-6.794881,0.848182,-3.904219,-0.352194
1008.503906,-2.069650,2.058703,1.701817,10.354634
1008.507812,-1.326758,10.886096,-0.903815,5.535331
1008.511719,-0.910085,4.713747,0.932285,0.218262
1008.515625,9.883321,7.342898,12.439108,5.483318
1008.519531,7.560571,13.227465,6.430771,15.058641
1008.523438,8.993537,10.074149,6.397865,11.470478
1008.527344,6.763600,6.935802,11.064299,9.425820
1008.531250,8.170811,8.492878,3.720870,7.273449
1008.535156,3.473519,7.187137,0.224186,14.735740
1008.539062,6.444459,-0.870480,4.831189,11.579981
1008.542969,2.031038,3.803524,5.867375,2.366739
1008.546875,9.963562,1.305025,4.391022,2.813593
1008.550781,3.507397,3.720484,-3.026648,-4.238769
1008.554688,-6.920267,-1.909482,-4.883915,-5.763658
1008.558594,-3.772128,-4.238320,-3.204016,-5.499397
1008.562500,-13.069750,-0.472842,-8.560356,-9.802395
1008.566406,-8.608195,-2.322935,-10.088289,2.390536
1008.570312,-10.565534,-3.769959,-11.995713,-9.371489
1008.574219,-3.855339,-15.121706,-15.336166,-9.526014
1008.578125,-11.718312,-11.041698,-9.781456,-7.516632
1008.582031,-7.225595,-15.803181,-2.741286,-13.890165
1008.585938,-5.853568,-7.829399,-12.227225,-14.168861
1008.589844,0.291610,-2.425075,-1.079945,-6.404121
1008.593750,-1.978988,-5.328024,-13.325815,-3.915548
1008.597656,2.339071,2.093239,-0.035405,3.579795
1008.601562,-3.262747,-6.264396,6.743980,5.102178
1008.605469,6.764789,1.145777,3.455685,-3.133893
1008.609375,4.567382,6.335326,4.180865,7.116581
1008.613281,4.928070,0.847775,8.656575,7.031224
1008.617188,6.082293,16.797754,15.432264,11.644477
1008.621094,15.108405,2.357766,8.339976,7.990061
1008.625000,9.635761,6.341819,15.518459,13.908446
1008.628906,17.136662,8.206825,10.755813,8.038620
1008.632812,13.816497,12.649709,5.725092,9.830690
1008.636719,3.455515,9.933073,13.787079,4.498821
1008.640625,4.754844,5.582833,4.854307,8.716092
1008.644531,1.100539,2.270076,7.440235,6.065310
1008.648438,0.397714,1.823231,-1.810377,5.642959
1008.652344,0.226535,0.197337,2.799437,-1.197001
1008.656250,-1.209691,-8.152910,-7.931455,-3.800976
1008.660156,-6.492766,-1.593386,-8.146195,-5.670989
1008.664062,-3.269166,-6.338654,-3.503617,-12.242852
1008.667969,-5.802905,-9.555697,-5.955407,-9.727895
1008.671875,-9.382457,-14.973695,-6.742869,-14.824120
1008.675781,-4.343659,-10.386385,-11.538177,-7.720829
1008.679688,-11.569172,-9.431700,-11.377002,-7.901198
1008.683594,-10.412980,-11.449552,-4.392030,-7.867657
1008.687500,-8.536669,-9.536978,-10.064679,-6.680649
1008.691406,-4.051323,-4.555073,1.612706,-4.165456
1008.695312,-2.746036,-4.052557,-8.876791,-2.730272
1008.699219,3.710733,0.302671,-4.759561,-1.779619
1008.703125,7.248090,-0.056950,1.307360,6.805028
1008.707031,1.217976,5.782212,1.049816,1.457714
1008.710938,4.322811,5.241678,9.672014,5.712765
1008.714844,11.438277,13.688429,7.650481,4.150636
1008.718750,11.828672,6.020420,12.225267,8.028973
1008.722656,6.646031,10.124758,20.176139,10.168996
1008.726562,6.007902,2.315112,13.366037,8.355250
1008.730469,8.691599,9.916164,12.246497,14.369197
1008.734375,5.445056,12.825035,8.259055,8.849544
1008.738281,6.558861,8.486366,13.082129,-0.441357
1008.742188,10.220155,3.448184,5.660698,9.643563
1008.746094,8.131229,6.407201,4.414546,1.669914
1008.750000,-0.874752,-1.145707,4.304896,-1.261594
1008.753906,-5.370515,2.886947,-3.826502,5.427089
1008.757812,-0.935423,3.725113,-1.300632,-7.232987
1008.761719,-6.649710,-10.940919,-7.608822,-1.074955
1008.765625,-7.331640,-4.413285,-15.151909,-2.290483
1008.769531,-8.973389,-7.387987,-4.650210,-6.597279
1008.773438,-11.943373,-7.077388,-2.888927,-12.133053
1008.777344,-3.364798,-6.487616,-8.833353,-10.157615
1008.781250,-4.463297,-0.556877,-15.099793,-13.185558
1008.785156,-6.350506,-6.079367,-0.536474,-10.713099
1008.789062,-7.120837,4.741020,-2.117986,-11.414726
1008.792969,-4.596036,-0.604390,-5.716147,1.009487
1008.796875,-2.935293,0.588661,-3.484707,-1.949761
1008.800781,-2.819756,3.642099,0.909734,3.278128
1008.804688,-2.161458,5.507911,-3.382273,-5.401635
1008.808594,7.068464,9.834308,1.014249,9.669907
1008.812500,8.352337,5.335449,11.083684,4.259172
1008.816406,3.985960,8.402464,12.229173,8.028740
1008.820312,6.481300,3.536675,6.325034,8.934682
1008.824219,6.600297,10.169002,5.921247,14.723555
1008.828125,11.340431,8.483059,12.837993,7.452118
1008.832031,16.141367,4.825552,6.826055,16.097999
1008.835938,0.687311,2.460139,1.526978,7.780630
1008.839844,10.708780,0.978206,2.938851,2.777524
1008.843750,-0.092687,0.207016,2.830337,5.291288
1008.847656,2.353135,4.845252,0.774034,11.995551
1008.851562,3.187017,-2.082409,-1.525732,0.717112
1008.855469,-7.592419,1.511823,-2.136855,-1.688831
1008.859375,-4.528580,-3.071368,-5.285335,0.695903
1008.863281,-4.712938,-13.548031,-10.212634,-13.443883
1008.867188,-9.260643,-13.695494,-10.468308,-9.848872
1008.871094,-6.525403,-11.548960,-3.189031,-11.375641
1008.875000,-3.643624,-12.874542,-14.328754,-7.746021
1008.878906,-10.387319,-6.948123,-9.212432,-10.403194
1008.882812,-13.658528,0.891455,-4.655614,-13.614638
1008.886719,-8.887217,-6.323202,-12.189676,-9.825993
1008.890625,-5.330257,-4.850331,-7.144079,-7.372078
1008.894531,-6.163250,-7.745247,-8.797438,-8.332135
1008.898438,-2.655232,-6.731699,3.502505,2.326708
1008.902344,6.181385,4.272886,4.806077,-6.283411
1008.906250,0.576211,7.304443,1.939531,5.041899
1008.910156,0.834634,9.429457,9.039126,-0.076987
1008.914062,3.864545,2.528561,5.437580,7.101931
1008.917969,6.205315,11.177925,10.982132,0.996700
1008.921875,13.894075,12.174531,7.640403,17.801098
1008.925781,5.412936,10.385118,15.409323,9.871606
1008.929688,15.238442,9.445242,6.271065,4.167959
1008.933594,11.316889,16.631312,7.775569,11.601238
1008.937500,7.090429,6.849111,5.546460,8.833033
1008.941406,7.507780,11.580276,2.420552,2.133611
1008.945312,2.775253,1.388918,2.646744,0.139719
1008.949219,-0.027354,-6.103513,-1.376884,0.258225
1008.953125,1.079989,11.591071,-4.780437,-7.483909
1008.957031,-2.611011,-0.377601,-1.257415,-0.108973
1008.960938,-7.815852,-11.695804,-16.928045,-4.856025
1008.964844,-6.685167,-9.414365,-0.790814,-12.656837
1008.968750,-3.443102,-6.497129,-11.544561,-15.071210
1008.972656,-11.492385,-8.604709,-15.129907,-6.886905
1008.976562,-10.620625,-11.634307,-4.318336,-11.798644
1008.980469,-5.794799,-5.406362,-7.926836,-10.816049
1008.984375,-7.127616,-13.807374,-12.300529,-4.374348
1008.988281,-8.946496,-7.092769,-2.588519,-8.869845
1008.992188,-7.157879,-7.240120,-6.444072,-14.052896
1008.996094,-0.003050,0.122443,0.290856,-7.233567
1009.000000,3.068635,6.189297,-2.043983,8.016793
1009.003906,4.391951,-2.106807,-0.904862,-1.048475
1009.007812,4.821504,3.490451,5.439547,3.072937
1009.011719,3.849332,7.913827,15.943071,3.200761
1009.015625,8.657030,11.086252,8.329483,5.760616
1009.019531,13.750208,6.923255,4.145586,10.874196
1009.023438,12.849092,10.361399,11.712275,12.286233
1009.027344,12.961992,11.593069,20.474628,7.909283
1009.031250,9.402492,11.613932,8.487182,7.565441
1009.035156,4.301475,11.716608,9.342897,6.007037
1009.039062,14.222035,9.366673,6.324822,3.689131
1009.042969,7.696578,9.948492,3.983925,2.799738
1009.046875,-0.445998,9.998248,6.281649,-1.148502
1009.050781,-10.631986,-2.212306,8.107740,-5.324851
1009.054688,-7.565035,1.314201,-3.977392,3.231730
1009.058594,3.689449,-1.588606,-2.970271,-0.286003
1009.062500,-6.362740,-10.656620,-10.330414,-7.263958
1009.066406,-3.965426,-6.655952,-15.982984,-13.663296
1009.070312,-9.017263,-4.277346,-11.377364,-17.434877
1009.074219,-13.495092,-9.119293,-24.324762,-7.627615
1009.078125,-7.744815,-16.422732,-7.912795,-0.488218
1009.082031,-3.310257,-12.487298,-6.717114,-7.453228
1009.085938,-6.393331,-4.889242,-4.817791,-8.060891
1009.089844,-8.522201,-0.839843,5.791743,-11.652150
1009.093750,-7.934351,-3.031454,-12.517962,-4.220668
1009.097656,2.198209,-4.826432,3.137986,-2.799008
1009.101562,6.427882,8.547042,1.056065,8.562910
1009.105469,5.074425,5.692822,7.652944,0.030795
1009.109375,4.605577,3.356967,7.523864,13.185118
1009.113281,5.806901,8.229661,14.630230,2.836013
1009.117188,5.611476,6.299648,9.618986,5.175441
1009.121094,12.522926,11.357253,7.610854,13.809185
1009.125000,13.017759,2.180570,14.335694,6.528310
1009.128906,2.592773,9.552595,13.201674,12.043042
1009.132812,10.894602,8.367720,11.635785,12.545854
1009.136719,0.608162,15.671399,10.124316,8.189109
1009.140625,7.158928,13.080362,8.329577,7.021591
1009.144531,-3.926471,3.756396,4.860364,-7.251865
1009.148438,4.736495,6.490439,2.485581,2.269687
1009.152344,-4.585165,-3.204393,9.108888,-1.888351
1009.156250,-6.275447,-5.996174,-1.924968,-7.058294
1009.160156,0.518885,-6.810972,-10.752181,-11.315567
1009.164062,-3.150441,-12.393885,-3.882614,-8.579455
1009.167969,-12.929858,-11.428747,-7.119126,-11.603615
1009.171875,-14.852660,-7.625929,-8.490352,-11.743759
1009.175781,-7.993206,-10.823014,-10.930000,-14.806671
1009.179688,-2.906959,-10.902799,-14.611424,-10.642074
1009.183594,-6.504732,-8.765562,-3.341687,-6.518915
1009.187500,-8.889295,-3.703621,-6.363794,-6.371832
1009.191406,-7.832141,-2.351502,-4.745002,-8.528738
1009.195312,-6.385325,-2.374108,1.744505,-2.080843
