timestamp,TP9,AF7,AF8,TP10
1000.000000,3.058819,-2.186593,-10.661964,0.378006
1000.003906,1.371184,11.544927,10.699832,10.793364
1000.007812,4.643593,2.795997,3.310303,4.403935
1000.011719,5.643269,8.042755,11.429397,11.039814
1000.015625,5.432775,9.578537,14.257222,6.142447
1000.019531,6.493427,4.007640,8.128907,7.572403
1000.023438,9.265391,19.354865,8.235741,12.530074
1000.027344,10.747087,8.814218,8.399671,10.792215
1000.031250,6.170544,7.111270,6.441391,3.189371
1000.035156,11.424120,10.102357,9.140486,6.491971
1000.039062,4.028894,5.780830,12.430998,9.224242
1000.042969,4.416255,-0.236436,2.849176,8.839778
1000.046875,5.235394,0.899487,3.418529,8.902137
1000.050781,-3.291346,4.490763,1.122105,2.300120
1000.054688,-1.608885,-5.978024,-1.335574,3.423356
1000.058594,-14.842478,-2.710649,-5.768845,-0.094312
1000.062500,-4.344114,-3.398711,-6.241940,-4.241196
1000.066406,-6.247075,-0.131619,-10.448294,-3.966555
1000.070312,-8.156213,-12.126973,-7.245174,-10.409244
1000.074219,-12.546525,-12.603301,-12.801670,-8.468341
1000.078125,-10.766171,-10.594630,-12.037430,-12.401077
1000.082031,-16.102515,-5.392188,-12.100588,-9.240677
1000.085938,-3.995047,-7.245124,-6.360716,-4.513375
1000.089844,-4.614353,-7.953939,1.790322,-3.792693
1000.093750,-6.225765,-1.638537,5.255020,4.127692
1000.097656,-2.693069,-5.776260,-2.153418,-0.067795
1000.101562,-1.232620,2.825922,0.350135,-2.784002
1000.105469,-1.928697,4.108086,-4.063494,6.840842
1000.109375,4.750083,4.992564,6.215061,5.070698
1000.113281,8.855069,8.587473,2.812807,8.429134
1000.117188,12.387903,14.420346,-1.830621,14.217052
1000.121094,8.901567,12.683662,8.236335,15.782888
1000.125000,10.386781,5.482613,6.436987,11.970388
1000.128906,3.539361,7.763457,10.170973,5.665139
1000.132812,13.778025,5.118106,9.375715,11.377667
1000.136719,1.040181,6.035951,1.596068,10.739714
1000.140625,6.282434,2.956590,11.663103,5.594398
1000.144531,2.002920,1.475260,5.042054,6.259618
1000.148438,3.976420,-1.423649,1.347592,1.472656
1000.152344,-3.546182,-7.378319,4.432469,-8.616827
1000.156250,-4.102182,-3.811057,-6.925177,-1.526467
1000.160156,-4.293322,-9.761464,-5.136439,-9.707483
1000.164062,-12.766002,-8.515026,-10.022244,-9.406056
1000.167969,-11.027826,-15.114817,-3.071171,-3.747998
1000.171875,-7.500845,-12.775039,-8.443143,-8.927807
1000.175781,-10.346757,-4.161767,-14.055874,-10.745818
1000.179688,-7.159788,-12.135747,-4.750717,-8.119048
1000.183594,-13.697081,-11.336190,-3.450425,-16.166284
1000.187500,-4.046175,-13.142438,-6.017687,-3.793367
1000.191406,-4.777992,-9.045440,-2.452515,-7.447963
1000.195312,3.911729,6.466120,-0.062778,-2.158702
1000.199219,-3.712517,-0.320357,0.105336,-0.818245
1000.203125,9.466315,-0.000338,2.740575,3.718838
1000.207031,1.823401,2.294244,1.241992,-2.927495
1000.210938,10.071780,7.159639,2.390141,4.913653
1000.214844,3.726643,14.237924,7.127185,10.679559
1000.218750,15.577691,10.915015,8.075351,13.037868
1000.222656,8.838049,12.548366,14.452035,9.868732
1000.226562,15.157403,8.902025,7.150532,12.691049
1000.230469,13.510285,7.351162,-0.896187,7.123551
1000.234375,4.439024,6.497875,7.475818,7.754400
1000.238281,4.913634,11.840139,9.857344,0.419580
1000.242188,7.197098,10.124570,-4.097228,1.915524
1000.246094,4.645037,2.047155,5.057840,0.804985
1000.250000,6.250627,-1.981723,-4.661162,2.849429
1000.253906,-3.486597,-0.653061,-0.259338,-0.456413
1000.257812,-6.698460,-10.402672,-8.469987,-2.709563
1000.261719,-10.298154,-9.982277,-6.384176,-13.601562
1000.265625,-9.104349,-14.813928,-12.342162,-8.562235
1000.269531,-14.865753,-9.461959,-11.596475,-8.380386
1000.273438,-7.308534,-11.942713,-9.258543,-6.559392
1000.277344,-11.033697,-3.790827,-17.488933,-5.136191
1000.281250,1.250812,-12.254876,-13.042651,-8.768460
1000.285156,-8.869771,-9.826837,0.771657,-8.626636
1000.289062,-5.236115,-12.468293,-8.819370,-0.280777
1000.292969,-11.373957,-2.039927,-5.016144,-1.668162
1000.296875,-4.536244,-2.175104,0.274220,5.459113
1000.300781,-2.356617,0.371978,0.564353,-6.497517
1000.304688,5.341251,1.733731,5.649177,9.142449
1000.308594,5.475687,12.099978,-0.405588,5.183531
1000.312500,5.896616,11.179226,8.447818,8.693866
1000.316406,6.793844,14.331610,4.605306,8.036054
1000.320312,8.548636,10.341039,14.714233,8.269896
1000.324219,12.212550,7.140028,11.261398,11.618206
1000.328125,19.199056,11.001076,11.412363,2.310427
1000.332031,6.534718,12.364979,16.380656,6.492602
1000.335938,9.329184,15.029044,-0.609102,1.971511
1000.339844,9.481548,9.791367,9.411691,2.025796
1000.343750,10.772735,2.063621,8.615838,6.593279
1000.347656,-5.784158,2.827185,-0.242925,0.061107
1000.351562,-2.317180,3.516213,-0.884526,-7.485288
1000.355469,-1.511286,-3.753380,2.095882,-1.815764
1000.359375,-3.472294,-9.281134,-7.067422,-6.469379
1000.363281,-9.740469,-7.024262,0.664845,-7.642006
1000.367188,-10.625923,-8.316228,-8.940161,-4.507285
1000.371094,-14.859376,-6.418008,-13.377371,-5.078763
1000.375000,-15.120167,-5.535254,-8.750172,-1.426159
1000.378906,-16.368147,-14.882103,-6.447945,-8.980621
1000.382812,-11.427537,-8.146281,-5.023231,-11.949402
1000.386719,-7.731998,-6.654432,-6.093994,-11.196844
1000.390625,5.123519,0.744183,-4.783308,-8.276934
1000.394531,-11.817138,-3.663304,-1.019446,-4.460516
1000.398438,-1.615341,0.963118,-1.114038,0.729929
1000.402344,-3.267518,3.693158,4.053215,0.427378
1000.406250,3.690094,6.407813,3.841849,-0.859688
1000.410156,2.331981,4.431993,9.897130,5.010916
1000.414062,4.361681,-0.792962,4.928226,5.335189
1000.417969,6.744104,3.917273,10.931046,11.425304
1000.421875,16.931213,9.349879,10.196911,6.501724
1000.425781,8.585686,9.972804,8.362862,2.256727
1000.429688,11.687964,7.951301,10.103981,7.332637
1000.433594,6.533614,3.481291,17.670563,10.647247
1000.437500,8.161889,3.718658,3.350201,11.143319
1000.441406,10.610707,1.432378,8.555739,7.791353
1000.445312,7.209242,7.655018,-0.630244,2.234505
1000.449219,0.200959,-0.995929,-3.747396,2.843929
1000.453125,-3.067034,-4.871478,3.243940,-3.695515
1000.457031,-5.904162,-3.160437,0.049090,-5.400027
1000.460938,-5.274689,-3.666650,-3.175643,-6.484665
1000.464844,-6.400626,-8.431949,-9.471110,-3.207470
1000.468750,-7.471483,-14.535692,-12.599205,-9.796292
1000.472656,-4.342241,-1.859305,-13.886105,-14.368598
1000.476562,3.417485,-11.619006,-14.409993,-11.270328
1000.480469,-4.140222,-7.618247,-10.301788,-9.031869
1000.484375,-6.471294,-8.930027,-11.152438,-13.028115
1000.488281,4.700248,-1.110936,-8.401432,-1.278580
1000.492188,-1.231098,1.820508,1.291121,-0.981712
1000.496094,-4.583473,0.523471,-1.226666,0.081648
1000.500000,-1.900313,0.671933,-1.742462,1.630777
1000.503906,-0.410264,2.090756,1.937914,2.655042
1000.507812,-1.601656,-2.582090,3.296193,10.597972
1000.511719,8.196565,0.345272,3.063028,7.156300
1000.515625,13.849813,12.009709,6.787574,4.841192
1000.519531,11.178908,9.839335,10.589556,0.745182
1000.523438,16.981818,9.552909,7.603281,4.709658
1000.527344,7.156281,6.958315,11.113146,8.558346
1000.531250,7.979398,9.714050,7.526023,5.111720
1000.535156,11.207331,5.046054,12.788121,4.007725
1000.539062,3.237086,9.883274,6.433432,9.870265
1000.542969,-0.039537,7.801551,4.349503,4.142478
1000.546875,-2.217597,0.982782,-0.258807,4.808381
1000.550781,-3.938404,4.977031,1.334675,-0.708913
1000.554688,-7.007931,-3.455478,-1.557716,-9.763403
1000.558594,-8.349903,-8.183581,-2.442664,-0.662257
1000.562500,-4.440565,-4.041018,-8.140762,-3.943382
1000.566406,-9.194239,-16.694182,-1.844502,-10.501522
1000.570312,-15.816551,-9.521832,-11.261280,-16.998733
1000.574219,-6.649717,-7.140990,-10.650818,-9.550619
1000.578125,-11.549881,-6.092358,-11.470179,-6.763763
1000.582031,-11.339571,-7.107028,-7.454682,-8.445845
1000.585938,-7.546016,-11.729679,-9.305321,-5.370818
1000.589844,-12.161951,-7.064302,-13.659134,-4.120993
1000.593750,-3.874838,-2.373828,-0.771882,-3.902750
1000.597656,-4.163873,-4.673339,5.217648,5.817311
1000.601562,3.885980,11.457030,-0.876704,5.689993
1000.605469,-4.096304,5.757939,-2.437415,6.590738
1000.609375,3.740169,10.978463,0.214169,2.614657
1000.613281,7.099989,-1.539759,4.957915,0.919951
1000.617188,11.593243,15.893151,11.682746,1.981140
1000.621094,12.905262,16.104887,13.689596,10.021566
1000.625000,17.205640,12.523412,12.635549,7.736332
1000.628906,11.847358,11.986502,8.858605,4.591167
1000.632812,6.763586,13.965695,8.397358,12.036830
1000.636719,2.248131,1.107680,10.307982,13.041342
1000.640625,4.908021,5.644355,5.567917,4.103049
1000.644531,-5.469974,5.571916,14.407294,-0.745623
1000.648438,-2.230055,0.479860,6.250292,-1.740680
1000.652344,-2.603640,-0.481066,0.661797,0.046610
1000.656250,4.460628,-9.572963,-5.323258,-1.781085
1000.660156,-3.213612,-9.362952,-4.542380,-6.357160
1000.664062,-6.222020,-9.805380,-5.067588,-8.920557
1000.667969,-11.637275,-12.431176,-11.111714,-13.015956
1000.671875,-13.570561,-6.630023,-6.325753,-4.769334
1000.675781,-11.758284,-16.211630,-10.253128,-11.765423
1000.679688,-10.542860,-4.126052,-18.797405,-13.086980
1000.683594,-5.221770,-5.381625,-9.660107,-13.015950
1000.687500,-8.739216,-9.655556,-6.115958,-4.059472
1000.691406,-0.910801,-3.754352,-8.624322,-9.212128
1000.695312,-3.567646,0.316432,-4.718302,-4.769998
1000.699219,-5.329426,-1.021531,1.255047,2.500594
1000.703125,-0.984867,-4.430365,4.964800,-5.351106
1000.707031,2.348585,1.683354,3.463141,6.257207
1000.710938,8.398616,10.436752,9.712435,5.546631
1000.714844,7.859265,11.020631,4.511088,10.331002
1000.718750,7.984005,13.342413,14.612230,9.960694
1000.722656,4.123939,4.941501,5.947089,10.079814
1000.726562,6.201039,15.175200,12.049629,7.702319
1000.730469,8.425878,11.775942,7.982527,19.036398
1000.734375,9.690701,4.107475,6.075500,10.243795
1000.738281,8.988685,10.493548,9.923273,8.481398
1000.742188,5.212079,5.816894,8.094500,3.996700
1000.746094,-0.206705,-1.130529,6.780019,5.271630
1000.750000,-1.899975,-1.289326,-1.139104,3.512134
1000.753906,0.830275,-2.708868,-6.752757,-4.128216
1000.757812,-7.068738,-8.141544,-7.871336,-6.558932
1000.761719,-3.634818,-8.574397,-10.935840,-6.988335
1000.765625,-12.075208,-6.184365,-9.702276,-5.311524
1000.769531,-8.267472,-7.941069,-9.485506,-3.352915
1000.773438,-7.633790,-12.206527,-5.013476,-9.491116
1000.777344,-9.205745,-4.920334,-2.963663,-8.755799
1000.781250,-12.878677,-5.405519,-11.409337,-12.383580
1000.785156,-13.423076,-11.972253,-3.983614,-5.846263
1000.789062,-6.999967,-13.853324,-5.715303,-4.728906
1000.792969,1.914385,-7.823615,-5.447266,-4.282509
1000.796875,-3.150179,-0.889366,-3.922151,-5.137235
1000.800781,2.552262,1.494445,0.228555,-0.454975
1000.804688,6.014929,9.690917,14.397264,5.385951
1000.808594,8.492272,2.832332,9.557217,1.248631
1000.812500,6.607214,4.809147,8.727763,12.906520
1000.816406,8.533379,6.758829,4.712435,8.915009
1000.820312,16.598450,13.826013,4.962365,8.672878
1000.824219,9.791594,9.732243,6.788176,7.963669
1000.828125,5.959307,16.116761,4.786055,11.817952
1000.832031,16.977509,12.773312,7.295192,8.113431
1000.835938,13.766134,3.930070,1.228866,5.035893
1000.839844,6.090658,8.447106,3.702184,6.064642
1000.843750,2.795834,2.347600,9.357651,3.321964
1000.847656,1.702800,-2.189955,-1.169040,1.045371
1000.851562,0.120609,-4.509698,-0.197417,6.848241
1000.855469,-0.644852,-5.174690,-5.772336,-6.342838
1000.859375,1.303546,-8.657517,0.943567,-5.776383
1000.863281,-4.658711,-8.856923,1.193016,-6.687469
1000.867188,-8.937497,-7.850954,-7.542541,-5.403656
1000.871094,-11.713925,-10.565932,-14.150434,-14.521122
1000.875000,-8.085832,-5.505274,-6.873028,-11.990745
1000.878906,-9.672205,-7.204554,-13.672710,-14.538703
1000.882812,-10.557393,-12.640798,-0.118041,-17.717372
1000.886719,-9.249859,-2.427421,-8.351119,-14.792095
1000.890625,-0.683132,2.507423,-2.387427,-5.388278
1000.894531,7.582323,-7.069873,-9.201071,-0.737144
1000.898438,-5.083257,-1.142442,3.528289,-0.844418
1000.902344,-3.545673,3.495916,6.568065,-0.587884
1000.906250,-2.298834,-1.721449,4.208023,-0.472398
1000.910156,6.032645,2.414187,8.013793,4.819240
1000.914062,5.587201,5.554591,10.336218,6.046689
1000.917969,10.232420,3.453554,10.970627,3.126420
1000.921875,7.764863,13.942532,4.382998,5.452885
1000.925781,13.703811,10.054289,1.705950,9.132759
1000.929688,14.982559,14.075886,1.978570,4.627817
1000.933594,6.023058,9.054253,2.928734,3.514837
1000.937500,14.528491,12.550522,8.064533,3.501117
1000.941406,0.436223,10.757070,8.372646,4.313150
1000.945312,2.896938,3.351357,0.245753,5.918088
1000.949219,0.153820,-3.547486,0.965709,-6.454398
1000.953125,-1.531871,-3.357014,-3.668504,-2.512915
1000.957031,-3.179418,-3.957403,-4.881557,-0.850187
1000.960938,-9.718393,-9.503547,-2.398845,-6.305854
1000.964844,-9.625245,-1.036063,-3.098323,-15.266625
1000.968750,-8.252683,-12.949984,-6.507052,-8.892409
1000.972656,-11.850337,-9.975217,-16.366258,-11.988474
1000.976562,-9.398829,-10.560604,-8.347164,-16.936873
1000.980469,-6.557334,-8.532563,-9.888816,-8.814684
1000.984375,-5.123740,-13.524181,-0.632317,-7.847821
1000.988281,-7.224306,-8.755984,-12.507334,-5.917044
1000.992188,1.090554,0.993025,-13.219545,-4.154507
1000.996094,9.155945,-6.348593,3.235099,2.107284
1001.000000,-0.581207,2.855530,1.740690,-0.567278
1001.003906,1.451154,8.132897,5.696500,7.040891
1001.007812,8.815168,2.841775,2.749803,7.047524
1001.011719,10.546948,8.661852,10.368672,9.255616
1001.015625,11.351780,9.373615,3.182558,4.105172
1001.019531,13.968161,10.053977,1.408851,9.359935
1001.023438,14.012334,15.087585,7.877564,12.252766
1001.027344,4.447726,12.624579,7.353505,7.549598
1001.031250,6.439843,8.976856,7.370487,8.100802
1001.035156,15.221696,-1.613520,11.720946,10.104585
1001.039062,2.733799,5.383307,14.665388,11.910982
1001.042969,4.097125,-7.790167,3.470432,-0.784867
1001.046875,5.066563,2.605161,-4.798536,0.046178
1001.050781,1.257158,0.106461,-7.820026,6.697850
1001.054688,1.883086,-6.755205,-3.367979,-7.401474
1001.058594,-7.155039,-6.039749,-5.748634,-2.330357
1001.062500,-15.598721,-10.003614,-6.980207,-11.162792
1001.066406,-2.366529,-15.661048,-8.729218,-9.071244
1001.070312,-14.913851,-10.953271,-13.021484,-3.547574
1001.074219,-1.240678,-11.940463,-6.942216,-8.288634
1001.078125,-12.088497,-15.048247,-0.540127,-16.561031
1001.082031,-4.903436,-12.747731,-12.456993,-5.783604
1001.085938,-12.681583,-6.214564,-5.164024,-9.940946
1001.089844,-8.924145,-5.332731,-1.468884,-5.987770
1001.093750,-6.665613,-11.623255,-3.399756,5.726344
1001.097656,2.082683,9.305169,4.300155,1.719126
1001.101562,3.811469,-2.319146,-0.394651,4.792437
1001.105469,5.536873,0.358316,8.533813,-5.035974
1001.109375,3.525431,9.819742,10.609836,2.356111
1001.113281,5.870283,10.836543,9.278230,5.017650
1001.117188,8.878413,10.844291,10.021725,8.012924
1001.121094,11.368118,10.314531,6.354100,6.480633
1001.125000,14.709216,12.995363,14.195866,9.617930
1001.128906,9.432591,13.530559,17.224123,14.149806
1001.132812,11.141131,1.672255,4.592609,6.597877
1001.136719,9.911680,6.059188,7.352475,1.280129
1001.140625,8.550798,7.066627,4.828916,9.646760
1001.144531,4.523527,3.588673,6.717528,0.318602
1001.148438,3.893945,-2.863247,4.783388,4.233706
1001.152344,-3.307041,-7.076720,3.628467,2.053454
1001.156250,-3.189740,-3.081888,-9.199029,-0.290794
1001.160156,-2.997618,-12.354876,-7.337152,-12.043013
1001.164062,-7.662054,-2.111689,-3.566248,-4.936414
1001.167969,-9.316907,-10.938459,-9.011467,-14.910338
1001.171875,-9.798715,-5.842507,-6.956302,-3.370746
1001.175781,-13.000982,-21.751027,-6.541609,-7.917420
1001.179688,-14.119350,-17.547273,-8.674819,-17.210449
1001.183594,-14.182938,-13.152771,-8.865894,-16.021195
1001.187500,-10.232612,-11.103007,-15.879166,-13.667077
1001.191406,-11.076313,-7.686417,-3.436890,-2.120176
1001.195312,-5.911396,-10.843726,-1.804919,-1.873613
1001.199219,-8.035801,-5.243771,11.073813,-4.218300
1001.203125,2.059293,-0.485062,-5.334785,0.840480
1001.207031,3.125063,6.596225,3.864209,5.389427
1001.210938,2.984166,6.117473,13.049599,6.900076
1001.214844,12.907076,0.505109,3.574237,3.747700
1001.218750,5.548223,12.311524,11.249357,17.395659
1001.222656,10.144400,14.623461,12.910591,10.023630
1001.226562,9.637391,5.280636,11.996793,14.486215
1001.230469,12.231586,5.843648,9.501286,10.801728
1001.234375,10.569816,10.133660,11.197582,6.308254
1001.238281,12.513770,12.349134,9.335687,-2.271441
1001.242188,6.282256,1.949329,8.175569,5.912225
1001.246094,6.590181,2.328716,5.563535,3.069105
1001.250000,-8.070253,-0.372238,-0.272424,2.473983
1001.253906,2.740168,-3.922358,-5.487519,-3.280601
1001.257812,-0.606532,-6.536726,-6.001492,-9.847356
1001.261719,-12.022226,-7.626460,-8.140032,-6.512017
1001.265625,-7.539643,-10.717759,-7.860786,-5.153472
1001.269531,-4.838750,-5.517483,-8.570245,-11.030623
1001.273438,-6.607106,-6.366667,-8.857669,-15.237868
1001.277344,-8.191475,-10.373973,-9.336794,-17.366905
1001.281250,-4.483145,-10.368285,-10.803390,-9.666030
1001.285156,-6.677874,-12.908447,-7.712907,-5.255814
1001.289062,-10.046471,-4.152333,1.106727,4.514484
1001.292969,-2.134648,-10.937850,-5.205640,-6.987964
1001.296875,-2.768166,-3.854495,3.209260,-2.683379
1001.300781,1.381291,6.792211,-6.641829,7.014641
1001.304688,-5.945458,-1.998381,1.476268,-3.422769
1001.308594,9.464773,10.451244,0.337550,6.313638
1001.312500,8.878482,7.529894,7.965607,6.615217
1001.316406,6.757976,8.593676,10.156460,11.559055
1001.320312,14.378999,11.538413,8.469510,4.857911
1001.324219,8.269281,13.109122,13.352143,9.897508
1001.328125,10.721474,14.437604,6.554399,7.145028
1001.332031,17.572216,10.725380,12.975267,9.438165
1001.335938,13.188506,12.522926,7.505358,2.666308
1001.339844,4.471219,7.601727,3.777804,11.239933
1001.343750,8.473119,0.790050,0.599661,1.418893
1001.347656,1.482774,0.784440,3.593403,-2.005046
1001.351562,-11.356629,1.487102,3.652317,-4.727329
1001.355469,-6.555653,-1.840009,0.814157,-7.808168
1001.359375,-1.540762,-8.684959,-9.036054,-8.419200
1001.363281,-5.473053,-9.580412,-9.528075,-6.665731
1001.367188,-6.168833,-7.395481,-13.891593,-10.967720
1001.371094,-9.623211,-6.645803,-13.162725,-14.070871
1001.375000,-8.683474,-12.392373,-8.819266,-11.156588
1001.378906,-8.195497,-5.345017,-18.733600,-7.636619
1001.382812,-17.221848,-15.577197,-10.354162,-15.419711
1001.386719,-12.959263,-9.624520,-11.519414,-9.263549
1001.390625,-12.782856,-7.311253,-6.198396,-13.739802
1001.394531,-4.906872,-2.011068,-5.330654,-12.075204
1001.398438,-0.634948,1.866972,6.086873,1.591989
1001.402344,-7.079602,-2.732248,2.145662,4.658951
1001.406250,-0.650932,1.613137,12.846739,7.295921
1001.410156,1.913080,10.793937,10.547258,5.252313
1001.414062,9.894935,2.345077,15.181982,0.132065
1001.417969,11.428786,10.300028,7.170508,6.612451
1001.421875,9.335459,6.022041,5.746059,4.922350
1001.425781,8.907260,12.220020,13.321766,17.313692
1001.429688,7.039916,4.449869,15.805198,1.901403
1001.433594,-0.331219,11.491369,12.405797,12.730175
1001.437500,9.779731,7.848825,9.115189,8.407975
1001.441406,7.477517,1.325055,10.837356,6.244128
1001.445312,-0.923307,3.314198,7.007156,-4.504355
1001.449219,-2.295446,4.748948,-0.319321,-2.741013
1001.453125,3.164538,-0.935322,-0.546514,0.098583
1001.457031,-7.573881,2.697733,-12.376296,-0.444548
1001.460938,-12.823482,-2.162032,-7.712759,-8.427149
1001.464844,-9.680532,2.161987,-15.276086,-6.245524
1001.468750,-6.714920,-9.503821,-13.366637,-4.693265
1001.472656,-5.723671,-7.341015,-14.846572,-10.996755
1001.476562,-8.593544,-4.623909,-11.077979,-11.241300
1001.480469,-6.140889,-9.525498,-7.432047,-7.798368
1001.484375,-6.594744,-5.182249,-11.911477,-10.843748
1001.488281,-4.958101,-9.588394,-11.346827,-5.878192
1001.492188,-6.215650,-3.892175,-7.071528,-8.405358
1001.496094,0.893919,2.834193,-1.710912,-1.999792
1001.500000,2.002951,4.148067,-2.312124,-3.355793
1001.503906,-6.456638,-2.740643,2.811020,3.577500
1001.507812,2.995528,2.478450,0.973849,3.984976
1001.511719,14.702505,4.254604,4.203220,6.200986
1001.515625,11.407151,8.320676,9.190332,6.781579
1001.519531,12.774627,14.744179,10.793586,15.014733
1001.523438,12.658059,19.624142,4.637825,7.156068
1001.527344,7.449868,12.998573,12.421344,10.933682
1001.531250,12.985404,13.920176,10.207555,11.211140
1001.535156,15.300368,8.061328,5.729075,6.851887
1001.539062,7.026201,2.856854,1.499655,0.684111
1001.542969,7.432121,5.895345,-2.599635,4.293270
1001.546875,-2.372314,2.771216,0.312223,-4.385823
1001.550781,7.190930,-3.628318,0.956648,-8.323793
1001.554688,-9.171884,-2.183582,-5.532485,-3.335384
1001.558594,-4.541843,-9.967401,-2.618161,-1.654602
1001.562500,-12.290008,-2.689002,-13.451155,-2.080689
1001.566406,-11.250677,-10.761103,-9.499952,-14.517300
1001.570312,-4.065403,-11.823031,-11.934349,-12.022738
1001.574219,-9.930227,-6.677738,-10.531501,-12.129421
1001.578125,-22.483076,-12.430022,-10.284956,-16.585589
1001.582031,-5.480177,-12.318379,-7.190378,-8.515109
1001.585938,-7.866450,-0.650994,-7.873631,-11.665812
1001.589844,-4.483752,-10.358464,-5.420202,-4.684428
1001.593750,-2.417998,-1.957278,-1.139056,-5.109173
1001.597656,-6.648813,-6.453548,1.980211,2.049658
1001.601562,4.805180,1.378217,5.445338,5.450005
1001.605469,7.888854,2.799788,6.617610,-1.855440
1001.609375,2.001549,6.865850,6.068341,9.599289
1001.613281,7.260804,5.075470,0.483082,13.020500
1001.617188,7.693605,7.199373,8.128003,14.073284
1001.621094,7.663177,13.399260,6.402494,12.866080
1001.625000,12.199533,4.353145,5.683965,9.143822
1001.628906,6.944719,11.603934,3.345285,2.590187
1001.632812,12.697322,-2.151632,10.452515,10.898035
1001.636719,7.985276,7.831473,2.745401,4.723602
1001.640625,2.195920,5.695919,8.293024,5.666806
1001.644531,3.324602,1.367212,1.315586,8.185372
1001.648438,1.735434,0.033419,-2.365892,1.041644
1001.652344,-0.992027,-2.911917,-5.004536,3.964115
1001.656250,-1.005661,-2.299433,1.096820,-3.003389
1001.660156,-11.559902,-5.237731,-2.427048,-3.276678
1001.664062,-7.447906,-2.854851,-4.517291,1.738508
1001.667969,-9.667332,1.185551,-8.572168,-10.438387
1001.671875,-13.559622,-14.939619,-7.446253,-10.272148
1001.675781,-14.551681,-6.178736,-5.712424,-12.872727
1001.679688,-18.839085,-9.068032,-9.407715,-0.519087
1001.683594,-9.779530,-9.475119,-13.692821,0.157270
1001.687500,-5.101887,-16.152095,-3.961219,-8.209022
1001.691406,-9.784234,-6.648019,-2.914510,-2.255109
1001.695312,-4.626329,-0.918499,-6.085673,-5.930104
1001.699219,-5.302993,-2.712112,-7.971240,1.686392
1001.703125,-2.496464,1.449749,4.213634,4.548755
1001.707031,3.648603,-1.890379,3.431011,8.480455
1001.710938,10.488414,15.373200,6.539309,9.665144
1001.714844,10.040354,6.495541,2.102867,4.155455
1001.718750,10.247006,12.025730,9.922084,8.670198
1001.722656,11.927313,12.242547,13.299919,9.708848
1001.726562,17.891138,13.639282,8.458772,14.422425
1001.730469,5.031348,1.801795,11.925088,4.438989
1001.734375,10.259844,11.486044,14.480844,6.026627
1001.738281,2.888492,10.422027,2.327621,6.297593
1001.742188,-0.648152,12.297515,3.396936,5.029930
1001.746094,5.319870,2.048786,7.614893,1.724012
1001.750000,-6.387676,-6.952254,5.037988,-3.912587
1001.753906,-4.385105,-1.867511,-1.847444,-1.131022
1001.757812,0.038451,-6.537092,-5.260836,-6.948925
1001.761719,-4.538308,-6.438604,-12.994517,-9.780531
1001.765625,-10.099146,-15.112613,-7.450164,-4.486262
1001.769531,-14.670386,-7.306786,-14.172326,-10.007629
1001.773438,-5.365081,-11.922207,-1.673158,-11.194929
1001.777344,-7.942605,-10.098988,-13.284248,-12.654512
1001.781250,-13.473118,-6.451999,-12.018128,-8.977883
1001.785156,-8.682786,-9.419262,-6.112599,-7.502945
1001.789062,-3.526680,-6.787813,-9.471461,-9.358114
1001.792969,-5.242056,-2.077494,-4.359157,-9.192208
1001.796875,-0.856032,-3.949587,5.058676,-6.484247
1001.800781,-1.678969,1.801279,-2.050336,2.239954
1001.804688,-0.843425,3.377896,-2.458869,0.080245
1001.808594,11.350720,9.134311,0.575901,3.416671
1001.812500,16.844039,1.279023,5.040922,8.478001
1001.816406,17.047086,7.186822,15.722966,5.271045
1001.820312,11.076078,6.319941,12.632199,10.856638
1001.824219,6.175082,15.028788,15.601287,6.383657
1001.828125,11.592212,14.745286,18.351972,12.549364
1001.832031,8.623695,15.244598,21.043808,6.694861
1001.835938,13.458882,0.886515,3.699222,12.091123
1001.839844,7.887752,5.158464,10.878396,1.587658
1001.843750,7.442561,-0.353258,1.740036,1.051741
1001.847656,3.942664,-6.602103,7.505146,0.737195
1001.851562,-5.165644,-2.781088,2.113477,2.904197
1001.855469,-4.320855,-2.043114,-7.275902,-5.271170
1001.859375,-4.520217,-5.323295,-9.760429,-7.539727
1001.863281,-0.768358,-5.924490,-5.177135,-10.133079
1001.867188,-10.876138,-11.844432,-11.329209,-9.019835
1001.871094,-2.496264,-9.792998,-11.868795,-7.318984
1001.875000,-10.098187,-12.417021,-3.306520,-7.338406
1001.878906,-9.798533,-14.620583,-15.582200,-15.070432
1001.882812,-15.892904,-5.678436,-7.363726,-2.085620
1001.886719,-8.945422,-12.509480,1.451103,-11.865695
1001.890625,-2.038830,-4.808247,-2.265965,-3.233629
1001.894531,5.426571,-12.717734,-7.629451,3.035219
1001.898438,-1.517866,3.444706,0.584423,5.070197
1001.902344,4.726910,-2.946033,4.176163,6.197806
1001.906250,8.442488,3.635200,8.249528,2.452258
1001.910156,4.573077,5.221849,6.716020,6.319454
1001.914062,6.610623,9.490718,5.152410,1.315300
1001.917969,9.491584,8.466080,12.880672,15.579305
1001.921875,5.916803,6.589574,7.820928,8.745111
1001.925781,7.450489,10.512387,10.769839,11.881439
1001.929688,9.258865,5.211867,6.112336,7.819947
1001.933594,10.742146,7.767109,8.938867,10.478480
1001.937500,6.725320,5.500554,-1.937292,2.526609
1001.941406,8.641653,3.788849,6.367849,13.032261
1001.945312,8.425746,5.520885,5.646294,3.073143
1001.949219,-1.879846,0.123962,-4.487213,-5.832106
1001.953125,-1.762712,-9.636841,-2.966304,-2.204676
1001.957031,-2.081621,-4.230702,-5.390021,-8.170846
1001.960938,-9.004720,-3.823598,-0.325886,-8.896466
1001.964844,-4.226389,-7.605677,-4.155128,-5.032345
1001.968750,-4.219078,-8.082775,-8.996705,-9.015726
1001.972656,-6.922660,-12.995609,-17.546002,-13.505978
1001.976562,-4.858647,-18.131353,-7.786324,-5.042932
1001.980469,-5.313511,-11.582040,-4.340409,-12.718982
1001.984375,-11.971097,-5.890355,-11.843066,-8.733384
1001.988281,-9.717333,-10.342785,-11.374009,-4.882081
1001.992188,-2.028537,-2.979236,-5.709424,-2.420041
1001.996094,-2.431913,-3.002709,-5.582867,1.205998
1002.000000,3.470132,-3.828756,-5.849663,3.437935
1002.003906,5.973385,-2.007214,2.293413,3.310739
1002.007812,0.936540,3.568203,6.977151,0.482484
1002.011719,13.931405,-0.660891,6.628545,16.018292
1002.015625,8.528851,12.159258,7.259481,12.296619
1002.019531,13.457176,12.744166,11.899741,9.578085
1002.023438,8.915972,14.626278,16.124243,8.734434
1002.027344,17.351873,8.247195,8.692837,9.286434
1002.031250,7.294748,6.562739,10.731345,10.667931
1002.035156,8.521488,7.240832,4.235816,8.949619
1002.039062,6.938584,1.394632,10.520003,4.115440
1002.042969,4.508878,14.261009,7.951127,5.624569
1002.046875,2.899375,5.715679,3.611881,4.926394
1002.050781,-2.294812,-0.969584,-4.493110,-3.353655
1002.054688,-0.449200,-2.711562,-5.424641,-6.251781
1002.058594,-16.039667,-1.011579,-4.099327,-4.330406
1002.062500,-11.403013,-1.725228,-0.518372,-6.228339
1002.066406,-5.724126,-9.432590,-9.100746,-4.899045
1002.070312,-8.444537,-6.689362,-15.762010,-9.818082
1002.074219,-14.522279,-8.948006,-14.818658,-7.115782
1002.078125,-0.605990,-15.725792,-11.101837,-0.093567
1002.082031,-7.785625,-13.187093,-4.904026,-10.799681
1002.085938,-6.296539,-12.473461,-7.555564,-17.325215
1002.089844,-3.397133,-0.814148,-6.292446,-1.086006
1002.093750,-7.491768,-6.120089,-5.976384,-2.654346
1002.097656,0.445330,0.756965,-3.087236,-5.929163
1002.101562,1.853063,-2.869502,2.413913,-3.532956
1002.105469,10.053870,3.895724,1.621932,4.677559
1002.109375,14.607880,10.463105,8.818284,2.559697
1002.113281,13.825677,11.671463,0.544496,-0.554449
1002.117188,7.647110,12.109741,13.175050,6.008386
1002.121094,23.257883,9.762965,7.401703,11.111743
1002.125000,11.328672,11.950275,9.943017,5.719787
1002.128906,12.640662,6.458407,9.006472,11.678082
1002.132812,9.197450,6.419966,5.659552,8.683195
1002.136719,13.045338,8.878571,7.291175,9.189565
1002.140625,10.282814,7.477295,10.348706,8.107819
1002.144531,5.284062,8.118252,1.639531,6.583756
1002.148438,-2.532559,-2.453531,1.517282,4.507026
1002.152344,-0.815984,-5.622786,-0.386987,-1.212304
1002.156250,8.235002,-7.002947,-5.842378,0.674590
1002.160156,-3.907748,-6.133754,-6.224575,-13.510187
1002.164062,-14.989839,-3.817571,-16.664881,-10.973342
1002.167969,-9.354494,-10.073068,-11.756708,-9.021201
1002.171875,-4.873498,-13.311705,-9.968976,-6.482687
1002.175781,-8.222184,-11.497496,-13.516362,-16.555201
1002.179688,-8.559560,-9.448020,-10.007416,-14.849661
1002.183594,-3.785360,-13.161996,-11.635003,-5.519873
1002.187500,-4.316825,-8.542765,-3.590592,-3.661400
1002.191406,-1.361199,-1.237580,-8.141846,-2.720857
1002.195312,-0.685817,-2.722713,-9.105337,-3.708716
1002.199219,-7.577215,1.948385,-8.914436,-3.815528
1002.203125,0.121114,-6.271137,3.365498,1.073666
1002.207031,10.031728,9.186192,5.706692,1.882104
1002.210938,8.292344,8.000351,3.515766,-0.295330
1002.214844,8.019651,7.530642,11.077289,10.490190
1002.218750,13.359888,8.189759,14.384788,7.224945
1002.222656,15.695799,4.697282,6.894654,7.050476
1002.226562,7.986883,12.423375,9.867460,7.323314
1002.230469,1.929355,8.308772,8.924295,7.826319
1002.234375,3.129693,13.238379,7.020419,-1.315454
1002.238281,6.268711,5.736593,11.852143,8.738817
1002.242188,9.100588,2.294071,4.227237,2.893371
1002.246094,6.293502,5.966235,3.631056,3.559351
1002.250000,1.524791,4.043605,5.955567,-0.096387
1002.253906,4.684718,-10.518913,1.058358,-0.447348
1002.257812,-3.717047,-6.216430,-2.576243,-11.591615
1002.261719,-2.864839,-11.504628,-5.805284,0.215390
1002.265625,-6.666785,-4.746510,-11.228900,-11.013200
1002.269531,-12.846349,-5.751200,-9.852310,-4.369959
1002.273438,-9.149636,-4.026715,-9.478405,-17.457213
1002.277344,-13.242192,-14.888217,1.987368,-16.993041
1002.281250,-10.420694,-9.366008,-3.754199,-12.451928
1002.285156,-6.501756,-12.680497,-14.371732,-7.274820
1002.289062,-0.226188,-3.633963,-4.531488,-0.502675
1002.292969,-5.484550,-10.565721,-7.460515,-8.201017
1002.296875,2.675000,2.046716,-4.330565,-0.103157
1002.300781,1.547577,1.317848,2.979410,2.632662
1002.304688,5.675854,3.523290,7.279352,-0.862705
1002.308594,6.795907,3.781502,9.618942,3.142838
1002.312500,3.912448,5.854423,9.895724,11.291789
1002.316406,4.574760,7.876341,8.260110,7.243917
1002.320312,6.044599,7.150190,8.154123,11.361565
1002.324219,9.693858,10.564115,18.925540,10.701131
1002.328125,10.279285,12.855673,9.545542,15.756561
1002.332031,6.375317,9.974887,11.902449,8.899762
1002.335938,4.713361,5.627165,7.207962,6.573871
1002.339844,6.821140,3.764648,3.451909,3.595755
1002.343750,2.260879,6.063795,8.593772,3.145317
1002.347656,-0.461494,2.781969,5.629557,3.414677
1002.351562,1.007525,-1.918011,-4.144592,-3.819331
1002.355469,4.189668,-4.649886,-1.166218,-11.483760
1002.359375,-3.595409,-5.377338,-5.279172,-10.947179
1002.363281,2.122702,-6.057958,-8.567713,-8.386563
1002.367188,-4.921650,-5.522916,-8.958600,-9.970801
1002.371094,-10.562158,-9.033310,-2.917728,-7.506065
1002.375000,-6.447718,-7.369875,-9.979223,-9.045049
1002.378906,-12.768454,-13.357098,-7.679001,-6.778629
1002.382812,-7.804361,-14.560868,-15.511665,-6.227744
1002.386719,-16.601800,-6.673356,-12.373654,-11.673064
1002.390625,0.614323,-4.915477,-5.649966,-5.109726
1002.394531,-8.537740,-6.198695,2.964798,-6.011570
1002.398438,-3.361234,4.658801,-2.768401,-2.940756
1002.402344,-0.442803,3.673697,9.854142,1.151233
1002.406250,7.895662,3.490017,3.473758,7.436611
1002.410156,8.695159,6.101865,7.728259,6.739058
1002.414062,6.439223,6.233114,6.823882,2.848841
1002.417969,4.350771,14.866237,12.314650,10.748627
1002.421875,5.723441,8.224884,7.022075,11.807140
1002.425781,10.771376,9.643340,6.543539,11.226123
1002.429688,7.608550,11.428013,8.022303,3.785467
1002.433594,12.136636,12.262321,3.689727,11.042094
1002.437500,5.039283,10.250433,6.322234,11.377936
1002.441406,6.021925,5.414094,8.825037,-1.169194
1002.445312,3.798126,3.722100,2.283485,2.981852
1002.449219,0.624933,-1.218560,6.738156,5.561206
1002.453125,0.932496,-5.132157,-1.012544,-2.411039
1002.457031,-2.856667,-7.119116,-4.084271,-1.051558
1002.460938,-5.689781,-4.800395,-2.368551,-6.429982
1002.464844,-5.414491,-10.455596,-12.511185,-5.343462
1002.468750,-7.505384,-12.837350,-10.686236,-10.359051
1002.472656,-11.598455,-10.035654,-11.489986,-9.563058
1002.476562,-13.785542,1.227441,-15.025176,-9.306762
1002.480469,-12.956981,-9.602095,-9.660024,-11.779265
1002.484375,-13.938185,-8.034983,-12.753724,-11.138573
1002.488281,-4.221358,-13.998166,-12.255504,-11.120618
1002.492188,-4.891100,-7.468491,-2.293031,-3.761008
1002.496094,0.598882,-4.655444,-2.943785,1.296518
1002.500000,5.156173,-3.682491,-5.683215,-5.255752
1002.503906,7.949937,1.298601,2.361447,10.724342
1002.507812,4.983325,5.591109,3.830090,4.247115
1002.511719,5.415106,5.577967,9.100426,7.877896
1002.515625,12.697776,10.239117,7.010044,11.648376
1002.519531,12.543655,4.342504,10.089229,12.758300
1002.523438,11.988519,9.369612,10.245471,5.872437
1002.527344,10.425446,18.473583,15.742743,12.578729
1002.531250,2.009596,11.973520,12.265666,2.544866
1002.535156,10.377245,8.899961,10.652202,7.382227
1002.539062,8.368652,7.499592,1.123305,8.641994
1002.542969,2.422733,10.133915,4.334713,-1.086947
1002.546875,3.347776,4.629087,5.330693,0.507632
1002.550781,3.255071,2.641642,-0.060801,-10.192269
1002.554688,1.362587,-2.882227,-1.307383,-5.378615
1002.558594,-6.566230,-3.804850,-3.883207,-7.605149
1002.562500,-1.476029,-2.838093,-5.523060,-4.135808
1002.566406,-3.311948,-13.890272,-5.354270,-13.215670
1002.570312,-9.375174,-12.418565,-1.340218,-8.981138
1002.574219,-6.491614,-13.627357,-4.133793,-15.733827
1002.578125,-4.402607,-2.156339,-13.735980,-11.430739
1002.582031,-9.991021,-13.315960,-17.546324,-4.749937
1002.585938,-9.264355,-6.243255,-5.782207,-0.078944
1002.589844,-11.176495,-1.663046,-5.031861,-9.718203
1002.593750,-2.838615,2.765451,-8.418270,-3.111184
1002.597656,-5.392339,-3.097654,-2.192194,-2.175198
1002.601562,-2.456538,5.020435,-4.131838,-4.573173
1002.605469,-0.449870,1.356423,3.805484,1.255203
1002.609375,8.459195,5.722760,8.479550,6.987755
1002.613281,4.134423,6.093305,6.106155,4.523309
1002.617188,3.153882,4.514225,-1.470440,8.601979
1002.621094,14.098175,5.813229,4.090268,10.101607
1002.625000,4.150111,10.978547,16.810315,14.079819
1002.628906,10.412799,4.327741,12.152290,19.575784
1002.632812,9.138196,7.609097,4.632168,11.424769
1002.636719,4.421683,9.543120,2.601448,4.582027
1002.640625,9.897979,3.279568,6.049967,4.250532
1002.644531,6.438498,6.984100,5.324565,4.138383
1002.648438,-2.388692,1.252765,-2.208320,-7.177599
1002.652344,-0.562733,-3.450708,0.948214,-6.060681
1002.656250,-3.737942,-2.926059,-12.433844,-6.334684
1002.660156,-9.613206,0.157619,-9.860833,-6.556497
1002.664062,-12.030242,-2.914630,-8.482092,-6.985642
1002.667969,-11.344949,-11.525718,-5.480771,-1.800150
1002.671875,-16.350543,-10.488812,-11.685857,-7.832137
1002.675781,-11.847660,-9.506279,-19.413404,-6.692469
1002.679688,-11.419161,-10.363180,-4.051506,-11.105796
1002.683594,-1.361004,-15.417741,-13.435019,-13.232055
1002.687500,0.403034,-12.669273,-10.342252,-5.828442
1002.691406,-2.996281,-3.169795,-3.967241,-2.873149
1002.695312,2.039881,2.985417,3.551540,-3.676618
1002.699219,4.802117,-4.867420,-1.470124,-0.195127
1002.703125,-1.132058,4.400264,6.698162,-0.477181
1002.707031,7.056335,0.399959,3.832801,8.438522
1002.710938,-0.013658,10.938094,3.191181,3.455133
1002.714844,8.769314,6.482741,7.727863,7.387235
1002.718750,5.722836,12.771714,2.205783,10.692122
1002.722656,13.101602,12.668283,11.164442,7.975839
1002.726562,11.546767,11.626334,3.136640,10.122499
1002.730469,7.580174,14.802549,7.267022,13.457036
1002.734375,8.245750,2.336112,5.014855,9.485999
1002.738281,11.487782,8.983476,2.293736,9.945196
1002.742188,0.654613,-0.950944,6.018624,2.731371
1002.746094,7.718433,-2.627995,3.540859,6.549734
1002.750000,-1.275535,-1.096784,-6.307788,-5.479074
1002.753906,-2.981709,-2.918731,0.572356,-7.411234
1002.757812,-7.527358,-3.150760,2.578562,-8.360870
1002.761719,-1.563606,-4.273653,-3.197286,-2.573623
1002.765625,-13.812523,-16.441900,-11.058412,-13.285117
1002.769531,-17.641873,-3.570905,-8.939350,-8.572240
1002.773438,-12.376972,-14.515642,-8.168609,-15.342727
1002.777344,-11.753229,-9.446716,-9.777981,-12.911986
1002.781250,-8.936504,-11.407318,-8.738901,-8.436534
1002.785156,-9.038417,-5.178901,-0.372748,-8.258804
1002.789062,-4.990558,0.615907,-2.824139,-4.227331
1002.792969,-6.191158,-1.010533,6.709897,-0.775910
1002.796875,3.495609,2.285903,0.505384,-2.219669
1002.800781,-1.484162,-1.005596,6.872997,-9.607812
1002.804688,2.653845,1.194207,11.035526,7.588250
1002.808594,4.369121,6.574359,7.197575,3.843396
1002.812500,5.210658,6.919890,7.396599,4.824938
1002.816406,8.810722,11.071549,8.066061,9.350211
1002.820312,8.670221,12.213490,10.543559,7.563030
1002.824219,15.365574,14.718068,3.521734,8.462775
1002.828125,7.363395,8.500955,9.622994,6.322594
1002.832031,7.921379,2.526944,5.616171,14.622616
1002.835938,10.994347,0.267035,2.135682,7.791382
1002.839844,5.525676,10.102681,5.811111,6.724112
1002.843750,1.634754,3.761696,0.189235,5.735226
1002.847656,9.655410,-5.206470,6.452064,-1.963586
1002.851562,2.544805,0.539209,0.293987,-6.135446
1002.855469,-3.919301,-2.654238,-8.594834,-7.171718
1002.859375,-0.096435,-9.894976,-5.622697,-10.683912
1002.863281,1.155510,-15.254332,-6.148042,-11.457101
1002.867188,-8.872918,-4.057530,-7.792945,-10.018205
1002.871094,-7.590504,-8.647467,-14.297875,-11.962353
1002.875000,-9.350356,-9.975752,-12.990297,-14.826726
1002.878906,-5.344810,-8.480560,-8.698805,-12.379357
1002.882812,-9.339604,-8.547753,-9.677452,-7.518013
1002.886719,-3.098092,-8.846829,-6.823021,-16.299106
1002.890625,1.948870,-5.179627,0.408593,0.648110
1002.894531,-6.442798,-6.021493,0.076286,-1.818979
1002.898438,-2.443555,-0.398411,-6.151682,-7.975807
1002.902344,5.033388,6.548132,5.617305,-1.743180
1002.906250,2.863473,-4.525759,7.614175,1.635695
1002.910156,-5.034135,6.069400,8.716832,2.613238
1002.914062,9.845924,7.402657,9.474550,6.965953
1002.917969,5.561708,6.745563,5.847705,18.120871
1002.921875,9.438463,9.772333,16.750218,10.242023
1002.925781,8.426847,8.222532,7.316709,9.288445
1002.929688,9.617253,4.163262,4.449038,8.450069
1002.933594,11.318050,9.021422,2.694027,3.540646
1002.937500,16.216922,7.384436,13.382070,9.705236
1002.941406,6.762883,12.547394,6.004801,2.998618
1002.945312,-0.256001,5.868539,7.187991,5.278940
1002.949219,4.029687,-0.121187,-3.180672,2.642983
1002.953125,1.039012,1.676906,1.103228,-1.350081
1002.957031,-8.476045,-4.240209,-7.583807,-7.688511
1002.960938,-2.983112,-8.136732,-4.998403,-8.065980
1002.964844,-3.352979,-3.590068,-10.857257,-10.672925
1002.968750,-9.229809,-9.045729,-11.811244,-12.355022
1002.972656,-10.913181,-12.240014,-0.757082,-12.220118
1002.976562,-15.434582,-11.502559,-10.442441,-10.793458
1002.980469,-13.850828,-2.426065,-13.829159,-8.486357
1002.984375,-8.037271,-7.640485,1.039629,-8.457702
1002.988281,-7.725687,-3.124361,-3.580403,-4.948742
1002.992188,1.494818,-13.802437,-16.824200,-7.008672
1002.996094,-0.387058,3.276825,-13.912726,-0.027466
1003.000000,-0.506868,-2.991457,-5.059798,-1.774766
1003.003906,-0.498054,4.201247,14.228616,0.013707
1003.007812,4.411698,2.799796,5.754281,10.224860
1003.011719,3.108022,2.337748,8.519594,12.131490
1003.015625,15.875671,8.808754,6.241114,10.271270
1003.019531,10.363894,12.996822,18.111278,3.639795
1003.023438,6.090431,5.779290,16.402394,9.504408
1003.027344,11.446652,14.709757,5.824951,7.819874
1003.031250,12.716904,6.369147,4.639296,-0.230082
1003.035156,11.499812,8.327669,8.400569,17.580916
1003.039062,-0.480991,11.062093,3.830610,8.423072
1003.042969,15.748369,1.332638,6.724381,2.760584
1003.046875,2.488021,3.179113,1.996314,0.606355
1003.050781,-5.239942,3.937846,-1.007810,-6.027254
1003.054688,-4.935656,0.235982,1.487692,-8.508332
1003.058594,2.552653,-7.977430,-8.301681,-8.019799
1003.062500,-7.123181,-3.576645,-5.119148,-7.218697
1003.066406,-5.035371,-8.856330,-5.623051,-4.723416
1003.070312,-11.608935,-9.042431,-5.951243,-4.764694
1003.074219,-8.361083,-4.954522,-6.242935,-4.376619
1003.078125,-6.792792,-6.877551,-5.612630,-10.759133
1003.082031,-11.631521,-17.581585,-9.152500,-6.758724
1003.085938,-8.535622,-4.056203,-13.223799,-5.159282
1003.089844,-7.453523,-5.128865,-9.512677,-5.121526
1003.093750,-0.580536,-4.979381,-8.718111,-4.150199
1003.097656,0.737999,6.205211,-6.803798,-1.398192
1003.101562,-0.726599,-0.573627,-0.425711,0.242213
1003.105469,3.425108,6.586090,-3.635199,12.051280
1003.109375,8.837573,3.483307,5.258896,4.081988
1003.113281,10.588200,11.507137,11.222273,7.434774
1003.117188,8.719289,12.916145,11.206611,6.925689
1003.121094,13.231283,13.936549,14.125128,11.683348
1003.125000,9.958530,3.075565,5.770934,3.478503
1003.128906,9.959717,6.669597,14.879309,18.091338
1003.132812,9.728555,13.350908,0.292562,5.828307
1003.136719,7.237155,7.647898,12.127868,5.950823
1003.140625,3.530821,3.570043,2.394928,5.527997
1003.144531,2.258347,14.953461,-6.497054,-0.589501
1003.148438,-0.918761,1.548794,-4.645504,6.660678
1003.152344,0.585915,1.337170,-5.114425,-4.956266
1003.156250,-12.237491,-8.213848,-4.245768,-3.261381
1003.160156,-12.079530,2.133758,-1.919119,-13.870167
1003.164062,-7.579685,-3.613208,-13.004140,-13.416439
1003.167969,-7.249660,-12.771368,-6.339381,-9.884238
1003.171875,-13.991828,-13.640860,-15.649297,-19.382278
1003.175781,-9.949889,-16.901086,-2.758128,-10.801119
1003.179688,-3.846569,-5.416691,-8.222852,-9.265519
1003.183594,-5.080151,-11.287902,-12.080413,-11.973099
1003.187500,-9.736505,-10.942998,-10.257466,-7.462283
1003.191406,-7.821050,-3.656565,-1.879481,-4.380850
1003.195312,-5.284580,-5.435667,6.175883,-0.358323
1003.199219,-1.985629,-0.854900,-5.453953,4.527384
1003.203125,2.385427,4.450684,-1.466513,-1.455370
1003.207031,4.039702,4.425319,4.720433,3.527671
1003.210938,11.069686,7.055438,8.672876,10.467959
1003.214844,6.220249,4.615630,14.320943,11.807852
1003.218750,14.837496,4.233605,3.090614,8.139948
1003.222656,6.101256,16.342965,9.125835,6.562296
1003.226562,12.706782,12.371227,3.352044,14.401741
1003.230469,8.559263,14.038749,10.904121,13.512011
1003.234375,10.887129,4.945433,12.127238,14.051854
1003.238281,8.671015,2.484623,5.482338,10.013180
1003.242188,0.321554,3.136357,-6.534104,1.270565
1003.246094,7.721381,5.199150,5.300641,4.649777
1003.250000,1.378353,1.246103,11.468362,-1.631316
1003.253906,-4.587574,-2.547045,0.757794,-4.275959
1003.257812,-9.792597,3.558375,-4.846649,-15.423541
1003.261719,-7.139759,1.311204,-9.037274,-2.546584
1003.265625,-9.212695,-17.552484,-8.660920,-11.415183
1003.269531,-12.615171,-10.591825,-12.274026,-12.288415
1003.273438,-15.548327,-4.259284,-7.294680,-13.680629
1003.277344,-19.718993,-11.924530,-10.138372,-7.945848
1003.281250,-14.057922,-10.660687,-12.500810,-6.872635
1003.285156,-10.320792,-10.683672,-5.005494,-7.794932
1003.289062,-1.460916,-11.082892,-3.863942,-0.249854
1003.292969,-3.919931,-6.380010,-4.985640,-5.089878
1003.296875,-1.034993,-0.933102,-2.064345,-6.030066
1003.300781,1.382360,0.652386,9.166425,3.937438
1003.304688,-2.581408,-1.038853,-0.036649,2.972811
1003.308594,4.757442,2.038069,8.230044,10.884752
1003.312500,8.179200,9.950975,6.655132,8.847471
1003.316406,10.864772,8.846804,5.884541,9.498469
1003.320312,9.809306,14.004198,9.985914,8.155501
1003.324219,18.830049,7.320508,19.881951,1.200873
1003.328125,8.136668,8.865323,12.994714,10.789172
1003.332031,15.387969,7.802766,17.221583,12.495471
1003.335938,9.812650,6.701381,7.114977,5.240787
1003.339844,5.247591,3.686821,8.501778,11.331616
1003.343750,7.358344,5.284656,4.148804,10.424624
1003.347656,0.145563,2.318334,6.234673,-0.296643
1003.351562,-2.398592,2.479009,1.248799,-2.421712
1003.355469,-11.723717,3.603255,-8.112347,-6.116772
1003.359375,-3.670724,-17.117304,-12.097291,0.781489
1003.363281,-11.445016,-7.992054,-3.174645,-4.181836
1003.367188,-8.548362,-4.772658,-11.320959,-8.133046
1003.371094,-8.843308,-1.694028,-8.712853,-15.432433
1003.375000,-10.205204,-13.709208,-12.226732,-8.700196
1003.378906,-9.285445,-12.428466,-16.023846,-11.533812
1003.382812,-9.131519,-15.659508,-4.946819,-10.564733
1003.386719,-9.273688,1.024487,-0.602004,-4.180042
1003.390625,3.721867,-5.744795,-10.462931,-5.614807
1003.394531,-6.546901,-9.896541,1.305913,-4.921504
1003.398438,-5.446835,-1.629229,-4.633255,-0.479049
1003.402344,5.576079,4.130664,-3.749805,2.259806
1003.406250,-4.107405,-3.183963,12.836328,3.791560
1003.410156,3.804576,6.556990,11.242731,3.335052
1003.414062,16.376763,12.694742,9.526899,9.519988
1003.417969,22.203482,9.096389,8.517251,8.575530
1003.421875,13.555281,5.773076,5.424218,7.613374
1003.425781,14.039311,4.479331,12.382133,13.299005
1003.429688,13.996297,13.884107,11.190218,7.168558
1003.433594,10.149373,10.832424,11.731518,10.219856
1003.437500,10.312778,7.425720,5.808964,8.089433
1003.441406,-1.825855,5.233818,8.090670,1.582452
1003.445312,-1.432860,-2.855697,4.309084,6.877518
1003.449219,5.247605,0.617656,-1.310083,3.919363
1003.453125,-4.567582,4.271640,-10.692097,-2.174178
1003.457031,-1.692572,3.535473,-9.883473,-2.088593
1003.460938,-8.994068,-6.173407,-4.432931,-7.244612
1003.464844,-8.759748,-11.042477,-0.194897,-12.367863
1003.468750,-7.022118,-16.767830,-6.401499,-10.100922
1003.472656,-8.981300,-12.939141,-6.779184,-10.606900
1003.476562,-6.384800,-6.759282,-5.653380,-3.840222
1003.480469,-11.147464,-6.051422,-5.779561,-4.872703
1003.484375,-6.881757,-12.930519,-6.990809,-8.454401
1003.488281,-1.430897,-6.173963,-7.809733,-6.710519
1003.492188,-2.006443,-4.125643,-0.519598,0.633122
1003.496094,6.127922,-4.286203,-1.028922,-7.844588
1003.500000,-9.691248,-5.012741,-2.599258,-0.908955
1003.503906,6.042413,5.435314,0.664349,1.461948
1003.507812,4.299316,0.990776,9.372502,6.214512
1003.511719,4.605533,2.058068,5.347675,3.094743
1003.515625,10.914634,4.068340,8.292291,2.734623
1003.519531,17.737777,11.477114,10.960397,10.108714
1003.523438,5.244917,7.024588,12.268377,5.400944
1003.527344,5.404056,15.339413,2.695435,4.808434
1003.531250,10.031767,7.955168,0.600867,10.396568
1003.535156,8.408634,17.714625,0.703093,14.152151
1003.539062,8.411591,7.303940,0.473577,6.406555
1003.542969,1.698342,2.396907,11.241726,8.486322
1003.546875,2.359006,2.214061,1.373815,-3.268414
1003.550781,-1.379040,-1.402723,0.441423,-0.862049
1003.554688,-9.508611,-9.090659,2.415722,6.263667
1003.558594,-9.862482,-2.931213,-5.043670,-8.570684
1003.562500,-7.637231,-8.632771,-2.364367,-4.245033
1003.566406,-9.526836,-9.467605,-4.262630,-4.195739
1003.570312,-8.878812,-9.451511,-10.684668,-7.668323
1003.574219,-9.777455,-12.772893,-9.643258,-14.210853
1003.578125,-2.668247,-8.291157,-8.898942,-10.677722
1003.582031,-13.919611,-14.126081,-14.655628,-4.151015
1003.585938,-17.472239,-5.877781,-0.547632,-0.102425
1003.589844,-4.669509,-10.664668,1.660980,-5.585923
1003.593750,-5.032428,0.826718,-11.176634,-3.455927
1003.597656,-1.103194,-4.154338,-0.019922,3.026021
1003.601562,3.024054,1.491864,2.749697,3.726516
1003.605469,2.551128,9.527649,2.697271,-4.756260
1003.609375,9.450728,6.990406,12.909505,2.764295
1003.613281,5.403968,13.657252,4.454859,9.344286
1003.617188,11.290472,12.995732,6.800975,13.616833
1003.621094,14.970676,15.750156,9.143168,12.649663
1003.625000,9.667908,9.036239,8.633851,9.194214
1003.628906,15.134730,4.922001,12.019611,9.510344
1003.632812,8.548591,8.767569,8.626682,8.271347
1003.636719,8.211242,9.861896,3.165572,7.126414
1003.640625,6.859887,3.691954,5.529576,4.039409
1003.644531,-2.401089,9.423289,4.291580,-1.934784
1003.648438,1.810055,0.080754,-3.555786,-5.434292
1003.652344,4.978162,-4.135351,-1.479649,-1.288507
1003.656250,-1.193099,-7.197011,-2.303609,-0.330906
1003.660156,-8.526503,-4.571299,-9.470751,-1.893789
1003.664062,-6.186952,-13.419479,-8.131484,-7.859783
1003.667969,-6.604007,-6.281059,-15.239391,-12.902721
1003.671875,-13.809633,-10.473851,-3.150689,-16.008103
1003.675781,-15.907096,-8.005889,-9.624766,-6.881765
1003.679688,-8.417103,-11.127433,-8.978673,-9.430668
1003.683594,-10.829442,-8.373794,-6.185505,-8.878515
1003.687500,-0.635661,-4.559579,-9.318785,-6.932350
1003.691406,-6.328052,-2.373338,-3.763633,-2.813529
1003.695312,-5.105883,1.529054,0.655822,-6.007404
1003.699219,-10.605301,5.084646,-5.665470,-3.799929
1003.703125,1.482897,3.546683,-3.413203,6.827999
1003.707031,7.501853,3.053882,6.719200,6.389694
1003.710938,8.322653,11.188612,10.728059,4.923163
1003.714844,11.985686,6.786724,9.516495,6.020076
1003.718750,10.302573,14.961447,5.309325,9.978755
1003.722656,10.557460,10.246296,18.173466,6.279883
1003.726562,11.833466,8.849569,17.926948,3.218807
1003.730469,6.302284,10.500198,6.482391,5.627034
1003.734375,6.401364,17.201261,7.884718,12.041043
1003.738281,8.509622,7.159907,9.009483,8.815427
1003.742188,1.136980,6.336224,9.126428,9.156376
1003.746094,6.418581,3.178056,-4.203521,6.317561
1003.750000,1.733730,1.821691,-3.513714,-1.641708
1003.753906,-0.436803,-2.776741,-8.524968,0.258655
1003.757812,-10.101463,-5.248114,-7.687316,-9.086022
1003.761719,-3.715484,-4.933832,-7.619805,-13.913021
1003.765625,-4.731974,-5.727925,-7.964587,-6.504201
1003.769531,-12.126910,-6.829487,-10.223141,-3.502532
1003.773438,-9.319522,-8.939901,-11.793067,-13.862910
1003.777344,-11.052605,-14.183660,-16.938253,-12.347896
1003.781250,-4.363731,-7.435027,-5.943351,-14.295682
1003.785156,-18.264612,-13.464373,-10.487700,-8.511735
1003.789062,-11.169946,1.569631,-7.186884,-4.083996
1003.792969,-6.968071,-0.214920,-7.304802,-3.217216
1003.796875,-6.567908,-0.809173,-3.258714,-1.970650
1003.800781,-2.576139,10.067034,-4.593031,-2.131805
1003.804688,-2.724570,-1.672137,1.992539,1.140482
1003.808594,9.789624,7.893354,-1.985027,2.680816
1003.812500,9.280605,9.712077,3.536418,9.913021
1003.816406,7.602027,13.553159,5.629745,7.526777
1003.820312,6.698183,12.279980,16.465400,9.569923
1003.824219,18.483184,10.486878,10.276186,5.750814
1003.828125,8.555890,11.400031,7.365310,7.155855
1003.832031,9.747961,13.515540,9.500894,10.295585
1003.835938,15.704941,12.030517,6.529471,2.532702
1003.839844,8.168832,6.891580,4.812959,4.299780
1003.843750,8.560215,0.091094,0.987994,1.615616
1003.847656,0.039280,-2.169021,-0.471015,2.761373
1003.851562,-1.142481,3.339695,4.937092,-0.735642
1003.855469,-4.434313,4.810303,2.544896,-0.159648
1003.859375,-6.969168,-5.228017,-7.461269,0.759264
1003.863281,-8.334705,-8.660397,-14.567182,-3.554546
1003.867188,-14.233963,1.694193,-11.178032,-7.639557
1003.871094,-2.152111,-9.459627,-12.617546,-12.384923
1003.875000,-8.243613,-7.053031,-9.526685,-3.360798
1003.878906,-9.835035,-14.344039,-5.654874,-10.689693
1003.882812,2.061118,-8.640685,-14.138836,-8.187097
1003.886719,-9.748926,-4.681323,-4.687670,-12.305826
1003.890625,-9.473591,-9.623461,-3.008696,1.937709
1003.894531,-7.434934,5.139052,-0.431025,-2.901503
1003.898438,-7.894724,7.077689,-2.472719,3.673596
1003.902344,2.665192,-2.963508,-6.991726,-1.458076
1003.906250,7.856511,11.761355,-2.331219,2.250665
1003.910156,8.292639,6.904663,3.243147,1.288135
1003.914062,4.518381,13.258457,12.092254,10.868703
1003.917969,11.049941,17.342356,4.638402,12.158784
1003.921875,9.563399,16.642073,6.142275,2.599568
1003.925781,13.498511,14.766620,14.025805,5.650948
1003.929688,15.289271,8.483457,11.432519,8.191914
1003.933594,6.810320,12.419889,9.202693,11.673659
1003.937500,11.802304,6.139906,6.329014,8.779949
1003.941406,10.296396,8.109157,8.217445,3.365176
1003.945312,8.140979,2.490740,-0.801392,3.765302
1003.949219,5.761892,6.735739,3.945601,1.184060
1003.953125,-2.172586,-12.048849,2.769709,2.198834
1003.957031,-6.370600,-3.686978,-7.946184,-7.660256
1003.960938,-12.166781,-9.355665,-1.076269,-5.483476
1003.964844,-3.248139,-4.572711,-6.240855,-7.799082
1003.968750,-18.608640,-12.395264,-7.212020,-10.241889
1003.972656,-12.658517,-14.340479,-4.363136,-15.629118
1003.976562,-5.627009,-15.184797,-15.847142,-9.245983
1003.980469,-7.850978,-13.554569,-4.678738,-15.479639
1003.984375,-5.101138,-4.761218,-5.223665,-0.149476
1003.988281,-4.757374,-7.821472,-5.494284,-9.631167
1003.992188,-5.057779,-2.653899,-11.655175,-8.430890
1003.996094,-7.460706,-0.476778,-4.358336,-7.515622
1004.000000,-10.590189,0.689102,3.747587,-2.642498
1004.003906,-4.368542,1.805696,-3.601137,-3.112648
1004.007812,6.412927,0.685336,-1.231156,2.751951
1004.011719,2.713831,4.353758,6.933973,11.576948
1004.015625,6.236865,6.471140,14.234551,5.941129
1004.019531,13.421162,7.752052,13.246954,8.852903
1004.023438,11.252995,13.890291,7.569921,14.615048
1004.027344,14.975071,11.600755,8.387920,6.882887
1004.031250,8.437593,9.364356,9.728823,8.629989
1004.035156,7.985541,10.565063,5.634982,3.976625
1004.039062,9.108415,2.642369,2.408680,10.963305
1004.042969,7.482871,5.096704,1.187579,1.257743
1004.046875,-1.402440,-3.173364,2.267152,-0.828523
1004.050781,-0.086662,1.183789,-2.448997,-0.033600
1004.054688,-4.823711,-3.783838,-1.132166,-0.858657
1004.058594,-4.390715,1.782099,3.444501,0.127199
1004.062500,-7.900665,-10.444170,-1.584761,-8.721196
1004.066406,-9.230423,-11.554204,-5.545001,-9.789386
1004.070312,-5.522592,-7.894765,-8.168085,-9.631417
1004.074219,-11.424465,-17.718256,-5.231613,-5.059147
1004.078125,-12.540394,-11.913686,-12.481895,-13.139759
1004.082031,-2.981043,-13.635474,-8.295398,-8.384375
1004.085938,-12.714951,-5.776157,-6.206755,-0.677094
1004.089844,-8.581221,-7.629518,-1.413587,-8.399956
1004.093750,2.640134,-2.255677,-2.123337,-5.536050
1004.097656,-4.092498,2.466385,-2.429240,-4.121957
1004.101562,-3.061343,3.149320,7.314334,-3.480402
1004.105469,5.998505,4.693763,-2.824965,4.482235
1004.109375,7.322792,3.571737,3.870048,6.230927
1004.113281,9.975133,5.959003,-1.525580,8.961131
1004.117188,7.273771,9.157596,5.322796,7.512487
1004.121094,11.913650,9.595103,5.353941,9.589604
1004.125000,12.929301,18.355851,4.242394,14.942417
1004.128906,10.016688,2.126402,14.286279,10.263022
1004.132812,8.795183,14.495362,3.428074,13.464604
1004.136719,6.367708,11.548970,7.523018,4.413716
1004.140625,2.915141,3.275808,11.447221,4.290832
1004.144531,-2.062409,-0.929913,1.735234,1.582196
1004.148438,-5.081640,-0.477899,0.783001,4.683572
1004.152344,-1.899115,-4.166182,-4.199688,8.329973
1004.156250,-8.380204,-7.730263,0.234484,-3.608021
1004.160156,-4.439586,-2.864036,-10.455143,-1.602106
1004.164062,-10.682449,-13.721596,-6.376726,-9.463974
1004.167969,-15.902196,-9.503551,-7.719753,-4.535496
1004.171875,-12.850310,-4.267973,-13.185058,-9.111818
1004.175781,-12.175862,-7.561834,-15.505023,-3.758194
1004.179688,-12.961652,-2.931808,-7.313984,-15.066371
1004.183594,-11.381377,-13.113734,-7.261709,-10.661497
1004.187500,-12.675968,-4.481020,-9.222012,-3.771006
1004.191406,-1.802773,-6.296778,0.293503,-5.227838
1004.195312,-3.359467,-3.872131,-7.155318,1.850183
1004.199219,-4.034730,-5.844167,-11.690751,-9.536052
1004.203125,1.880186,7.277466,3.876587,6.391229
1004.207031,6.647095,6.552389,-1.625686,8.235475
1004.210938,9.181950,10.861947,9.566751,7.680118
1004.214844,10.603475,6.209266,4.159494,4.993620
1004.218750,12.561780,16.322032,2.840933,13.887532
1004.222656,12.462566,11.567687,9.001189,11.538843
1004.226562,13.503882,14.767680,7.411096,9.423313
1004.230469,14.276265,6.962828,-2.058126,15.058033
1004.234375,12.208167,10.785723,8.846811,10.780084
1004.238281,2.215989,9.638545,9.490411,4.916038
1004.242188,5.453710,-1.880590,7.420834,7.069673
1004.246094,-0.050557,-3.936189,-2.365519,-5.837818
1004.250000,3.676436,1.154724,0.423746,-0.704626
1004.253906,5.666899,-7.699748,-0.420457,-3.242935
1004.257812,-13.055034,3.093451,-4.954271,-1.595878
1004.261719,-6.012096,-4.359768,-9.031655,-16.559701
1004.265625,-10.417069,-8.180679,-7.956701,-10.134634
1004.269531,-4.729870,-14.720728,-9.291739,-4.615145
1004.273438,-6.863880,-17.586476,-10.982297,-7.485385
1004.277344,-1.811254,-12.032402,-14.775815,-14.742678
1004.281250,-9.804687,-7.814309,-6.004102,-5.933085
1004.285156,-4.821931,-2.194116,-5.368912,2.579173
1004.289062,-6.547156,-7.998511,1.839062,-9.341758
1004.292969,-2.559034,-8.597791,-7.902311,-2.155665
1004.296875,3.357474,-2.351996,-3.258755,-5.737251
1004.300781,7.749109,-3.229973,6.757745,6.124442
1004.304688,8.186101,-0.574340,8.032710,6.071101
1004.308594,8.305642,7.425568,4.286648,7.753372
1004.312500,5.732821,14.820913,2.363414,3.376969
1004.316406,9.951981,10.624688,10.406949,9.129415
1004.320312,8.609674,18.783103,17.821188,7.549611
1004.324219,3.427966,14.168991,10.469094,12.737376
1004.328125,10.331432,18.268417,12.399558,9.991988
1004.332031,13.181940,12.241994,4.282509,18.031249
1004.335938,7.165179,11.415008,7.145450,6.180036
1004.339844,3.071907,2.583315,2.482983,1.686488
1004.343750,0.724537,-1.699674,2.328207,6.635900
1004.347656,-0.783125,2.510789,-5.072342,2.234739
1004.351562,-3.533855,3.814941,1.795988,-2.344641
1004.355469,-3.512537,1.645424,-1.023097,-1.455711
1004.359375,-6.478444,-8.244066,-5.614039,-6.208084
1004.363281,-14.644282,-7.325058,-9.093685,-10.878572
1004.367188,-6.809397,-10.352891,-5.672503,-6.878326
1004.371094,-11.104666,-6.425488,-5.560620,-7.878783
1004.375000,-11.627546,-6.489431,0.932382,-4.008318
1004.378906,-9.756279,-7.857151,-9.441857,-8.165315
1004.382812,-7.587807,-7.398656,-10.295392,-14.688748
1004.386719,-5.790636,-12.349152,-9.250265,-6.415479
1004.390625,-7.045231,-1.970499,-11.026421,-11.279737
1004.394531,3.911348,-3.213468,-5.082406,-1.191276
1004.398438,4.504080,-7.611576,1.266806,1.282885
1004.402344,-5.643131,-0.991145,5.639768,-1.348154
1004.406250,-2.775433,3.611019,5.394360,-1.052157
1004.410156,1.873352,6.924364,8.159725,0.187732
1004.414062,7.011438,7.852556,17.767124,11.617670
1004.417969,8.634778,8.495023,12.359042,14.179797
1004.421875,11.122703,13.279411,15.888369,5.383302
1004.425781,8.528797,4.583994,11.988965,1.193680
1004.429688,-1.072967,10.422280,14.643424,14.664925
1004.433594,5.118044,12.497861,7.970870,11.367205
1004.437500,10.061317,4.922882,5.589589,9.435236
1004.441406,1.062270,6.479800,5.611975,9.854641
1004.445312,0.973549,-3.502947,2.416861,7.161111
1004.449219,-1.013764,-1.403468,-3.061148,1.212677
1004.453125,0.506137,-7.499551,3.279583,-3.677604
1004.457031,-2.455070,-3.613809,-7.566801,-2.929307
1004.460938,-4.248851,-4.854604,-5.435822,-8.107660
1004.464844,-5.865702,-8.448983,-1.562567,-3.899477
1004.468750,-19.270885,-12.490457,-9.303621,-12.303130
1004.472656,-7.845274,-10.654458,-10.741944,-11.365121
1004.476562,-8.654513,-17.874914,-10.092343,-2.367392
1004.480469,-4.606492,-4.780057,-7.246139,-11.468450
1004.484375,-10.376987,-7.515443,-7.985336,-8.980854
1004.488281,-12.463818,-5.061405,-10.232306,-1.147221
1004.492188,-7.986096,-11.311546,-2.520126,5.797126
1004.496094,-4.335586,-5.767826,-3.534056,-6.952760
1004.500000,-1.229000,-6.887081,-3.237709,-0.373003
1004.503906,1.493965,3.848855,3.672115,12.007310
1004.507812,7.934290,6.292989,2.471130,6.738309
1004.511719,15.839983,8.289212,5.599610,2.946041
1004.515625,10.203904,7.641016,10.372402,10.689338
1004.519531,8.126011,10.411138,11.484722,16.510528
1004.523438,7.727187,11.136861,10.006615,4.273303
1004.527344,6.890074,10.475686,5.901609,7.780879
1004.531250,7.627665,5.765415,10.715039,10.452305
1004.535156,10.821030,3.565159,2.121121,6.380814
1004.539062,5.504065,6.531508,9.681633,4.164550
1004.542969,2.678412,10.711254,10.079427,2.340193
1004.546875,-5.239906,-0.276738,-2.154705,-2.714133
1004.550781,-3.496720,1.385786,-2.391706,0.808302
1004.554688,-9.017166,-2.902342,-4.335433,-2.787251
1004.558594,-13.952334,-8.158924,-0.962005,-5.540840
1004.562500,-12.424525,-2.633392,-7.167454,-6.138454
1004.566406,-11.029902,-6.284157,-8.716449,-10.286472
1004.570312,-11.971226,-12.176786,-8.408825,-4.230129
1004.574219,-10.729127,-6.050620,-3.272963,-12.618857
1004.578125,1.680034,-11.524724,-14.450008,-21.702644
1004.582031,-4.088030,-12.588274,-6.685905,-8.637210
1004.585938,-8.953867,-13.751129,-14.667008,-6.288174
1004.589844,-3.281593,-4.929802,-0.413857,-2.812861
1004.593750,-4.491818,0.875078,-3.866228,-6.286418
1004.597656,-1.441197,6.069968,-4.723973,1.657129
1004.601562,1.733049,-0.446883,-6.091829,6.639827
1004.605469,-6.218083,10.824777,2.195654,10.132666
1004.609375,-1.239840,9.630460,5.301570,7.426813
1004.613281,12.016670,11.573389,2.894545,8.944532
1004.617188,19.021893,9.427861,4.837550,9.225842
1004.621094,11.687495,9.248225,15.623206,11.418974
1004.625000,9.792130,15.629460,5.234439,10.079019
1004.628906,7.116265,14.314091,5.331990,8.173411
1004.632812,8.990424,10.024924,8.507865,6.928862
1004.636719,3.694245,5.573508,4.756523,9.242132
1004.640625,0.773500,6.733620,5.295723,4.455965
1004.644531,1.543003,5.154346,9.122039,-0.010306
1004.648438,5.887804,4.581059,-3.549957,2.178168
1004.652344,-0.871837,-14.016997,-0.027362,5.078772
1004.656250,-7.813951,-6.396662,-10.837880,-4.160776
1004.660156,-2.772699,2.817561,-10.689372,-7.957519
1004.664062,-13.933907,-8.135130,-11.848710,-9.206693
1004.667969,-12.196849,-5.758426,-12.983613,-16.518481
1004.671875,-0.439868,-10.950616,-7.856350,-10.697815
1004.675781,-11.911039,-11.435998,-13.021177,-10.086285
1004.679688,-6.031557,-16.105389,-8.354373,-8.137152
1004.683594,-4.081238,-11.849602,-3.717533,-8.923239
1004.687500,-6.658567,-8.019577,-12.516425,-9.381911
1004.691406,-13.989214,-3.661392,-11.427485,-6.838419
1004.695312,1.817373,3.450922,2.659194,2.729727
1004.699219,-2.893119,-7.564366,-0.781559,-8.669828
1004.703125,1.532646,1.786337,2.766671,4.621896
1004.707031,7.571136,9.053903,-1.915482,11.620920
1004.710938,11.459205,1.576651,-1.976972,2.469410
1004.714844,10.934194,0.546043,13.089829,13.948196
1004.718750,7.639395,8.945934,5.227655,5.723070
1004.722656,6.025325,4.900549,3.831398,9.811592
1004.726562,14.981613,16.763072,9.270350,3.613547
1004.730469,15.396585,11.528851,11.420992,10.723856
1004.734375,9.245690,6.060783,9.123795,14.997708
1004.738281,5.075705,1.835955,6.161831,4.243096
1004.742188,-2.085445,5.785121,5.992104,8.723403
1004.746094,-4.705114,-0.001927,-4.462293,3.681473
1004.750000,3.911625,1.597430,-2.911769,3.049918
1004.753906,-5.913712,10.013123,-3.302333,-0.641949
1004.757812,-5.771632,-5.578329,-8.928931,-8.978926
1004.761719,-3.878390,-9.909982,2.339738,-4.209747
1004.765625,-13.318601,-15.806308,-8.006097,-5.726076
1004.769531,-10.373447,-9.510065,-6.223223,-10.731142
1004.773438,-11.286108,-9.197305,-6.648656,-14.505985
1004.777344,-4.979146,-15.663714,-4.264903,-6.975951
1004.781250,-13.866677,-11.234884,-7.338690,-9.147184
1004.785156,-4.639644,-6.486756,-9.437517,-13.353316
1004.789062,-2.885174,-6.758255,-3.802944,-6.060077
1004.792969,-0.372790,4.898926,-5.088165,-12.031272
1004.796875,5.069273,3.942384,5.456060,-0.782737
1004.800781,-0.252104,-1.308026,-3.975609,0.208440
1004.804688,4.453725,8.804346,5.606742,9.499564
1004.808594,7.393857,4.079772,11.226503,1.336436
1004.812500,9.666199,6.829404,7.941793,8.017888
1004.816406,15.601308,-1.380083,13.344641,2.428547
1004.820312,16.743895,13.752893,13.921527,4.497695
1004.824219,8.790207,3.328076,7.630988,15.975773
1004.828125,14.860919,12.340748,5.708275,16.092071
1004.832031,11.481137,12.796481,13.367677,9.737062
1004.835938,8.889067,4.365887,12.694046,13.423478
1004.839844,4.351113,12.434352,10.344143,10.234697
1004.843750,8.080336,-6.143882,5.786958,1.397291
1004.847656,-0.861830,7.521555,3.011239,-4.251605
1004.851562,3.521453,3.450872,2.654438,4.960061
1004.855469,-1.768503,-0.827641,-11.005161,-11.041227
1004.859375,-7.250305,-3.829499,-17.250659,3.921124
1004.863281,-7.574333,-11.758008,-7.455820,-13.712780
1004.867188,-7.906767,-6.560734,-10.192290,-5.191689
1004.871094,-7.334397,-10.387063,-10.957746,-8.741227
1004.875000,-6.815731,-15.189323,-4.270778,-15.827737
1004.878906,-12.764273,-2.964255,-13.274302,-16.844948
1004.882812,-6.054388,-14.832492,-3.301519,-6.510392
1004.886719,-10.093930,-8.803335,-3.386909,-4.875344
1004.890625,-4.600387,3.802844,-6.436622,-7.534890
1004.894531,-4.582973,-5.021528,1.715691,-1.790573
1004.898438,1.844004,-2.908012,-0.399484,-8.094738
1004.902344,-6.925380,7.637344,-4.975174,4.384359
1004.906250,6.358686,2.412383,6.432950,3.278902
1004.910156,2.245460,1.441640,9.117575,6.195522
1004.914062,0.959798,5.567619,1.687865,8.978818
1004.917969,15.119854,8.521688,6.993530,9.762683
1004.921875,0.158244,11.886645,13.075598,8.146365
1004.925781,12.326739,14.192251,9.312055,9.603870
1004.929688,7.218970,11.403954,10.795286,7.434432
1004.933594,6.631954,7.609965,8.286193,2.900719
1004.937500,0.500220,7.409420,6.823158,11.354664
1004.941406,7.141206,7.261322,3.304083,11.051940
1004.945312,0.898965,7.012966,-0.111821,5.703864
1004.949219,0.187895,3.095367,-4.194061,-2.502637
1004.953125,-3.553596,-3.154102,-6.761387,-6.926269
1004.957031,-4.094656,-8.463066,-5.338435,-3.208641
1004.960938,-5.624655,-7.471973,-4.484051,-5.566978
1004.964844,-15.839084,-6.455109,-7.466489,-2.325397
1004.968750,-7.961070,-1.959834,-9.883043,-6.285603
1004.972656,-8.645091,-10.589822,-7.851392,-15.471581
1004.976562,-9.278344,-13.272756,-10.807877,-9.283269
1004.980469,-9.458473,-3.467366,-10.071520,-4.122620
1004.984375,-11.322329,-7.458386,-7.193141,-3.091037
1004.988281,-6.718619,-15.018007,-7.194011,-10.252851
1004.992188,-8.967831,-9.687553,-7.351810,-5.227613
1004.996094,2.013309,3.505848,-1.763893,-7.057221
1005.000000,1.591638,-3.551688,-4.173296,-6.438801
1005.003906,3.403901,0.397370,-2.695241,8.042452
1005.007812,7.694478,7.509563,5.411236,-6.105888
1005.011719,4.695694,13.186181,8.941235,0.918948
1005.015625,5.386385,8.926016,18.597443,2.150725
1005.019531,6.865172,7.964827,6.298670,14.058781
1005.023438,3.173506,3.164114,8.500754,6.546859
1005.027344,3.853895,15.594931,11.430614,8.469471
1005.031250,12.507984,9.862290,7.959401,9.098479
1005.035156,14.114424,6.598792,8.482128,13.560309
1005.039062,1.238770,8.308119,6.705444,6.956835
1005.042969,3.998329,0.912885,1.617273,4.326104
1005.046875,-2.498276,-7.735849,0.916991,4.005127
1005.050781,4.470743,6.312317,2.706909,0.498298
1005.054688,-4.194358,-3.504214,-5.464608,1.843627
1005.058594,1.167378,-4.664452,-0.340748,-5.639134
1005.062500,-9.299087,-7.243537,-11.293483,-4.427633
1005.066406,-13.942524,-11.644808,-8.026121,-11.216269
1005.070312,-14.807807,-6.201830,-17.454170,-9.468864
1005.074219,-8.843365,-9.155126,-13.646651,-7.881934
1005.078125,-4.828415,-12.855872,-6.205603,-6.188446
1005.082031,-13.816966,-11.123542,-16.662746,-18.140566
1005.085938,-0.123789,-11.295068,-13.113797,-11.590793
1005.089844,-7.288523,-11.587741,-12.420576,-3.021389
1005.093750,-3.828184,-3.056376,-2.366475,-2.246847
1005.097656,-2.629631,-3.463786,-0.417646,-6.453399
1005.101562,5.153419,3.820285,-0.457816,2.987532
1005.105469,-6.856688,6.811242,5.206097,6.823201
1005.109375,4.952452,5.919109,5.120812,1.684859
1005.113281,12.248564,5.641071,2.761512,8.196912
1005.117188,11.305477,6.318337,13.787201,9.307923
1005.121094,6.482742,7.879243,5.622913,12.570597
1005.125000,14.108015,11.737742,5.100215,10.022063
1005.128906,12.169126,10.194912,12.606665,7.536074
1005.132812,8.185801,7.626692,11.986226,8.447323
1005.136719,9.999324,1.907193,0.177151,4.196493
1005.140625,0.815967,8.188937,5.569612,6.055496
1005.144531,3.302199,7.007552,3.220873,1.810811
1005.148438,1.397393,1.601714,3.931625,10.898747
1005.152344,-5.477870,-9.447617,-2.120882,0.986663
1005.156250,-4.095714,-3.257786,-3.822179,-7.961624
1005.160156,-3.238296,-12.175350,-4.394919,-2.961536
1005.164062,-8.517689,0.928568,-5.493899,0.880027
1005.167969,-6.709461,-12.870071,-8.840375,-6.058661
1005.171875,-7.391595,-9.103107,-14.469205,-10.148557
1005.175781,-13.001020,-18.519385,-5.897668,-12.721060
1005.179688,-3.311656,-15.857802,-12.161553,-8.371885
1005.183594,-9.680049,-9.743505,-6.641789,-11.040332
1005.187500,-7.490071,-11.627624,-6.812436,-2.797952
1005.191406,-7.521335,4.988804,-8.595263,-11.901713
1005.195312,1.352717,-7.738284,-7.818720,-2.925503
1005.199219,5.808546,-1.312670,-6.713542,-4.016683
1005.203125,6.317450,4.044723,0.446528,8.528493
1005.207031,9.117879,2.377977,12.712251,1.635646
1005.210938,3.731319,3.799514,-0.788912,8.308707
1005.214844,5.433715,7.713553,13.505101,13.954650
1005.218750,1.133296,12.349829,14.454667,13.204549
1005.222656,7.002105,4.850685,12.482757,8.621825
1005.226562,8.379367,12.686970,12.067505,4.328493
1005.230469,8.819602,10.505513,6.588434,8.158267
1005.234375,10.654963,4.719957,10.568111,7.056225
1005.238281,7.024211,9.274504,5.131584,3.621149
1005.242188,6.921207,3.572362,8.534026,-1.486326
1005.246094,-5.284229,1.131156,9.249660,3.809541
1005.250000,1.224691,-0.847574,-0.117379,-3.587126
1005.253906,-6.562024,-1.944518,-3.368789,2.307421
1005.257812,-0.787663,-9.821696,3.857534,-7.442631
1005.261719,0.454515,-5.647891,-6.556307,-10.596731
1005.265625,-13.127722,-7.169936,-11.005908,-3.226827
1005.269531,-9.047658,-2.883989,-18.621879,-4.646493
1005.273438,-14.228658,-14.731467,-7.756876,-14.187921
1005.277344,-9.594029,-11.640291,-11.860714,-11.501314
1005.281250,-3.811600,-10.096774,-12.657121,0.052970
1005.285156,-10.474034,-7.765706,-1.625330,-1.618659
1005.289062,-2.410774,-4.788989,-10.541935,-15.264204
1005.292969,1.054842,-1.771181,-1.407309,-2.352593
1005.296875,-6.349996,2.466329,4.574003,-2.892018
1005.300781,-5.388738,-1.960275,-1.130100,-1.071342
1005.304688,4.986343,-5.851424,5.038224,5.093439
1005.308594,7.164202,3.104138,2.384806,3.243333
1005.312500,6.117182,11.848101,4.265800,10.591315
1005.316406,10.920581,19.027834,9.621674,11.746296
1005.320312,14.403904,10.750698,8.415966,15.455416
1005.324219,12.112057,4.277290,4.175582,7.040955
1005.328125,8.323566,14.234629,6.560996,6.398329
1005.332031,4.914910,16.224577,13.823486,12.526866
1005.335938,15.259422,17.760289,11.951918,11.029187
1005.339844,8.958387,4.225250,10.231610,6.303677
1005.343750,0.708175,10.492158,-4.697949,3.393097
1005.347656,8.017317,-2.931512,2.022127,3.878517
1005.351562,-2.704071,-2.107752,-5.263513,3.235478
1005.355469,-9.156426,-2.043289,1.034911,-2.031303
1005.359375,-4.910709,-4.352316,1.737636,-3.745830
1005.363281,-6.661586,5.489345,-6.055605,-6.649208
1005.367188,-10.671775,-9.663964,-4.991112,-5.420677
1005.371094,-5.927784,-10.346919,-13.047421,-8.138570
1005.375000,-10.118264,-8.375914,-9.918537,-9.424414
1005.378906,-6.521316,-12.943971,-10.464229,-5.628795
1005.382812,-8.335470,-9.210228,-6.373287,-7.340492
1005.386719,-7.716532,-1.989461,-6.925067,-9.405461
1005.390625,-6.330419,-12.488823,-5.735035,-6.040322
1005.394531,-4.304182,-4.916636,-4.538424,-1.618078
1005.398438,-7.192604,-3.333508,1.917680,-1.141373
1005.402344,10.478455,0.646092,4.387812,8.260468
1005.406250,2.612362,5.764126,1.960166,1.694422
1005.410156,7.487404,1.639280,5.263192,-0.489928
1005.414062,7.036719,7.631437,14.055142,11.677251
1005.417969,9.656149,11.132734,7.789069,12.903684
1005.421875,9.045548,9.452087,11.281645,5.558604
1005.425781,9.316360,8.291854,6.840844,9.852503
1005.429688,9.944645,6.636027,10.244955,13.245462
1005.433594,6.611861,7.695799,5.102222,1.896048
1005.437500,11.725143,5.262154,7.787964,8.951757
1005.441406,4.260492,2.770514,8.263550,10.736063
1005.445312,0.698749,9.098597,7.338385,3.406227
1005.449219,2.186497,-1.714111,1.297903,-2.794557
1005.453125,-2.337436,-2.647668,-2.250069,-1.659678
1005.457031,-6.124776,-9.907473,-0.317176,-9.561464
1005.460938,-3.380243,-7.812684,-9.563313,-5.548930
1005.464844,-8.534827,-8.622229,-6.983648,-13.200272
1005.468750,-7.112029,-11.802052,-14.039055,-13.223205
1005.472656,-10.492712,-14.150384,-9.556687,-12.750518
1005.476562,-4.308432,-6.943383,-6.169782,-10.301078
1005.480469,-6.206247,-7.340020,1.072537,-12.772350
1005.484375,-3.944125,-9.000413,-8.532459,-8.592809
1005.488281,-5.719459,-3.869192,-11.238432,-7.777748
1005.492188,-9.610195,2.838178,-3.738875,-3.848369
1005.496094,-6.053941,-2.330407,0.491449,2.117358
1005.500000,-4.735617,-0.335383,0.295509,-0.592165
1005.503906,1.865153,3.060937,7.219053,0.880434
1005.507812,7.409678,5.361742,10.409366,7.140623
1005.511719,11.046112,2.196960,6.658108,6.106747
1005.515625,6.298394,10.938528,10.935709,5.153331
1005.519531,4.470797,9.361463,15.184235,6.708683
1005.523438,5.604664,16.603869,6.579560,11.990374
1005.527344,8.450830,11.760624,-0.032448,12.819293
1005.531250,5.523817,11.887372,14.150788,9.405316
1005.535156,13.756470,13.344281,9.342357,14.317321
1005.539062,-1.189732,7.297596,9.636870,-0.301216
1005.542969,-1.347098,12.415377,0.279558,-6.956675
1005.546875,2.561474,1.982953,4.911349,2.003221
1005.550781,0.779326,-5.225799,4.137633,-2.244208
1005.554688,-2.350884,-1.380358,-0.443078,-4.606288
1005.558594,2.466893,-0.865278,-9.004919,-6.554292
1005.562500,-5.343575,-13.290962,-6.523674,0.684228
1005.566406,-4.674421,-12.264730,-10.323147,-7.968439
1005.570312,-6.427759,-14.637234,-9.207917,-14.650934
1005.574219,-12.416956,-15.607533,-6.247581,-10.690843
1005.578125,-8.783274,-14.932919,-10.785327,-9.222104
1005.582031,-16.979866,-8.598228,-12.196078,-11.890362
1005.585938,-6.091702,-11.986656,-6.393358,-7.199085
1005.589844,-9.719821,-5.505131,-6.423169,-7.958288
1005.593750,-3.556863,-3.822723,3.200178,-3.480455
1005.597656,-1.660910,-2.041736,-5.572812,-3.708489
1005.601562,-7.835007,4.599506,1.822864,0.477434
1005.605469,4.015978,9.082603,11.162479,10.291977
1005.609375,10.548855,8.801974,7.761948,2.594243
1005.613281,4.855184,8.347003,9.737164,1.629311
1005.617188,11.781379,8.228285,9.379299,5.666152
1005.621094,14.637293,6.307959,1.908961,14.598771
1005.625000,10.603590,11.848073,10.197215,17.337954
1005.628906,12.716665,3.672416,6.754269,10.261433
1005.632812,11.373727,12.714950,6.482137,5.401755
1005.636719,-1.083518,7.975528,6.989563,1.929312
1005.640625,10.026970,3.403686,-0.773019,3.037035
1005.644531,7.924169,9.324229,2.670448,15.598336
1005.648438,6.116529,6.426204,4.623357,-2.378037
1005.652344,3.967923,-3.092711,-8.213946,2.148849
1005.656250,-13.548407,-7.762524,-5.506290,-7.844320
1005.660156,0.539194,-4.374712,-7.187151,-0.530891
1005.664062,-6.330220,-12.639670,-8.503162,-1.566143
1005.667969,-10.555128,-6.525573,-13.677558,-5.430946
1005.671875,-7.088231,-9.960848,-10.399374,-15.984811
1005.675781,-7.840709,-11.017014,-19.473978,-7.410381
1005.679688,-10.171426,-8.699059,-9.544424,-5.586416
1005.683594,-10.291106,-17.673200,-5.957914,-8.288400
1005.687500,-6.533284,-4.691025,-12.258675,-4.554414
1005.691406,-6.403115,-9.222117,-10.752925,-8.318028
1005.695312,-3.730418,-6.334016,-11.051948,0.783064
1005.699219,-2.158292,7.292987,3.366854,-0.399256
1005.703125,-4.194526,4.499455,0.920599,-1.902788
1005.707031,3.183468,6.997133,7.577787,-3.184773
1005.710938,6.734332,2.837970,-1.376188,3.441715
1005.714844,6.717786,17.885756,3.582614,11.784201
1005.718750,3.831037,9.348695,1.558860,10.564840
1005.722656,9.536894,6.294858,9.475780,9.422631
1005.726562,4.981644,9.676578,15.296182,1.385865
1005.730469,10.053279,8.121508,10.919756,11.328840
1005.734375,5.064927,8.091225,2.787882,3.766499
1005.738281,-0.296915,1.177816,5.625549,-0.275478
1005.742188,6.472524,2.218475,5.982959,2.757173
1005.746094,9.083950,0.510239,2.411662,2.481029
1005.750000,4.018188,1.233204,0.924921,-2.249678
1005.753906,-3.922016,7.062335,1.807297,-2.433063
1005.757812,-7.311933,-10.392691,-4.231191,-0.644358
1005.761719,-11.851098,-7.701839,-8.457154,-10.631506
1005.765625,-6.849109,-14.308129,-11.189036,-10.739934
1005.769531,-4.085243,-12.007045,-13.254300,-9.120016
1005.773438,-9.639301,-7.567423,-5.862247,-12.829155
1005.777344,-9.418352,-7.373468,-10.005008,-13.723471
1005.781250,-10.915593,-10.665479,-9.212147,-8.619600
1005.785156,-7.033932,-12.559224,-13.319652,-13.406812
1005.789062,-6.779136,-7.763716,-4.818287,-9.161291
1005.792969,-2.029005,2.154525,-6.782582,-0.189834
1005.796875,2.589445,-1.046546,-3.632703,-8.022545
1005.800781,0.018227,-2.604273,1.939013,-3.325404
1005.804688,1.834232,0.076068,5.828167,6.045089
1005.808594,2.587673,8.488802,8.128751,6.226274
1005.812500,15.641932,6.824166,6.049512,12.695741
1005.816406,4.900446,12.555440,16.281819,6.559586
1005.820312,12.108795,11.377870,12.717831,13.468022
1005.824219,10.157067,11.338163,11.296664,9.400172
1005.828125,14.850143,10.584268,11.628154,2.725981
1005.832031,14.829304,10.873921,10.114073,4.343443
1005.835938,13.459438,0.233154,11.513105,5.845255
1005.839844,7.380040,3.734862,2.495585,0.559673
1005.843750,5.552302,-0.717372,6.853591,-2.852740
1005.847656,1.956956,-7.227572,-2.812633,1.685725
1005.851562,-0.212335,-8.003376,-2.220968,7.209582
1005.855469,-6.435698,-2.157861,-12.771192,-12.021969
1005.859375,-6.033027,-2.726049,2.533771,-5.382537
1005.863281,-2.958406,-4.544088,-11.513168,-9.522153
1005.867188,-7.576439,-6.949981,-4.447816,-10.681999
1005.871094,-11.556344,-6.218029,-16.093598,-12.352129
1005.875000,-7.107141,-11.647614,-16.764982,-8.594096
1005.878906,-1.373696,-15.725435,-10.403226,-13.027789
1005.882812,-2.296226,-2.396689,-7.494846,-8.984128
1005.886719,-6.565123,-10.375784,-4.038583,-3.614128
1005.890625,-3.099638,-2.954233,-9.250592,-1.061042
1005.894531,-6.888937,0.766013,-5.178344,-6.835404
1005.898438,4.383869,-4.075768,2.708462,-0.273423
1005.902344,2.220861,-3.674625,10.157874,-5.957026
1005.906250,0.477476,-4.796775,-1.867722,5.326881
1005.910156,10.012082,0.430622,4.079495,-0.221689
1005.914062,1.873160,10.817546,6.441502,7.428409
1005.917969,12.537142,11.444584,5.008499,13.464412
1005.921875,3.840242,9.482013,14.105742,16.688909
1005.925781,10.337607,8.529422,10.112350,9.712693
1005.929688,9.466844,8.463627,16.352831,11.951430
1005.933594,6.655628,1.999385,0.640078,7.319283
1005.937500,8.310268,10.865719,7.956565,2.017271
1005.941406,4.310115,5.125502,3.115752,6.218536
1005.945312,-0.645668,1.216488,3.691708,-2.485312
1005.949219,-4.568745,0.053046,7.817821,1.203137
1005.953125,0.991121,-6.228828,-2.083469,-4.579712
1005.957031,3.267854,-2.049237,-4.532017,1.824477
1005.960938,-9.114303,-5.017820,-5.852178,-7.031152
1005.964844,-3.957366,-11.023759,-1.260842,-3.140119
1005.968750,-10.129201,-13.674384,-5.027931,-0.903967
1005.972656,-6.145189,-11.408736,-9.300028,-8.116170
1005.976562,-8.856685,-14.972034,-10.329848,-10.483419
1005.980469,-10.160478,-11.375149,-7.538975,-3.328957
1005.984375,-9.606501,-5.895531,-9.512787,-6.848190
1005.988281,-5.511547,-1.191964,-13.649759,-9.701956
1005.992188,0.452396,-5.905615,-5.621897,-6.600678
1005.996094,-1.953720,-2.096993,-0.220210,-6.534849
1006.000000,2.657261,-3.427536,2.417648,-1.042809
1006.003906,2.757949,6.117836,-3.548369,3.221918
1006.007812,1.470127,-0.417438,4.860644,5.503140
1006.011719,2.966779,6.694897,12.165720,5.121722
1006.015625,1.171945,-0.652172,9.408393,9.345663
1006.019531,9.183197,10.959733,9.718656,6.551595
1006.023438,9.459113,12.898340,4.032272,14.398214
1006.027344,9.638554,5.403219,8.682889,6.291481
1006.031250,8.060866,12.339425,12.946051,5.535193
1006.035156,10.054353,7.120268,8.506370,5.675498
1006.039062,3.936897,5.703929,5.082679,3.899004
1006.042969,4.651036,-3.472556,-0.104808,6.739296
1006.046875,-0.603362,3.235979,2.038815,4.300321
1006.050781,0.440175,0.769811,1.547449,2.397511
1006.054688,-2.526771,5.651175,-3.157642,0.947258
1006.058594,-5.077432,-6.305462,-5.240654,-3.191623
1006.062500,-11.473841,-10.049815,-8.848896,-4.756337
1006.066406,-18.390740,-10.822723,-11.401735,-5.700350
1006.070312,-12.989332,-14.561062,-10.449882,-11.822439
1006.074219,-5.600916,-14.811438,-9.634943,-12.399030
1006.078125,-8.926017,-7.822259,-5.618785,0.227662
1006.082031,-6.710613,-22.328293,-6.220992,-13.421282
1006.085938,-11.689486,-6.400657,-9.907295,-4.389018
1006.089844,-0.623493,-10.243843,-3.120754,-13.249574
1006.093750,0.038972,-6.522498,4.861891,-1.410694
1006.097656,-0.144262,-3.838084,-1.141373,-1.341398
1006.101562,2.915237,-4.134732,5.426676,0.490966
1006.105469,5.482309,-1.061960,-1.469649,3.370526
1006.109375,6.923611,2.490014,6.526560,6.269534
1006.113281,9.129500,2.941563,9.047297,6.517353
1006.117188,14.772282,7.682833,8.399354,7.582739
1006.121094,6.605792,10.609084,9.680768,13.435921
1006.125000,7.107123,12.539127,11.095887,9.846143
1006.128906,0.000693,10.940661,15.016219,14.822650
1006.132812,10.311634,4.588811,8.890600,8.777364
1006.136719,9.562781,7.823211,3.764225,6.537477
1006.140625,9.440338,2.668224,2.628348,5.354630
1006.144531,4.439410,4.183462,-1.123242,-1.187228
1006.148438,1.917356,1.282089,-0.763890,-5.306892
1006.152344,-5.361896,1.417573,-3.924848,-5.512421
1006.156250,-9.641006,-4.358488,-1.211218,3.755566
1006.160156,-4.839105,-3.289977,-7.432120,-8.339655
1006.164062,-15.345655,-4.998156,-9.855542,-5.263856
1006.167969,-5.797396,-12.895913,-6.372380,-9.237392
1006.171875,-9.371695,-16.536539,-12.197148,-0.491900
1006.175781,-9.087374,-9.225280,-14.202720,-6.777168
1006.179688,-8.700577,-11.030920,-14.689902,-3.986458
1006.183594,-12.132670,-3.868869,-17.473695,0.542563
1006.187500,-4.451410,-4.589558,-10.285554,-11.508042
1006.191406,-4.061550,-3.225531,-7.591523,-2.680877
1006.195312,-9.014470,-3.603819,-3.478927,-1.184806
1006.199219,-2.446565,-5.219496,2.828101,-1.231841
1006.203125,8.123247,-0.539567,-0.488007,1.026839
1006.207031,6.748256,1.917408,-1.266283,-3.543217
1006.210938,8.610006,3.716856,8.815285,6.765375
1006.214844,10.067142,6.198864,7.112154,7.789512
1006.218750,10.707133,10.927779,10.004667,12.006864
1006.222656,6.383419,-2.020512,10.792913,7.912241
1006.226562,13.071778,15.552681,9.116325,12.715975
1006.230469,10.192433,8.521376,5.313334,12.633076
1006.234375,8.994548,17.405464,4.103268,5.290542
1006.238281,5.917119,6.878114,9.265530,7.119106
1006.242188,7.500930,9.983830,2.701863,7.858201
1006.246094,-1.996296,6.510776,3.658929,3.416132
1006.250000,9.120547,-5.494677,17.297603,-4.986890
1006.253906,-4.422026,-8.116714,-5.379633,-9.824035
1006.257812,-8.774597,-12.200829,-4.889827,-4.306883
1006.261719,-5.492081,-6.296886,-4.467578,-11.422827
1006.265625,-5.145362,-4.431342,-7.329214,-9.261194
1006.269531,-8.525771,-4.469388,-12.283144,-12.963863
1006.273438,-16.339856,-12.854878,-13.175869,-14.343331
1006.277344,-14.334053,-7.715199,-13.902094,-13.716797
1006.281250,-0.765038,-8.758151,-7.693908,-13.031575
1006.285156,-3.500378,-8.165727,-12.091440,-6.864532
1006.289062,-6.653369,-9.952872,-6.446324,-14.282500
1006.292969,-7.667435,-12.137160,-1.937318,-7.987052
1006.296875,-8.058592,-8.234228,-1.048471,-4.399586
1006.300781,1.148553,1.479019,2.368401,0.186549
1006.304688,-2.366695,2.243849,-1.930074,4.877794
1006.308594,3.365681,8.291865,9.879991,11.039432
1006.312500,8.489690,14.756886,-1.130599,-1.326806
1006.316406,11.025421,13.154720,9.931789,11.898164
1006.320312,7.770093,13.869409,10.199254,7.462137
1006.324219,8.125240,1.109459,13.498158,12.400130
1006.328125,4.825743,7.654752,10.778861,3.851228
1006.332031,7.487892,8.987261,7.766036,9.508692
1006.335938,6.722376,10.016832,4.216200,6.926323
1006.339844,8.891183,6.454629,6.815602,10.965263
1006.343750,-1.783917,-0.139076,0.374511,4.938762
1006.347656,-3.486046,5.446347,5.205926,2.024976
1006.351562,-4.934167,-3.309967,-6.765958,-1.754302
1006.355469,-4.821805,-7.217917,-6.892296,-6.637046
1006.359375,-1.505782,-10.403222,-1.118577,-3.461847
1006.363281,-5.392963,-6.908298,-8.922734,-2.616709
1006.367188,-15.110616,-15.170386,-8.471684,-7.898053
1006.371094,-6.755568,-4.041181,-8.997012,-13.319736
1006.375000,-20.922374,-13.770331,-14.161404,-14.979985
1006.378906,-4.613747,-15.960136,-5.681303,-10.835093
1006.382812,-15.464898,-8.004859,-1.447349,-12.669691
1006.386719,-6.204585,-3.029794,-7.638883,-9.980989
1006.390625,-0.303484,-0.451421,-4.083344,-5.929139
1006.394531,-4.213763,-1.736637,0.718339,-4.619826
1006.398438,-2.784458,-6.441687,-1.118063,-3.219526
1006.402344,7.089049,6.733244,4.293638,-0.790274
1006.406250,3.403295,-0.143437,5.049627,-1.988554
1006.410156,10.049605,1.957252,11.272361,5.015367
1006.414062,5.873600,15.221954,7.131230,9.258206
1006.417969,10.788347,5.758410,16.182465,9.158234
1006.421875,-0.275360,10.574924,12.416416,4.824759
1006.425781,5.404232,15.169873,8.643201,13.678758
1006.429688,13.799714,9.078814,18.243509,3.494263
1006.433594,12.897167,14.999972,6.447909,6.032025
1006.437500,3.236113,0.935879,4.523120,13.820058
1006.441406,-1.564013,3.557548,-0.587095,6.221434
1006.445312,10.264942,6.256096,4.436021,-2.965327
1006.449219,2.125949,-0.981413,2.508586,-3.747765
1006.453125,-9.797171,3.464727,-6.386992,-7.292986
1006.457031,-11.854460,-1.334327,-6.100429,-6.184105
1006.460938,-6.756808,-8.857638,-12.040389,-7.519575
1006.464844,-9.482826,-13.587407,-8.725695,-8.684206
1006.468750,-11.857970,-1.373739,-6.005543,-9.693399
1006.472656,-10.790513,-13.028017,-16.975720,-4.283554
1006.476562,-16.140263,-7.563122,-14.007147,-10.346976
1006.480469,-9.455109,-7.013050,-19.023904,-6.745988
1006.484375,-13.413469,-7.844120,-13.458245,-10.978669
1006.488281,-13.139401,-3.720186,-6.510137,-7.546212
1006.492188,-9.209002,-3.733056,-1.823938,-2.262834
1006.496094,-6.013672,6.263710,-2.119306,-4.177646
1006.500000,-0.146142,-1.211473,-1.049164,4.356194
1006.503906,0.544282,-2.566755,5.083082,-1.894526
1006.507812,2.100181,1.471105,1.982540,6.478404
1006.511719,8.617043,5.171513,6.663904,-1.001430
1006.515625,13.778042,11.546429,5.747105,3.013720
1006.519531,14.496280,0.933292,9.972819,13.140467
1006.523438,8.127210,2.337018,12.154665,10.714844
1006.527344,5.608341,11.941557,7.443265,3.387163
1006.531250,7.767587,6.165235,8.245490,4.126946
1006.535156,8.874734,7.110397,2.896445,9.947702
1006.539062,7.845248,5.636333,8.012441,3.394676
1006.542969,5.793466,5.866593,-0.298006,9.211342
1006.546875,2.164551,0.018175,-0.212961,2.358230
1006.550781,-2.342773,3.167137,-0.814575,-5.312923
1006.554688,-6.695502,-3.383008,-1.879011,-16.176802
1006.558594,-1.135481,-4.158259,-8.382448,-2.847999
1006.562500,-9.312753,-7.960314,-13.242191,-10.445911
1006.566406,-9.743580,-13.269036,-8.587816,-1.871942
1006.570312,-2.368606,-3.455013,-11.376062,-7.339409
1006.574219,-10.037763,-13.751886,-12.969555,-7.171916
1006.578125,-12.975017,-8.827916,-15.132160,-7.599580
1006.582031,-10.813380,-3.215358,-7.070856,-14.970905
1006.585938,-5.533900,-4.491491,-2.269938,-10.877413
1006.589844,-5.229311,-8.825200,-9.832778,-10.798781
1006.593750,-5.136695,1.681086,-2.119681,-12.954766
1006.597656,-4.219420,1.100989,-5.942188,1.633471
1006.601562,6.081102,-1.227426,-1.561547,3.444443
1006.605469,5.556840,4.720968,5.033852,-1.090702
1006.609375,7.018731,2.918889,4.103548,-1.708920
1006.613281,10.669818,6.249940,13.496467,12.388848
1006.617188,11.606159,7.146593,11.950859,6.992309
1006.621094,8.110711,16.872212,12.911478,8.922911
1006.625000,10.456440,11.076349,12.320602,3.693300
1006.628906,13.257057,11.758136,4.777563,12.386548
1006.632812,7.522007,4.628767,15.294049,12.355441
1006.636719,14.592746,2.075499,8.723901,6.051149
1006.640625,3.742458,5.461491,11.098560,3.771648
1006.644531,4.197052,4.606272,5.093532,-9.592897
1006.648438,-1.163487,-4.025249,-0.006877,10.614100
1006.652344,3.481682,-4.864472,8.248735,2.283302
1006.656250,-3.284261,-4.757008,-2.475221,-6.225020
1006.660156,-3.095251,-6.956135,-4.739442,-7.021138
1006.664062,-4.240990,-0.994003,-14.203354,-10.372648
1006.667969,-8.833552,-9.224784,-11.909263,-14.662395
1006.671875,-7.459319,-8.420552,-12.230834,-4.012234
1006.675781,-14.662250,-11.473507,-7.560114,-6.350012
1006.679688,-5.547246,-6.650854,-7.741366,-1.752594
1006.683594,-9.689962,-12.411851,-0.403218,-4.147752
1006.687500,-8.286598,-6.336687,-6.301145,-4.881609
1006.691406,-3.501332,-0.108612,-0.701363,-1.889833
1006.695312,6.247757,-6.623230,-1.082804,0.446836
1006.699219,3.498517,-0.867084,1.640412,-0.752927
1006.703125,4.220270,5.231986,-1.754626,-1.893290
1006.707031,3.233842,3.018492,4.711907,9.123519
1006.710938,0.907932,10.235834,7.071377,3.655370
1006.714844,6.755981,9.566699,13.422523,12.917333
1006.718750,10.269742,8.627440,13.230510,6.136392
1006.722656,10.715698,3.130622,13.368766,8.842470
1006.726562,4.300392,15.907412,13.285933,6.010664
1006.730469,9.899652,12.685378,7.799485,6.963559
1006.734375,4.489662,6.086355,10.248794,10.132325
1006.738281,6.513751,2.390485,-0.663428,8.152711
1006.742188,0.423937,-1.770105,1.857984,8.664260
1006.746094,10.942919,0.123079,2.283037,-1.034715
1006.750000,2.794137,-2.538577,-0.900513,-2.832460
1006.753906,-6.776017,-0.039312,-6.791391,-6.125815
1006.757812,-7.235100,-5.163486,0.218747,-8.021332
1006.761719,-9.643770,-12.912411,-8.708348,-10.424856
1006.765625,-10.689839,-13.381803,-12.083107,-12.915039
1006.769531,-13.171570,-7.857837,-11.935600,-8.497440
1006.773438,-11.472781,-4.007221,-10.061135,-14.917995
1006.777344,-17.226492,-14.976188,-12.566959,-7.968293
1006.781250,-14.435517,-10.506784,-10.224315,-11.613204
1006.785156,-5.333041,-14.341947,-16.723485,-5.608336
1006.789062,-1.952324,-8.142007,-6.518771,-8.192220
1006.792969,-1.115683,-5.889793,-2.606843,-5.232195
1006.796875,2.965154,-1.449971,-4.670031,-0.767992
1006.800781,-2.333366,-6.842096,10.954399,5.590050
1006.804688,0.322022,-5.043448,4.704455,5.330785
1006.808594,4.386592,8.946860,6.182410,7.387325
1006.812500,2.886704,7.811905,0.403586,12.553080
1006.816406,9.458878,7.353121,9.931106,9.237634
1006.820312,8.466081,8.527852,6.148938,6.594596
1006.824219,3.510320,14.450239,10.888556,8.504425
1006.828125,5.215737,4.268731,9.158288,1.873015
1006.832031,9.420542,4.746454,20.110208,4.024085
1006.835938,3.617430,5.192166,9.359671,12.638594
1006.839844,9.889939,7.177718,8.121817,-0.875555
1006.843750,0.183218,4.628048,7.193501,-3.436204
1006.847656,7.101977,6.230065,9.042668,-3.267168
1006.851562,0.663468,0.501445,0.994423,-6.234530
1006.855469,-0.195996,-1.003649,-9.860120,-6.344054
1006.859375,-9.620264,-4.282124,-10.877116,-8.974572
1006.863281,-7.927393,-8.966651,-5.855027,-4.548484
1006.867188,-10.780070,-16.141935,-8.201618,-7.822916
1006.871094,-14.427205,-9.311424,-6.433211,-12.538657
1006.875000,-8.183234,-8.275557,-9.597098,-4.173228
1006.878906,-13.995336,-10.579846,-8.386471,-16.375576
1006.882812,-7.224891,-10.328615,-5.330509,-5.706603
1006.886719,-10.236607,-12.305859,-11.961621,-3.027526
1006.890625,-5.167666,-12.972185,-7.319742,-8.658104
1006.894531,-5.565444,0.451314,-14.375152,0.608363
1006.898438,-0.012642,-4.455561,-5.293298,-4.734963
1006.902344,-2.799589,-1.114466,3.062239,3.151916
1006.906250,4.313162,3.919111,2.379283,1.193668
1006.910156,2.745295,1.921745,1.921553,9.346108
1006.914062,3.826176,13.022476,11.938836,5.142383
1006.917969,11.572683,9.870624,11.551790,5.416093
1006.921875,16.187156,5.312591,13.962874,16.920680
1006.925781,7.924071,5.997300,11.800787,7.956696
1006.929688,0.258320,14.746574,5.220980,7.164733
1006.933594,3.063743,12.272194,5.191019,10.523276
1006.937500,6.642987,8.181253,7.470235,6.483487
1006.941406,6.929854,4.598618,5.935923,20.083351
1006.945312,2.866742,2.385560,-0.431804,1.377590
1006.949219,-2.438974,4.299365,1.946672,-6.109003
1006.953125,-1.222095,-8.385530,1.878943,-3.006402
1006.957031,-7.717868,-2.592282,2.466887,-9.184336
1006.960938,-4.555501,-12.292090,-0.292986,-1.266855
1006.964844,-8.021581,-16.071176,-10.377754,-6.144080
1006.968750,-10.589768,-3.052806,-12.578932,-13.110502
1006.972656,-5.988053,-11.190280,-15.159677,-7.366020
1006.976562,-5.885955,-10.096859,-13.748002,-7.756860
1006.980469,-8.570202,-9.753762,-8.548051,-14.887479
1006.984375,-11.155663,-6.019739,-11.633139,-1.740829
1006.988281,-7.031948,-5.347667,-8.607688,-5.042209
1006.992188,-7.759405,-6.995380,-9.412728,-8.958415
1006.996094,-9.184665,2.936423,1.991574,0.671454
1007.000000,-0.899090,5.296428,-2.118883,1.658064
1007.003906,2.152113,-0.452248,8.349603,7.850432
1007.007812,2.375431,12.883911,4.608842,6.481769
1007.011719,7.953265,1.523303,6.030954,1.844798
1007.015625,5.174429,8.218346,11.949377,6.093600
1007.019531,10.169758,0.808932,8.236408,14.057853
1007.023438,9.624391,8.636638,9.014353,10.098556
1007.027344,10.786563,13.327213,7.270980,7.101039
1007.031250,18.577374,11.479096,3.791995,8.934362
1007.035156,6.380214,-0.426843,5.239210,5.285277
1007.039062,3.033237,8.330050,14.819633,2.473512
1007.042969,11.546220,3.460986,3.879327,-0.210826
1007.046875,-4.157310,6.156117,-5.684345,0.771513
1007.050781,-4.958051,4.733701,-9.572385,-2.587924
1007.054688,-4.439516,4.030448,-9.570688,-0.297224
1007.058594,-8.650552,-2.114453,-5.315166,-2.259140
1007.062500,-0.625170,-5.296448,-10.390564,-4.139191
1007.066406,-4.145347,0.232132,-6.533077,-7.311953
1007.070312,-7.403962,-13.695452,-10.753469,-8.065476
1007.074219,-11.731808,-10.187934,-11.909890,-5.422022
1007.078125,-11.569093,-5.477465,-12.955923,-8.208626
1007.082031,-12.145540,-8.167257,-8.809952,-4.824865
1007.085938,-2.863194,-8.054451,-15.342233,-6.702851
1007.089844,-7.321940,-4.567974,-2.494575,-4.538640
1007.093750,-5.525575,0.282297,-15.601751,0.763020
1007.097656,-2.485546,-13.160689,-6.520120,-3.669192
1007.101562,-0.945604,-1.094881,0.208609,-3.959686
1007.105469,3.464229,1.801969,-3.765399,5.028881
1007.109375,4.372948,8.512232,7.567538,9.428435
1007.113281,-2.599899,8.516866,4.586493,7.267630
1007.117188,17.246229,18.420422,10.861881,7.437557
1007.121094,8.785543,8.114056,7.785031,5.768999
1007.125000,9.641248,3.412019,7.555132,8.721986
1007.128906,9.636542,6.924639,8.223026,6.761367
1007.132812,17.226158,13.699017,11.200261,5.024948
1007.136719,7.081583,9.104009,2.893494,4.698596
1007.140625,8.999509,1.343145,6.310630,4.148049
1007.144531,-1.653058,7.237439,5.768153,0.510075
1007.148438,-9.375798,4.007335,4.530202,3.457515
1007.152344,0.354155,-4.114550,-1.863709,3.345012
1007.156250,-8.278070,-0.388656,-2.297197,-6.978323
1007.160156,-10.927005,-2.215035,-7.167254,-4.324461
1007.164062,-10.925648,-2.143834,1.878272,-9.437625
1007.167969,-10.327436,-9.274591,-12.775323,-6.554355
1007.171875,-9.780475,-12.600996,-8.922209,-14.274955
1007.175781,-11.342158,-9.252396,-7.143421,-10.068449
1007.179688,-5.812470,-3.904745,-13.146735,-10.341092
1007.183594,-10.995911,2.024360,-6.086849,-12.513259
1007.187500,-2.160864,-5.154170,-6.840191,-2.409628
1007.191406,-2.644973,-3.996659,-1.958021,0.673583
1007.195312,-0.958975,-5.365855,-3.980479,0.285409
1007.199219,6.999011,-1.111828,1.642019,-6.689220
1007.203125,3.721091,-0.150643,3.349503,-3.369523
1007.207031,-0.864394,2.793096,5.249757,2.893125
1007.210938,3.836708,9.766078,7.590930,7.999771
1007.214844,11.602972,13.287132,13.943903,7.252716
1007.218750,5.676406,6.281071,7.856130,9.579197
1007.222656,5.107436,3.347986,11.556935,6.646598
1007.226562,8.735672,11.016455,8.073609,2.718401
1007.230469,10.033915,9.345456,12.362455,8.837736
1007.234375,16.730707,9.893049,3.423108,3.110611
1007.238281,4.048464,5.933782,9.633877,6.817424
1007.242188,-3.651220,6.815524,-0.825433,0.838902
1007.246094,-4.062787,13.934841,8.094504,4.152075
1007.250000,-4.741912,-1.026460,-4.515232,8.537576
1007.253906,-5.606954,2.344757,-8.729701,-4.585613
1007.257812,-0.650605,-4.419322,3.801365,0.452329
1007.261719,-7.153699,-5.875480,-7.661129,-6.733808
1007.265625,-9.676842,1.638884,-13.670263,-5.335331
1007.269531,-13.129022,-14.239181,-7.657107,-14.114330
1007.273438,-10.118373,-4.709426,-9.581539,-6.060667
1007.277344,-8.128201,-10.684187,-7.243445,-13.205902
1007.281250,-7.820980,-10.280323,-17.564142,-11.997594
1007.285156,-16.097983,-5.292596,-11.525575,-8.925421
1007.289062,-7.606783,-5.197076,-4.311355,-2.174041
1007.292969,-9.667772,-2.835742,-2.480297,2.961825
1007.296875,-4.318724,-3.802240,-3.890102,-6.739696
1007.300781,5.968073,2.605792,1.784126,2.125909
1007.304688,-1.205421,-3.573978,3.446301,0.987089
1007.308594,2.107886,7.764699,3.497253,4.423515
1007.312500,10.545982,6.528307,2.849919,8.854697
1007.316406,13.465685,13.261281,10.191489,5.784359
1007.320312,12.781558,9.125503,2.339745,18.055815
1007.324219,12.880724,8.987617,14.047954,12.708090
1007.328125,13.906457,8.505710,8.451465,5.559924
1007.332031,8.070418,8.100858,6.328139,11.739893
1007.335938,5.947112,9.058210,11.368492,8.106255
1007.339844,3.686107,4.514914,10.021864,9.001909
1007.343750,6.527926,3.404087,1.262806,0.838480
1007.347656,5.298716,3.941326,4.205675,-1.522087
1007.351562,-0.203863,4.704439,-4.120638,-11.137943
1007.355469,-6.404517,-3.137275,-13.295065,-1.698429
1007.359375,0.073226,-10.439801,-1.678524,-6.544297
1007.363281,-7.781197,-12.138813,0.318346,-3.711797
1007.367188,-7.412532,-13.790996,-9.747848,-9.762678
1007.371094,-10.829181,-11.126940,-11.438845,-13.017551
1007.375000,-13.666525,-13.652265,-5.090661,-4.673442
1007.378906,-6.830023,-0.604235,-12.029990,-6.203894
1007.382812,-2.671444,-10.970532,-4.656048,-4.596114
1007.386719,2.002979,-4.266659,-6.906984,-4.743252
1007.390625,-8.597945,-1.224741,-11.609899,-5.679928
1007.394531,-4.657581,3.204311,-2.048070,-4.975276
1007.398438,3.866272,-9.045986,-0.311044,0.724235
1007.402344,2.470877,1.038693,-4.039302,0.562566
1007.406250,3.195998,5.924961,3.307426,3.852712
1007.410156,10.464889,7.402427,0.900404,7.302846
1007.414062,7.993305,2.152157,16.846245,7.474879
1007.417969,5.043762,1.603620,4.516940,16.830380
1007.421875,12.077274,19.180718,15.635729,15.086007
1007.425781,16.807732,9.455188,9.777203,9.525386
1007.429688,8.385164,10.120322,1.894081,9.244765
1007.433594,11.726226,9.402532,6.791072,11.436452
1007.437500,9.922866,10.784153,7.122585,8.747785
1007.441406,9.391755,11.080100,0.705795,11.273964
1007.445312,-1.250763,-0.665432,4.720091,-0.291308
1007.449219,-3.278535,-2.657707,4.335624,5.275635
1007.453125,-1.141659,0.590839,-4.861106,0.600816
1007.457031,-3.917007,-2.688229,-8.789730,-10.451961
1007.460938,-4.267802,-6.501539,-12.412148,-4.405025
1007.464844,-7.823383,-10.708681,-11.518782,-9.906514
1007.468750,-10.530995,-11.990062,-6.479099,-8.915511
1007.472656,-11.498189,-5.500019,-7.385573,-8.088680
1007.476562,-3.282956,-10.635606,-13.342400,-9.213627
1007.480469,-11.407774,-6.569500,-9.746672,-5.122546
1007.484375,-8.724602,-3.466661,-2.535364,-5.065454
1007.488281,-7.470327,-4.912362,-10.592396,-5.830174
1007.492188,-9.722610,-1.722172,-2.202404,-11.943404
1007.496094,0.298624,-2.424483,-5.675950,2.502223
1007.500000,-5.383764,-4.637262,7.023599,-2.725542
1007.503906,2.964651,7.085356,6.823761,9.114136
1007.507812,0.199007,5.672949,0.660127,5.779113
1007.511719,-2.624831,1.757590,5.679404,14.955740
1007.515625,0.758141,14.029950,4.253865,11.580012
1007.519531,13.667248,10.301502,9.777226,3.406667
1007.523438,16.257042,8.472885,17.929768,5.578429
1007.527344,10.561292,5.028628,9.811113,8.236592
1007.531250,8.066160,13.396550,10.381206,11.213772
1007.535156,11.222006,-0.264965,7.114533,17.857734
1007.539062,8.780767,6.029974,-1.024530,7.543277
1007.542969,7.664845,2.980387,1.969672,8.029549
1007.546875,4.826658,0.579991,0.270927,-4.229137
1007.550781,-1.534704,-6.323301,-1.417932,2.602947
1007.554688,-7.805787,-4.131438,-3.997968,-2.999732
1007.558594,-4.017301,-5.269315,-6.027903,-3.465071
1007.562500,-4.016077,-10.241937,-12.918632,-11.074276
1007.566406,-4.365494,-9.342892,-8.768284,-9.705913
1007.570312,-17.097553,-11.241790,-7.789828,-1.420743
1007.574219,-14.127194,-16.133136,-8.096849,-6.630271
1007.578125,-4.601012,-5.612811,-14.438012,-8.570270
1007.582031,-6.528720,-6.432646,-4.904563,-5.220631
1007.585938,-3.142330,-3.882397,-9.094072,-10.058478
1007.589844,-3.416610,-14.047644,1.539586,-8.339315
1007.593750,-0.838328,-4.433234,-3.228838,0.675626
1007.597656,-1.575844,-3.213613,-1.775125,6.278708
1007.601562,4.388109,2.097412,-2.671421,1.523293
1007.605469,2.376459,2.748135,8.382571,6.210464
1007.609375,3.896985,3.039919,8.215609,7.487973
1007.613281,10.602790,3.175489,7.628900,2.781902
1007.617188,11.009553,5.693259,4.850951,10.038308
1007.621094,7.809569,3.479438,7.572871,5.780834
1007.625000,10.743197,6.991460,9.318063,10.066080
1007.628906,11.253693,4.164214,17.082443,14.008981
1007.632812,12.910806,4.122837,8.800834,20.409505
1007.636719,9.000031,6.617142,6.679240,14.355569
1007.640625,14.272506,-2.315620,5.753318,0.311066
1007.644531,-0.544769,1.652290,10.816901,5.820027
1007.648438,-6.378335,1.754450,0.634848,-1.099054
1007.652344,-2.860396,-8.755024,-1.882508,-3.209619
1007.656250,5.540646,-1.901835,-1.173190,3.366466
1007.660156,-8.003028,-1.145149,-0.875218,-11.664235
1007.664062,-9.553846,-6.320658,-9.994434,-18.645195
1007.667969,-7.654450,-13.538526,-19.393758,-1.521833
1007.671875,-13.888715,-13.094110,-13.500601,-8.048096
1007.675781,-8.840299,-13.459691,-10.252465,-9.449973
1007.679688,-18.423287,-0.839275,-4.974290,-8.422133
1007.683594,-9.510909,-9.536610,-16.746430,-10.872838
1007.687500,-5.914737,-5.872720,-11.120102,-8.876203
1007.691406,-7.140011,-5.957939,1.556268,-4.834249
1007.695312,-1.958366,-0.938818,4.885284,-0.396833
1007.699219,3.575381,1.391140,-0.753327,2.866967
1007.703125,-0.518102,-4.542314,-1.596075,5.570011
1007.707031,1.242194,5.957698,-0.321097,4.757687
1007.710938,-0.655655,-1.547925,1.629234,7.652927
1007.714844,2.967255,8.065566,5.825542,3.830731
1007.718750,12.783064,7.997594,14.964559,8.778215
1007.722656,11.297060,13.280758,13.355204,13.432200
1007.726562,6.408616,13.368455,7.424969,8.396346
1007.730469,8.803124,6.040305,12.255071,7.849317
1007.734375,7.320626,7.113058,4.924369,4.610777
1007.738281,7.697854,7.933278,6.768116,-0.462132
1007.742188,8.007841,3.952518,4.653333,2.559257
1007.746094,-0.145906,9.061358,1.273714,5.216706
1007.750000,-2.132200,-4.340420,1.735669,6.842678
1007.753906,-0.556116,0.308267,-2.451874,-0.374058
1007.757812,-6.757410,-8.224323,-6.882539,-4.053940
1007.761719,-6.099058,-1.258329,-12.660972,-10.208560
1007.765625,-6.687158,-5.012301,-8.356172,-12.733264
1007.769531,-9.883963,-10.609158,-11.506268,-8.549204
1007.773438,-9.616991,-12.359466,-12.240162,-13.335086
1007.777344,-4.953617,-10.111649,-10.115476,-10.293421
1007.781250,-17.113537,-12.126550,-0.326881,-10.520121
1007.785156,-8.183243,-6.308355,-13.539874,-3.614687
1007.789062,-5.514493,-4.793615,-9.409757,-2.815038
1007.792969,-3.967330,-3.775144,0.931456,0.747624
1007.796875,-0.466937,-2.333835,-1.747179,-5.772486
1007.800781,-3.472094,2.147066,-10.622439,1.391199
1007.804688,4.480164,-2.087161,2.511849,2.739252
1007.808594,9.315598,12.860640,7.556307,9.795322
1007.812500,7.779736,5.375708,2.038398,0.810349
1007.816406,1.455438,16.453220,10.910580,7.826827
1007.820312,5.302430,1.781653,11.900839,3.434968
1007.824219,9.637304,14.900810,18.137215,11.655475
1007.828125,9.832246,11.827443,10.426218,16.385904
1007.832031,8.069908,9.260453,7.034601,19.507624
1007.835938,15.269287,1.531498,9.875824,3.532961
1007.839844,3.084525,0.848291,3.349861,3.105737
1007.843750,7.685058,9.706918,-0.987257,7.174659
1007.847656,-0.255599,6.243647,2.637320,-3.464992
1007.851562,-1.114411,-4.428983,6.915286,-2.433932
1007.855469,-2.336381,6.351667,-8.007479,-0.026498
1007.859375,-5.076281,-2.623781,-4.075946,-4.661930
1007.863281,-5.986265,-7.547591,-6.411235,-6.170099
1007.867188,-13.279320,-9.533688,-10.275561,-9.864814
1007.871094,-10.442180,-6.741408,-7.368249,-10.630544
1007.875000,-10.678034,-7.592786,-0.500640,-8.590272
1007.878906,-5.133554,-13.768582,-10.112087,-13.149298
1007.882812,-9.902198,-7.821328,-7.823182,-4.941187
1007.886719,-10.392756,-6.426735,-2.301240,-11.323242
1007.890625,-5.071183,-10.236856,-5.561171,-2.171756
1007.894531,-12.576429,-4.081491,-4.101827,5.735351
1007.898438,-11.889103,-1.964205,-3.923239,-2.723498
1007.902344,-2.999708,-1.740123,7.591371,6.831855
1007.906250,6.507603,8.211757,0.171093,6.534023
1007.910156,5.646634,8.700925,3.534420,4.764899
1007.914062,-1.534715,11.758226,7.091042,9.822754
1007.917969,7.299697,8.132336,15.396444,11.131658
1007.921875,10.369598,6.058126,13.434165,2.405716
1007.925781,4.041575,8.511859,10.234751,9.176307
1007.929688,14.299035,15.735987,16.322810,9.797733
1007.933594,9.555669,17.570073,7.648259,10.281412
1007.937500,7.092015,2.032833,7.101798,7.032081
1007.941406,8.151855,3.204366,2.179200,-3.985375
1007.945312,14.723716,0.512239,4.306573,-3.156786
1007.949219,8.053515,1.206477,0.369041,0.039708
1007.953125,-0.756967,-0.083309,-9.117142,-5.990920
1007.957031,-1.789946,-8.200560,1.086347,2.589875
1007.960938,-11.094628,-8.224486,0.625109,-10.123113
1007.964844,-9.298538,-1.683100,-11.126291,-6.251060
1007.968750,-8.371756,-16.390755,-11.151650,-12.379585
1007.972656,-5.797192,-6.080147,-9.685570,-11.360918
1007.976562,-18.057653,-8.606028,-11.812602,-10.069330
1007.980469,-12.789701,-6.559230,-7.964382,-8.309041
1007.984375,-6.003036,-7.025494,-3.825335,-15.018243
1007.988281,-15.392807,-8.458062,-8.551447,-8.677287
1007.992188,-5.872894,-7.798557,-3.656152,-8.890693
1007.996094,1.734865,-4.723823,-4.728865,-0.389253
1008.000000,-3.721561,1.355787,7.964619,-0.428299
1008.003906,1.061002,3.855517,-2.014916,-0.501643
1008.007812,3.054590,4.503872,4.054202,2.601862
1008.011719,8.892430,5.502868,4.671138,8.146257
1008.015625,7.984275,10.850995,10.155593,5.988191
1008.019531,10.059929,8.664887,11.663807,11.170914
1008.023438,3.472408,4.843769,10.601478,5.547442
1008.027344,17.127640,9.708529,1.919914,14.589552
1008.031250,5.032726,11.461843,9.123120,9.841952
1008.035156,6.358675,13.245495,3.417407,14.201360
1008.039062,1.398230,5.931311,9.408786,5.761864
1008.042969,9.975961,7.987333,6.811223,3.064698
1008.046875,2.512757,-2.462131,7.945465,-1.926304
1008.050781,6.680499,-1.845117,1.447319,-1.367367
1008.054688,-3.943413,-2.374643,-2.471321,-9.321217
1008.058594,-12.826296,-2.538585,-3.800485,-2.132415
1008.062500,-7.227362,-7.180450,-1.572706,-4.179021
1008.066406,-17.652781,-7.966719,-8.897214,-7.376439
1008.070312,-9.417830,-2.040629,-8.664229,-13.478500
1008.074219,-8.286590,-18.485819,-16.115690,-12.188436
1008.078125,-9.099606,-10.737735,-6.693194,-6.974396
1008.082031,-7.913349,-15.700972,-8.788066,-9.454560
1008.085938,-13.042710,-6.573464,-11.371523,-9.548379
1008.089844,-9.587855,-4.633294,-8.982153,3.073173
1008.093750,6.530825,-7.090616,-3.308231,-6.217601
1008.097656,-3.587501,-2.417172,3.346142,-2.442073
1008.101562,-4.243475,5.201333,-1.351310,0.148234
1008.105469,6.318709,0.036847,1.432390,3.209088
1008.109375,1.969467,10.159202,16.218042,3.969767
1008.113281,13.305722,10.301603,4.077958,10.467041
1008.117188,7.815464,4.464291,9.258071,12.515396
1008.121094,9.109610,7.412041,9.247502,6.463315
1008.125000,4.529734,8.566755,7.410330,11.503184
1008.128906,6.110572,14.405433,7.622690,13.156908
1008.132812,8.691777,16.127982,6.267418,11.301503
1008.136719,7.220659,5.469628,3.359292,5.266568
1008.140625,4.157874,2.121106,2.782374,1.190174
1008.144531,6.842453,2.728403,5.539684,-0.866983
1008.148438,-8.691060,3.409007,-0.066229,-1.136979
1008.152344,-8.365615,2.199821,-4.963704,1.550331
1008.156250,-6.574807,-5.349057,-6.618238,-7.030797
1008.160156,-1.676576,-11.067387,-2.966726,-0.529831
1008.164062,0.534337,-21.159799,-7.388637,-7.264847
1008.167969,-10.490076,-2.099543,-6.041861,-0.773262
1008.171875,-4.909324,-5.057609,-15.550464,-6.703734
1008.175781,-14.604002,-15.090673,-5.028537,-8.495612
1008.179688,-9.955242,-7.943866,-15.601572,-17.679794
1008.183594,-13.637626,-5.421962,-8.491553,-3.182882
1008.187500,-5.404268,-2.195627,-0.785731,-8.935938
1008.191406,-15.797595,-10.459218,-11.816910,-1.477345
1008.195312,-1.673461,2.491842,-8.260072,-6.806774
1008.199219,0.614212,-2.878669,-1.926133,-5.644768
1008.203125,-3.221060,2.638810,-0.258585,6.548621
1008.207031,8.268393,5.225376,-0.191968,-1.982482
1008.210938,2.488419,8.017535,2.699506,4.963004
1008.214844,4.170904,13.653802,7.203403,10.461579
1008.218750,5.555528,2.569011,10.523298,11.272197
1008.222656,7.922436,11.971382,5.849178,14.873872
1008.226562,4.748339,12.218691,13.698045,4.832091
1008.230469,15.156863,8.409008,13.021666,9.552462
1008.234375,8.444426,11.864029,7.417153,14.536511
1008.238281,5.106148,8.150454,9.770693,6.583207
1008.242188,5.560213,-5.834375,8.787015,11.249303
1008.246094,6.798520,3.076032,5.812694,5.499805
1008.250000,-8.888473,2.500743,1.854122,2.945100
1008.253906,-1.612097,-6.569899,-2.104478,-7.792016
1008.257812,-5.436380,-3.946131,-6.733218,-9.377049
1008.261719,-8.357247,-9.856507,-7.517789,-3.182601
1008.265625,-13.010838,-8.710727,-9.044802,-9.322577
1008.269531,-8.593940,-12.332292,-8.005563,-9.270450
1008.273438,-0.466170,-8.322308,-11.118125,-4.776896
1008.277344,-8.719454,-10.442733,-10.632223,-2.676088
1008.281250,-7.316815,-9.315089,-9.218518,-10.897646
1008.285156,-14.017821,-8.926232,-3.180147,-9.504612
1008.289062,-5.404847,-7.955384,-5.921745,-3.487030
1008.292969,-9.568561,-5.672445,2.276087,-4.341046
1008.296875,-5.894004,2.690391,-4.526773,-3.848872
1008.300781,-1.923651,2.150752,6.655903,3.800310
1008.304688,5.953582,-5.066447,5.028089,-0.885601
1008.308594,0.023851,11.560804,3.130228,10.106488
1008.312500,12.075652,1.812324,4.484083,7.586562
1008.316406,9.842262,3.655410,17.373784,3.838433
1008.320312,17.222605,15.463867,3.429116,6.262191
1008.324219,4.098661,6.633954,6.088516,11.690836
1008.328125,5.850474,8.932296,11.094311,6.724595
1008.332031,9.265424,9.109569,11.605485,1.778832
1008.335938,4.971905,12.808932,9.086991,4.955403
1008.339844,5.059450,14.862842,4.114691,9.001113
1008.343750,0.643084,6.488324,9.506518,4.995454
1008.347656,1.649896,5.949840,3.366584,-3.040147
1008.351562,5.588422,-3.852012,0.547800,0.541058
1008.355469,1.200832,-0.104631,-2.801856,-3.166874
1008.359375,-10.682328,-3.079215,-7.656569,-13.524073
1008.363281,-7.752970,-13.020290,-3.555241,-5.713824
1008.367188,-5.738343,-14.635953,-11.755877,-13.152285
1008.371094,-12.927099,-6.853598,-11.073317,-5.165267
1008.375000,-8.215168,-12.376146,-13.289869,-7.168041
1008.378906,-6.608645,-16.278326,-12.212111,-9.582956
1008.382812,-7.615893,-8.295802,-8.958902,-6.905249
1008.386719,-9.290191,-13.657214,-5.620457,-8.170496
1008.390625,-7.493756,-8.595019,-6.131647,-6.390983
1008.394531,3.948503,-3.822685,-0.136323,-1.473206
1008.398438,3.149170,-6.471850,-0.784223,-3.761153
1008.402344,-0.407569,7.055533,1.492219,-3.671111
1008.406250,14.042061,6.920764,0.606460,4.762113
1008.410156,3.248203,2.458562,8.324940,1.293353
1008.414062,5.679742,12.380371,9.161486,6.885750
1008.417969,4.638023,12.279110,21.543227,1.908805
1008.421875,6.832099,11.150680,2.824175,9.106843
1008.425781,11.111484,9.623545,11.727074,11.716593
1008.429688,8.613981,8.251956,11.455641,5.472268
1008.433594,3.482779,7.977755,10.049437,5.340657
1008.437500,7.241265,1.560576,5.937244,13.367897
1008.441406,-1.401708,1.814222,4.369291,8.887869
1008.445312,3.792496,1.268607,0.440880,6.746156
1008.449219,-3.373204,1.696567,-0.607579,3.529661
1008.453125,-3.889944,-9.108531,-3.584799,-9.357662
1008.457031,-1.743814,-4.378234,-5.997119,-3.547857
1008.460938,-7.694674,-1.641105,0.306749,-8.848575
1008.464844,-4.897268,-15.087106,-17.139751,-12.180663
1008.468750,-4.399668,-9.811854,-11.783910,-8.393814
1008.472656,-7.701143,-6.744628,-8.707398,-5.589402
1008.476562,-13.069064,-14.182007,-16.459694,-5.822817
1008.480469,-7.587661,-12.359291,-17.304644,-15.797214
1008.484375,-4.761709,-11.694904,-6.883085,-7.351420
1008.488281,-4.776581,-11.411917,-10.700839,-1.605433
1008.492188,-4.155255,-5.413866,-1.375527,-9.182150
1008.496094,-3.848614,2.086718,-9.928160,-4.539690
1008.500000,3.385377,-0.069160,5.612796,5.381471
1008.503906,3.739590,4.436228,-1.682376,4.547781
1008.507812,7.299106,3.049881,9.499065,4.750174
1008.511719,10.167964,11.094894,9.480507,10.194215
1008.515625,10.332221,13.949515,5.093136,9.772747
1008.519531,8.465800,7.055994,5.035637,15.735823
1008.523438,8.306230,11.099209,6.248336,1.128399
1008.527344,16.335173,12.644643,10.556956,12.248783
1008.531250,11.558337,7.851522,8.489468,12.911133
1008.535156,13.439938,12.468823,12.297189,14.378341
1008.539062,7.660844,0.674666,2.904309,4.239121
1008.542969,2.647122,3.746210,7.364373,1.811824
1008.546875,0.824454,-2.783646,-2.191232,-0.136418
1008.550781,-0.814127,-2.916739,2.831249,-2.570870
1008.554688,2.646991,-0.145482,-5.063782,-5.946484
1008.558594,-8.824353,-2.242680,-3.857437,-9.769452
1008.562500,-3.837255,-2.198334,-8.374636,-11.396208
1008.566406,-5.581382,-3.692171,-4.994456,-12.193216
1008.570312,-11.529647,-6.540571,-7.759406,-6.339666
1008.574219,-6.206505,-14.070456,-11.227929,-7.365884
1008.578125,-11.307206,-13.140255,-6.451058,-10.778949
1008.582031,-10.560055,-11.360544,-14.421496,-8.316864
1008.585938,-5.261754,-15.401456,-16.343375,-4.189160
1008.589844,-11.574188,-4.533739,-3.911970,3.563969
1008.593750,-1.639058,-2.002746,-3.922848,-4.195402
1008.597656,-5.687307,2.731600,0.082149,-1.006487
1008.601562,4.884868,2.261242,1.706602,-4.608977
1008.605469,6.649478,6.459890,15.244628,4.474572
1008.609375,8.461601,13.210453,11.022929,9.998276
1008.613281,10.007508,8.356523,-2.247473,7.042340
1008.617188,11.722108,10.832250,6.839419,8.504459
1008.621094,11.286476,10.276856,6.275407,4.257119
1008.625000,13.977928,10.213522,14.576238,11.426557
1008.628906,3.618677,5.250827,6.755337,8.989069
1008.632812,8.875259,7.563261,10.181329,8.506546
1008.636719,3.429421,10.239453,3.991477,-0.573076
1008.640625,0.972159,4.304482,6.217848,10.915569
1008.644531,0.693462,2.155584,0.215215,5.797115
1008.648438,-7.074558,1.247294,-2.417729,7.778170
1008.652344,2.471161,0.174369,5.183060,-5.175102
1008.656250,-2.427876,-0.416835,-1.037846,-5.352064
1008.660156,-4.631749,0.883482,1.151897,-6.461769
1008.664062,-13.268908,-7.582808,-2.338472,-7.018317
1008.667969,-7.608441,-5.197858,-7.718246,-7.937622
1008.671875,-5.146853,-10.309700,-3.747507,-5.098014
1008.675781,-16.318061,-11.754495,-9.154094,-11.398802
1008.679688,-13.475708,-6.871665,-5.170248,-20.333626
1008.683594,-14.427426,-7.720385,-8.055264,-6.609813
1008.687500,-7.142078,-9.285635,-10.282677,-4.545037
1008.691406,-1.218787,-4.359217,-3.847108,-5.225334
1008.695312,-4.239616,-4.385756,-4.738465,-6.812851
1008.699219,2.651774,-7.418687,-0.738897,-3.960754
1008.703125,6.675350,1.713661,2.017212,-0.697654
1008.707031,0.674942,2.367460,9.072185,5.720878
1008.710938,6.559463,0.078981,10.697609,6.515737
1008.714844,9.487860,10.373324,12.717761,10.462674
1008.718750,7.735677,11.679881,13.661311,6.812978
1008.722656,12.823024,12.858986,7.707391,7.158048
1008.726562,14.382497,12.171885,11.091347,9.648065
1008.730469,3.606007,4.352110,3.381919,9.330706
1008.734375,5.249035,6.044555,8.330725,10.084265
1008.738281,7.552593,9.582873,7.552130,3.868704
1008.742188,8.794077,4.916800,0.910692,5.184817
1008.746094,4.539855,2.656133,-5.860149,0.065818
1008.750000,1.146902,3.720089,-3.761509,-4.167289
1008.753906,-3.887332,-1.071754,4.799310,-8.436898
1008.757812,-0.438218,-8.602510,3.267771,0.255024
1008.761719,-0.058624,-16.302800,-3.036512,-0.237596
1008.765625,-6.198480,-4.450951,-3.570664,-0.575623
1008.769531,-16.984369,-6.577768,-14.581653,-3.701499
1008.773438,-14.301841,-8.363798,-9.314580,-8.711965
1008.777344,-6.064803,-10.037981,-13.659674,-11.871169
1008.781250,-7.518212,-10.117820,-8.168518,-7.976159
1008.785156,-5.004724,-4.999404,-7.600046,-11.287609
1008.789062,-2.685597,-7.793430,-8.457784,-9.152003
1008.792969,-8.019552,-2.292839,-7.183838,-7.982776
1008.796875,2.949106,3.462711,-5.179987,-4.662485
1008.800781,1.819716,-1.295417,1.157981,3.640106
1008.804688,5.348498,7.552838,1.692207,0.894071
1008.808594,2.702358,1.174825,11.806046,4.828811
1008.812500,4.742209,12.212967,11.716495,4.796666
1008.816406,3.461400,7.998993,13.667316,12.647816
1008.820312,4.475836,8.028001,12.000983,11.663802
1008.824219,10.366024,3.307997,7.162968,2.051740
1008.828125,10.834440,5.218005,4.961640,13.480645
1008.832031,14.866334,18.089738,8.016646,12.483406
1008.835938,10.988954,1.659233,11.671489,2.531892
1008.839844,7.085884,-0.832862,2.622161,5.971133
1008.843750,6.888985,-4.498319,-3.189005,-3.344861
1008.847656,6.020274,-5.481720,1.915528,-3.311684
1008.851562,-2.571276,1.250334,1.641527,1.423858
1008.855469,-7.452257,-10.868748,-8.408644,0.556842
1008.859375,-6.427322,-9.530696,-5.985283,-2.373446
1008.863281,-7.294456,-7.754576,-4.708286,-2.618240
1008.867188,-12.377468,-1.294931,-8.055959,-5.615104
1008.871094,-9.428791,-4.538631,-0.996026,-7.718444
1008.875000,-8.492830,-3.970812,-10.068560,-6.963199
1008.878906,-15.851326,-7.837676,-5.062022,-2.150692
1008.882812,-9.560416,-7.539504,-12.351263,-11.263616
1008.886719,-5.679600,1.749023,3.163168,-10.617486
1008.890625,-10.582228,-3.150217,-0.501804,-5.226548
1008.894531,-5.839821,-3.350121,-10.118025,0.829203
1008.898438,-3.312106,-4.207401,-2.604515,-1.589269
1008.902344,6.250675,0.261255,3.561520,-0.438184
1008.906250,-1.745278,8.307609,2.665345,-0.770046
1008.910156,9.081818,11.824634,7.100244,1.324000
1008.914062,11.557850,1.229067,8.334146,6.488648
1008.917969,5.371693,4.496293,10.092040,13.111166
1008.921875,4.609381,18.069842,15.794520,2.321562
1008.925781,15.051840,6.425961,9.790104,9.844615
1008.929688,14.891848,13.814691,9.853438,5.107381
1008.933594,9.627616,6.491400,3.553235,3.047457
1008.937500,11.492728,6.672211,4.707976,13.608420
1008.941406,0.560665,-1.419602,10.568498,0.926435
1008.945312,9.387413,8.636768,0.959084,3.589821
1008.949219,6.235223,4.552764,-3.625392,2.264941
1008.953125,4.697565,-5.432777,-4.611344,-7.249974
1008.957031,-10.198456,6.620272,-10.031284,-10.504510
1008.960938,-2.484283,5.530006,-8.782190,-1.906524
1008.964844,-10.591710,-8.206306,-9.338860,-4.179342
1008.968750,-10.872721,-13.638614,-13.289394,-2.703552
1008.972656,-12.429054,-9.917948,-10.678891,-14.831745
1008.976562,-7.957444,-5.296786,-15.352454,-19.567239
1008.980469,-10.698062,-0.955796,-6.732922,-8.136001
1008.984375,-11.739088,-0.316272,-5.737156,-8.303354
1008.988281,-8.133799,-4.647218,0.652872,-14.612885
1008.992188,-4.598452,-8.264388,0.541215,-7.529303
1008.996094,1.631405,-8.616598,-5.176468,-8.188903
1009.000000,5.001015,4.155482,-4.468946,-6.827400
1009.003906,1.086977,2.891353,4.069108,1.087152
1009.007812,3.495418,6.322601,1.249753,4.967228
1009.011719,1.631210,8.098900,15.340493,10.107155
1009.015625,13.974858,7.749660,7.657922,7.760996
1009.019531,8.516449,8.294996,10.609677,11.944377
1009.023438,9.732871,11.503172,5.513082,11.483708
1009.027344,12.466705,10.668196,7.764231,13.205151
1009.031250,9.271316,1.254631,12.811551,11.676009
1009.035156,-0.998218,9.014703,14.109480,8.622663
1009.039062,13.187738,13.232028,3.396603,5.574988
1009.042969,3.478389,6.262798,0.470883,2.048737
1009.046875,1.100020,7.002291,7.458376,11.032791
1009.050781,-6.775791,-3.026795,2.369931,1.580256
1009.054688,-4.860526,0.712300,-7.696749,8.277075
1009.058594,-5.202378,-6.277695,-1.895300,-4.366819
1009.062500,-9.817477,-5.154885,-2.338418,1.656030
1009.066406,-10.018171,-7.478441,-0.463960,-7.761504
1009.070312,-3.201380,-10.602086,-14.208636,-5.548726
1009.074219,-11.567077,-11.011753,-5.723027,-10.741793
1009.078125,-6.147506,-0.997403,-6.628315,-7.011063
1009.082031,-6.086938,-6.386902,-11.816051,-3.795856
1009.085938,-7.714296,-3.777896,-7.979190,-8.459920
1009.089844,-7.699050,-5.720572,-3.157466,-3.893361
1009.093750,-8.111102,6.916484,-8.681810,-13.720505
1009.097656,-2.783542,-5.187256,0.140582,3.923570
1009.101562,2.591159,1.059919,3.038447,-2.954319
1009.105469,11.292975,-1.224815,4.267906,4.514212
1009.109375,4.254545,7.320812,4.986362,5.422416
1009.113281,3.129835,6.252789,3.141042,13.329239
1009.117188,3.866222,5.450826,4.616427,3.942259
1009.121094,7.734565,5.341695,9.041558,13.463796
1009.125000,14.353149,14.106140,9.069886,13.923497
1009.128906,5.624495,8.932786,10.890582,6.914797
1009.132812,5.504071,7.305272,15.130004,7.402204
1009.136719,5.507498,2.385284,4.527061,1.233536
1009.140625,8.524611,5.764260,5.444708,5.467177
1009.144531,5.716615,-0.633867,2.250724,4.404455
1009.148438,-7.417188,4.013079,2.442661,-0.327148
1009.152344,-4.121219,-1.085926,4.705525,3.504278
1009.156250,-1.368088,0.105271,-6.877485,-1.300711
1009.160156,-12.401987,-0.204059,0.827780,-6.070203
1009.164062,-8.569103,-4.620587,-5.449520,-11.708822
1009.167969,-11.944826,-9.627679,-13.311847,-5.897752
1009.171875,-10.363104,-12.386038,-8.258779,-3.278388
1009.175781,-10.860804,-10.720725,-9.921271,-6.208638
1009.179688,-10.317645,-9.102642,-10.793744,-9.416134
1009.183594,-4.694871,-10.226234,-3.668406,-8.695352
