timestamp,TP9,AF7,AF8,TP10
1000.000000,-3.010113,2.147361,-1.529561,3.092511
1000.003906,8.377573,1.519651,1.547618,3.437258
1000.007812,6.135561,0.501448,8.427249,9.318345
1000.011719,19.739416,5.630197,9.168953,6.870650
1000.015625,5.535113,3.965890,10.096707,7.571005
1000.019531,11.802772,8.760851,14.756641,6.074745
1000.023438,6.259104,15.037903,17.937221,7.402973
1000.027344,10.890452,10.156989,14.279433,8.320181
1000.031250,11.835243,12.234778,11.140865,13.161637
1000.035156,8.251443,4.356567,5.303473,14.427507
1000.039062,3.035714,-2.663418,9.199650,3.860421
1000.042969,-0.793909,5.191943,6.330831,1.039864
1000.046875,5.025058,1.476063,0.420135,-1.250633
1000.050781,-2.876976,-7.815825,1.922162,7.549672
1000.054688,-2.443459,-0.177288,-1.832147,1.492529
1000.058594,-6.906358,1.255403,-3.179200,-3.370301
1000.062500,-9.959161,-12.194320,-9.481375,-5.345399
1000.066406,-1.317640,-2.633475,-10.477628,-1.354813
1000.070312,-13.942365,-12.175557,-11.818305,-9.805491
1000.074219,0.793071,-14.231448,-12.255982,-10.200557
1000.078125,-8.095344,-5.698122,-12.929609,-7.056966
1000.082031,-7.508467,-5.001366,-9.150744,-8.029431
1000.085938,-9.751469,-7.297308,-7.752350,-4.231290
1000.089844,-13.917730,-2.895944,-10.067830,-2.029854
1000.093750,0.688770,1.631337,-2.117472,-1.985359
1000.097656,-0.537759,-3.433506,11.394806,-4.409879
1000.101562,1.837934,1.589038,2.313970,-5.634827
1000.105469,-4.366596,9.922432,3.973645,3.540100
1000.109375,10.516096,2.340476,14.504854,-0.552056
1000.113281,5.617540,10.819038,3.482927,15.697347
1000.117188,5.152388,5.864813,7.155584,17.964810
1000.121094,8.336904,2.562647,10.763743,7.765867
1000.125000,10.338113,9.872938,4.737033,5.939103
1000.128906,13.758154,8.147653,10.420496,9.841872
1000.132812,1.493533,7.870143,5.460243,-3.750256
1000.136719,10.224667,10.477336,9.338714,3.188624
1000.140625,5.705234,3.688481,9.075539,10.184130
1000.144531,2.393661,7.095051,-0.998373,-6.773408
1000.148438,3.379186,6.900147,-0.249216,-1.744891
1000.152344,1.115038,-3.370219,1.138204,-9.812596
1000.156250,-5.649697,1.099811,-0.504739,-5.151770
1000.160156,-3.756487,-0.995313,-6.314294,-2.030511
1000.164062,-5.566792,-6.893641,-13.555139,-9.027436
1000.167969,-10.098365,-16.871208,-3.832960,-11.027168
1000.171875,-5.033392,-10.142997,-12.913793,-4.093566
1000.175781,-6.624472,-8.222546,-11.945433,-6.766781
1000.179688,-8.879155,-12.168060,-9.059758,-8.320703
1000.183594,-7.442614,-1.911454,-10.107703,-5.815012
1000.187500,-3.470501,-6.703245,-8.782041,-16.424139
1000.191406,-7.728741,0.377198,-17.097281,-2.662008
1000.195312,-2.923784,-3.577665,-3.195379,-3.395989
1000.199219,-5.763779,1.401868,2.851685,0.409748
1000.203125,7.279989,6.227930,-3.367688,-2.183049
1000.207031,6.449758,4.993822,5.525888,9.649853
1000.210938,7.122747,2.307837,4.998340,9.110511
1000.214844,11.329894,12.596248,9.254513,7.775636
1000.218750,5.216827,5.434946,10.951608,9.733420
1000.222656,4.538514,2.900551,14.353474,12.999791
1000.226562,7.892763,10.627824,13.548120,6.494264
1000.230469,14.806315,3.172574,6.532981,11.384602
1000.234375,15.080604,15.774920,6.521578,5.704357
1000.238281,5.717520,6.025821,9.003203,10.332798
1000.242188,5.210932,3.583873,5.043079,3.896570
1000.246094,-0.926745,4.675122,5.212416,7.107815
1000.250000,-8.000834,-4.226408,1.541252,7.423549
1000.253906,-2.323719,-2.724078,-0.918642,2.513809
1000.257812,-4.087436,-5.717402,-9.940537,-2.456122
1000.261719,-8.508439,-1.777798,-13.135520,-2.195459
1000.265625,-9.171749,-6.092645,-12.593921,0.095127
1000.269531,-7.356007,-8.903857,-13.553478,-8.583667
1000.273438,-12.392121,-15.392735,-3.187378,-9.212260
1000.277344,-1.818988,-6.913520,-7.126970,-14.895383
1000.281250,-2.452702,-3.430622,-10.701766,-8.085205
1000.285156,-6.965847,-14.586424,-4.877680,-10.656158
1000.289062,-10.403006,-10.799281,-5.429976,-4.624326
1000.292969,0.340157,-7.153625,-8.492383,-5.981694
1000.296875,-2.559075,-5.478852,-7.105570,-6.351741
1000.300781,-7.966120,2.000183,3.383829,-2.083459
1000.304688,-1.309677,4.743305,3.896167,3.209092
1000.308594,5.638894,10.128528,5.151162,0.033577
1000.312500,6.806620,9.568886,10.752327,8.857160
1000.316406,13.298895,8.616666,11.479287,9.106342
1000.320312,10.694294,7.606661,10.725054,10.861778
1000.324219,11.364013,10.502792,5.994375,5.559686
1000.328125,4.089350,1.836722,10.163184,10.086419
1000.332031,11.498652,11.548836,11.526665,9.710528
1000.335938,12.174286,12.197940,9.624946,8.324121
1000.339844,7.955389,8.515504,5.170909,2.396490
1000.343750,5.089227,-1.269933,5.751839,4.251933
1000.347656,8.198924,7.648261,8.081548,-3.883528
1000.351562,1.954954,0.667687,-3.159103,-0.901003
1000.355469,10.292550,2.661456,-4.359392,-4.947874
1000.359375,-8.980072,-1.135302,-4.045868,-9.397349
1000.363281,-6.042960,-11.661217,-5.334292,-8.164214
1000.367188,-12.929789,-2.242581,-9.722566,-7.727601
1000.371094,-9.023615,-10.466932,-14.215704,-10.294075
1000.375000,-11.421664,-12.446458,-6.167829,-10.119949
1000.378906,-3.394705,-15.613389,-3.512090,-9.023058
1000.382812,1.220356,-5.091487,-12.871031,-11.685235
1000.386719,-1.476267,-6.893286,-6.615574,-5.976390
1000.390625,-2.028297,-11.658403,-1.500655,-5.750077
1000.394531,0.607900,-3.669758,-2.049600,-4.396815
1000.398438,2.674218,1.203952,2.843338,-1.054312
1000.402344,-1.077830,1.530613,0.100216,1.855145
1000.406250,3.295843,10.562032,-0.111439,0.096729
1000.410156,-0.667937,2.570949,4.926527,16.518157
1000.414062,12.942136,9.656195,8.097737,12.413343
1000.417969,4.851644,9.483042,13.671721,8.543162
1000.421875,15.598611,6.745154,7.761164,7.718894
1000.425781,6.362845,4.955564,7.966700,5.306960
1000.429688,10.245854,11.518481,10.802978,11.625862
1000.433594,11.283360,7.005609,5.909367,13.729748
1000.437500,5.052880,2.197734,3.036546,15.287052
1000.441406,7.030879,10.777175,7.273481,-0.790766
1000.445312,6.962603,0.932033,5.954370,-3.722465
1000.449219,-5.925004,-3.249163,0.659009,5.470475
1000.453125,-8.665365,-4.269260,7.259199,-0.909199
1000.457031,-6.041984,-3.673063,-2.716710,3.978579
1000.460938,-3.123181,-9.158326,-4.671465,-0.126555
1000.464844,-2.609849,-9.533610,-9.148273,-10.149483
1000.468750,-14.187862,-5.830236,-6.207377,-2.865596
1000.472656,-4.117467,-6.059146,-11.818051,-6.967619
1000.476562,-10.776611,-24.129750,-12.734552,-10.538615
1000.480469,-13.892411,-7.482451,-7.065077,-6.968657
1000.484375,-3.347841,-9.317520,-3.466925,-5.035155
1000.488281,-6.002932,-6.744978,-8.097724,-4.034063
1000.492188,-0.638149,-2.495294,-6.726980,-6.605634
1000.496094,-1.427178,-6.569662,-9.445660,1.921792
1000.500000,2.480417,-3.091993,-7.317327,3.581429
1000.503906,-0.237599,4.171092,6.012857,2.876225
1000.507812,5.580367,-0.868039,2.888217,7.355125
1000.511719,7.350934,9.086050,3.732217,-0.884819
1000.515625,9.125784,11.603298,2.132946,13.566865
1000.519531,13.766952,12.763955,7.714467,6.356793
1000.523438,8.615258,11.915285,12.949957,9.761074
1000.527344,7.170560,8.652717,17.189975,8.161347
1000.531250,7.580225,11.153085,6.883136,7.831150
1000.535156,4.020541,9.123091,6.058870,12.452913
1000.539062,9.270591,7.523069,0.727997,2.499798
1000.542969,0.468805,2.884966,9.577818,13.023015
1000.546875,0.572497,-3.661049,-5.920689,2.077357
1000.550781,-2.061812,0.856069,2.037941,-0.227207
1000.554688,-3.467182,1.335653,-1.954969,-2.154658
1000.558594,-5.407927,0.077528,-3.598979,-5.245267
1000.562500,-6.579147,-17.745149,-11.650378,-0.245328
1000.566406,-10.514665,-0.995980,-3.176144,-5.128954
1000.570312,-8.696115,-14.527586,-6.620357,-4.954175
1000.574219,-10.847606,-10.889719,-4.888476,-12.755066
1000.578125,-8.777873,-11.283643,-11.388303,-17.668383
1000.582031,-0.444031,-11.090464,-15.273872,-9.818744
1000.585938,-10.575445,-6.850996,-5.704376,-12.581511
1000.589844,-8.637710,-9.039762,-8.761441,-3.686290
1000.593750,-7.720652,-1.021161,-1.598592,-3.657115
1000.597656,-4.235268,-4.001930,1.599082,4.261429
1000.601562,-8.748059,-1.545240,0.763386,2.050322
1000.605469,2.612756,1.183293,2.670187,6.001620
1000.609375,8.427464,8.737167,8.411533,-0.361895
1000.613281,8.824382,9.159089,5.755353,2.672691
1000.617188,5.093301,7.156808,5.113251,14.967379
1000.621094,8.110768,10.038359,9.250473,4.149407
1000.625000,7.937402,8.871868,5.512761,8.709563
1000.628906,4.295399,3.643568,16.553215,10.855407
1000.632812,4.400638,7.436472,7.474372,11.490784
1000.636719,11.304186,3.152088,6.846641,-1.170388
1000.640625,11.205927,2.938897,-0.004532,6.771431
1000.644531,-2.184868,-2.824513,2.015521,-0.264217
1000.648438,5.090545,3.202775,2.219763,-3.094330
1000.652344,-3.664905,3.793229,3.546093,-2.621938
1000.656250,-7.465126,-2.056603,-7.298275,-8.346838
1000.660156,-9.276432,-3.815526,-5.410848,-1.586109
1000.664062,-1.136802,-12.390902,-9.771481,-16.069098
1000.667969,-7.013861,-3.778090,-5.656991,-7.963547
1000.671875,-6.212352,-14.219887,-3.957439,-9.852561
1000.675781,-15.117981,-13.490967,-10.863717,-6.984912
1000.679688,-4.139299,-7.208717,-7.800563,-10.327535
1000.683594,-9.861569,-5.199402,-4.800366,-5.832164
1000.687500,-17.053369,-7.832423,-9.919013,-8.184187
1000.691406,-4.631096,-3.813504,-4.138977,-8.160672
1000.695312,-1.438184,-2.612933,1.690419,-0.413213
1000.699219,-2.233557,-2.002590,1.903375,5.392026
1000.703125,-0.136321,6.340348,-5.666530,-0.091164
1000.707031,1.441356,10.140715,-1.088544,12.290925
1000.710938,5.642475,-3.880682,10.210681,3.446965
1000.714844,13.659298,6.463004,6.191519,9.616982
1000.718750,10.965528,-1.020584,16.657565,11.020233
1000.722656,14.890575,6.131004,9.386931,9.077009
1000.726562,5.262508,9.957105,14.742963,11.233279
1000.730469,7.776283,7.309875,9.305286,12.447708
1000.734375,14.660660,13.362535,3.986664,13.063242
1000.738281,2.197391,5.925025,13.115266,12.656499
1000.742188,7.015580,10.108590,-1.576764,1.889565
1000.746094,4.168638,-2.181445,5.328029,1.055764
1000.750000,-2.605821,-3.593915,4.852390,2.506297
1000.753906,-0.913767,-9.053195,-6.894886,-5.939936
1000.757812,-8.376784,-0.796534,-5.632056,-3.427775
1000.761719,-1.647658,-12.231286,-5.444490,-4.785454
1000.765625,0.716652,-8.960610,-8.690866,-4.403555
1000.769531,-10.761200,-8.552108,-7.670513,-3.734136
1000.773438,-12.370186,-16.848100,-15.134260,-14.217037
1000.777344,-7.925613,-10.618844,-6.503767,-14.609034
1000.781250,-13.489412,-10.776637,-12.345791,-8.165571
1000.785156,-9.046072,-2.255814,-8.476271,-4.711897
1000.789062,-7.667352,-10.685661,-8.840778,-6.589555
1000.792969,-4.788383,-1.710441,0.830320,-8.954997
1000.796875,-9.598803,-5.150318,1.169797,4.971071
1000.800781,0.862583,1.722039,-0.705501,-1.201313
1000.804688,3.179743,6.333765,-4.985747,0.307558
1000.808594,1.254539,6.631479,1.252614,5.244706
1000.812500,6.817751,8.954398,4.736613,5.382936
1000.816406,8.099411,5.063755,11.624640,10.991689
1000.820312,12.082611,10.916662,7.799054,8.951136
1000.824219,8.617923,11.062867,10.917779,8.350528
1000.828125,15.805047,10.273783,11.706074,12.814287
1000.832031,8.756864,9.501326,7.842009,12.539101
1000.835938,11.601672,3.730247,9.772961,5.210664
1000.839844,7.576570,5.372676,6.939741,7.085573
1000.843750,6.567046,8.637692,2.674076,3.967408
1000.847656,0.087508,2.908721,3.583730,1.409367
1000.851562,-1.007394,-4.667347,-5.735909,-0.123324
1000.855469,-7.397412,-1.342713,-4.962964,-0.340492
1000.859375,-8.384695,-5.085864,-7.124215,-5.649805
1000.863281,-9.309103,-13.705907,-3.706302,-3.831126
1000.867188,-11.205492,-1.486789,-9.280410,-20.499696
1000.871094,-11.321543,-15.587520,-3.181811,-8.574559
1000.875000,-3.849693,-11.164521,-11.976431,-7.582394
1000.878906,-13.983903,-1.969957,-14.062743,-3.764813
1000.882812,-9.610036,-0.996345,-4.109439,-3.543750
1000.886719,-7.545274,-2.395101,-16.548017,0.826721
1000.890625,-5.595498,-3.150465,-0.970052,2.099906
1000.894531,-4.373919,0.829190,3.117398,-2.848847
1000.898438,-12.068834,-2.119819,2.184104,-0.093246
1000.902344,7.200534,4.900067,-0.409254,-1.438023
1000.906250,2.939371,3.674611,4.685891,3.629220
1000.910156,-1.404215,2.211654,6.738283,11.128024
1000.914062,10.579309,4.886327,6.119154,3.616721
1000.917969,5.372605,13.050222,13.576644,2.539867
1000.921875,4.151897,7.066684,12.152507,12.659832
1000.925781,6.911336,11.003178,3.875098,6.991472
1000.929688,11.730848,14.056171,5.282388,18.403034
1000.933594,16.887245,12.969024,8.570853,15.155439
1000.937500,8.583472,3.713106,8.970603,2.171950
1000.941406,0.248971,16.139358,9.208062,11.110565
1000.945312,-2.992199,6.386827,3.599079,2.628308
1000.949219,-3.702088,2.232217,1.529109,-6.136809
1000.953125,-8.491509,-0.654704,0.036470,-4.793172
1000.957031,-10.269492,-5.326287,-1.241877,-9.289123
1000.960938,-0.122583,-6.541990,-10.724327,-4.437403
1000.964844,-11.216154,-8.899471,-9.307592,-4.909189
1000.968750,-10.496435,-11.968485,-2.380403,-8.205136
1000.972656,-9.390156,-10.438550,-11.994275,-11.617988
1000.976562,-8.353466,3.341243,-18.833198,-18.997357
1000.980469,-12.244226,-4.612315,-11.615021,-9.999896
1000.984375,-8.795251,-7.522671,-12.011281,-13.050601
1000.988281,-9.475520,-4.097798,-1.709986,-6.779202
1000.992188,-6.433299,-3.531854,-5.099197,-3.816835
1000.996094,-2.379636,-4.011621,-1.793611,3.545746
1001.000000,0.629210,7.344223,9.289070,-3.365490
1001.003906,4.877428,9.326865,7.605547,1.994819
1001.007812,4.732436,7.082901,3.654205,2.310175
1001.011719,12.289968,10.946412,16.383920,-2.529517
1001.015625,14.186051,7.824033,12.605316,8.655619
1001.019531,13.132718,9.157328,11.103803,9.319286
1001.023438,4.988624,5.815846,13.854755,7.515171
1001.027344,17.147557,8.275355,5.586693,5.108949
1001.031250,4.549145,4.913396,10.702581,7.632514
1001.035156,5.921439,3.769217,11.949940,12.465146
1001.039062,5.578030,4.083936,13.671615,4.360766
1001.042969,4.988105,6.047823,-2.056612,7.662517
1001.046875,1.421157,3.641730,6.922927,6.466812
1001.050781,0.544320,-3.815191,3.231062,12.022805
1001.054688,-4.220503,2.839662,-1.965349,-7.874848
1001.058594,-3.208945,-4.161621,-11.053641,-6.747999
1001.062500,-9.158380,-10.315472,-4.020203,-6.840115
1001.066406,-14.573900,-17.884638,-8.672023,-8.866510
1001.070312,-4.769336,-10.400203,-11.797020,-8.377860
1001.074219,-15.651484,-9.167764,-11.471747,-7.563993
1001.078125,-11.721863,-10.323282,-8.513493,-7.030984
1001.082031,-7.368829,-13.047441,-4.166099,-7.354713
1001.085938,-8.757963,-6.936115,-11.651763,0.095535
1001.089844,-8.223582,-8.941733,-7.978952,-1.575866
1001.093750,-9.615994,-3.398667,-7.262532,-8.015853
1001.097656,-1.045186,-1.199888,3.394151,8.967753
1001.101562,-1.082757,3.080147,-10.855985,-4.558545
1001.105469,8.033250,6.145344,8.744293,6.928908
1001.109375,2.793560,3.418484,8.396321,3.763360
1001.113281,5.414954,7.193739,-0.122451,3.901221
1001.117188,8.809870,9.311714,5.887293,7.292774
1001.121094,8.086549,8.907316,9.335846,8.354464
1001.125000,7.464823,8.824539,9.014046,16.506136
1001.128906,-0.638360,9.431891,9.546053,10.632297
1001.132812,11.055663,13.881431,9.071873,6.739713
1001.136719,8.962100,4.253174,1.983978,7.912003
1001.140625,9.147640,8.050475,9.980499,1.206669
1001.144531,2.260748,3.896430,2.154646,7.113792
1001.148438,1.874685,-1.872536,-5.891655,-7.223872
1001.152344,-1.998090,-5.330643,-0.032257,-5.976573
1001.156250,-5.024975,-0.377896,-2.325468,-8.012559
1001.160156,-9.350875,-13.622832,-0.731765,-10.743685
1001.164062,-8.414634,-0.490281,-12.577488,-5.094433
1001.167969,-10.580448,-12.110456,-10.295055,-4.994758
1001.171875,-10.452154,-7.027046,-7.646459,-5.329486
1001.175781,-14.454640,-15.155083,-5.235889,-9.370853
1001.179688,-3.081075,-2.898942,-10.983968,-10.954138
1001.183594,-9.307899,-5.845714,-13.330129,-4.178715
1001.187500,-5.309017,-11.447124,-3.959914,-5.863388
1001.191406,-2.226090,-2.328628,2.333679,-7.131152
1001.195312,0.443516,0.337126,-4.652632,-5.414285
1001.199219,3.616646,3.088449,1.197153,9.879436
1001.203125,6.771199,7.809362,-3.936482,8.720047
1001.207031,7.424646,-5.093265,1.512643,1.818591
1001.210938,7.500189,2.777848,6.890716,10.052696
1001.214844,4.411375,5.314816,2.340999,8.077006
1001.218750,5.965266,13.826537,10.348567,10.871710
1001.222656,13.693256,13.345295,7.365399,18.140934
1001.226562,6.634903,10.949007,3.142324,6.040255
1001.230469,2.707169,8.448611,8.318650,17.593422
1001.234375,6.798240,6.751487,7.450502,4.891128
1001.238281,4.314082,5.817861,10.310937,7.696374
1001.242188,4.466633,-2.218662,2.366724,5.506392
1001.246094,-5.071071,1.122387,3.642306,-3.336023
1001.250000,-3.748179,-1.350304,1.238224,6.810508
1001.253906,1.091986,-0.479214,-2.277019,1.655160
1001.257812,-2.393748,-11.569649,-2.579794,-1.972946
1001.261719,-6.269415,-5.328565,4.176622,-4.764491
1001.265625,-7.917269,-6.930352,-6.812093,-13.632062
1001.269531,-9.269772,-8.543754,-12.592477,-4.302587
1001.273438,-6.121683,-6.233620,-4.093327,-7.279317
1001.277344,-4.133997,-4.827517,-11.667276,-13.612933
1001.281250,-14.279292,-4.251037,-14.384790,-10.599674
1001.285156,-6.773973,-1.695847,-1.182464,-16.878419
1001.289062,-1.190156,-11.558565,-2.248116,-2.629920
1001.292969,1.629472,-1.392540,-8.081740,-1.453933
1001.296875,-4.631310,-4.755356,-4.177812,-3.993336
1001.300781,0.377608,1.477965,-6.608710,0.635890
1001.304688,-2.257853,3.377905,3.988335,3.603979
1001.308594,6.049415,2.390258,3.534888,4.985865
1001.312500,4.304274,-3.706696,3.819104,11.128821
1001.316406,5.634980,5.798802,7.826791,6.919881
1001.320312,5.773145,5.319886,7.213528,16.994923
1001.324219,17.751463,15.712936,15.630311,12.558581
1001.328125,11.987982,9.530012,4.895163,10.165647
1001.332031,13.234873,9.502078,10.959507,12.182376
1001.335938,4.026605,6.987093,11.099362,10.319808
1001.339844,1.281820,4.553175,6.483825,7.767770
1001.343750,-1.417941,-2.987364,1.608075,2.322228
1001.347656,-3.032914,0.730858,-0.569600,-3.098032
1001.351562,-0.863337,-0.755663,4.855059,-12.658513
1001.355469,-1.131038,-0.437489,-4.240166,-2.898382
1001.359375,-4.742161,0.118360,-7.950439,-11.371193
1001.363281,-7.319384,-5.031394,0.942840,-8.736675
1001.367188,-7.150374,-9.377809,-13.506315,-10.898274
1001.371094,-9.539129,-10.569339,-16.822280,-12.227895
1001.375000,-7.828724,-11.607704,-5.332977,-10.652458
1001.378906,-13.928762,-10.774095,-10.638558,-14.929183
1001.382812,-9.683087,-12.070104,-11.225628,-12.032302
1001.386719,-2.951792,-12.113089,-3.955440,-0.116134
1001.390625,-4.264873,-13.186209,-13.756340,-11.206029
1001.394531,-3.957683,-3.744434,-0.991551,-4.215154
1001.398438,0.931436,-4.672647,-2.419953,-3.652968
1001.402344,0.036844,7.205065,3.352165,5.224984
1001.406250,9.055741,4.746799,5.160424,4.695065
1001.410156,3.437758,4.585991,-1.854509,8.416233
1001.414062,8.143920,5.528219,4.875371,3.968068
1001.417969,11.029984,8.020131,12.598466,8.784007
1001.421875,8.406825,13.413954,8.874807,8.632407
1001.425781,9.380617,10.543603,12.361583,13.912343
1001.429688,7.525082,5.923031,11.276493,16.818483
1001.433594,10.953057,8.569170,3.077162,5.182096
1001.437500,4.970411,4.897586,4.230676,12.633294
1001.441406,-2.059888,7.996470,-0.563282,9.906799
1001.445312,-0.654292,2.003891,5.507904,10.392625
1001.449219,4.530608,-0.950810,-7.339197,4.961430
1001.453125,-8.050151,6.918641,-10.156659,-2.540184
1001.457031,-2.836337,-15.084508,-3.806667,-2.493962
1001.460938,0.326649,3.184681,-8.412380,-3.217521
1001.464844,-11.670049,-0.699634,-8.100262,-8.475713
1001.468750,-21.118675,-3.277704,-9.242499,-0.915652
1001.472656,-5.810534,-13.978795,-9.472757,-3.346373
1001.476562,-8.683829,-12.729121,-1.992260,-6.445856
1001.480469,-8.386302,-17.776076,-7.557065,-2.964843
1001.484375,-14.747581,-8.347527,-13.950316,-10.556056
1001.488281,-15.369823,-9.300176,-6.019482,-3.015061
1001.492188,-2.502785,-8.604775,-5.870367,4.870965
1001.496094,-3.798452,8.095644,-2.147706,-4.055211
1001.500000,-2.958362,-0.956501,-3.042059,2.295443
1001.503906,6.095607,1.190837,2.523581,0.017476
1001.507812,7.395027,0.341295,6.401502,3.595741
1001.511719,11.155098,5.476922,8.274196,4.819074
1001.515625,18.154958,0.342614,5.437068,15.170480
1001.519531,7.995928,13.192870,5.011653,10.847660
1001.523438,11.432814,6.392594,7.752863,11.602349
1001.527344,7.833387,12.094608,7.262350,4.312109
1001.531250,10.198229,7.866599,12.434801,-1.455753
1001.535156,9.717654,5.506452,6.180531,17.417176
1001.539062,5.862478,8.599025,2.767012,10.109265
1001.542969,-0.620019,5.144194,1.689198,5.811813
1001.546875,0.307240,-3.594631,-0.830747,3.041992
1001.550781,1.753563,-3.319439,-7.867645,-0.334911
1001.554688,3.177402,0.860560,-0.367662,0.162285
1001.558594,-1.076440,-5.486971,0.632704,-5.955454
1001.562500,-5.915001,-5.135039,-6.382560,-12.154007
1001.566406,-12.614078,-5.394522,-3.343726,-7.322888
1001.570312,-6.419511,-12.396055,-8.948750,-9.117226
1001.574219,-18.413856,-13.018423,-13.124296,-12.453395
1001.578125,-6.217002,-7.440257,-8.982589,-10.799994
1001.582031,-14.425634,-5.453856,-8.220198,-10.499271
1001.585938,-5.022029,-8.853964,-2.969398,-9.427498
1001.589844,-8.424568,-6.519523,-4.376635,-1.995196
1001.593750,5.603254,-9.264067,1.702541,-3.911528
1001.597656,-5.200581,0.306972,1.953911,5.405905
1001.601562,-4.187086,0.217434,1.008080,3.780423
1001.605469,1.722556,0.271688,2.301542,10.164171
1001.609375,8.670194,11.643239,-0.329658,1.227105
1001.613281,5.390810,8.915681,7.250667,8.368076
1001.617188,12.713543,13.888661,4.621324,10.612286
1001.621094,14.790464,9.007579,14.347749,9.022344
1001.625000,13.275189,12.521110,11.664463,10.207721
1001.628906,10.090739,9.914388,8.380853,5.582165
1001.632812,6.009170,7.423216,10.887241,10.298615
1001.636719,11.241184,9.601019,10.743753,2.845797
1001.640625,-0.224511,7.732614,5.490463,1.825853
1001.644531,3.980760,-4.104362,4.177945,2.420129
1001.648438,5.303639,0.256961,4.609982,-0.443002
1001.652344,-7.930789,-7.420024,-7.538151,-3.182364
1001.656250,-2.082209,-1.746939,-6.179698,-0.709186
1001.660156,0.711929,-5.271416,-13.162957,-6.991030
1001.664062,-17.592875,-8.636234,-7.636400,-7.841163
1001.667969,-5.296387,-5.721685,-11.292489,-12.402754
1001.671875,-10.867574,-5.011979,-9.065881,-1.837204
1001.675781,-8.602994,-15.618495,-8.652173,-5.866851
1001.679688,-14.650715,-7.073267,-9.323171,-3.889209
1001.683594,-7.789817,-13.839563,-7.955448,-10.229341
1001.687500,-6.306922,-6.934706,-11.484916,-5.582340
1001.691406,-4.897555,-7.127126,-3.554571,-8.499404
1001.695312,-11.903345,-2.385747,-8.484528,-4.953404
1001.699219,-0.685881,-3.153636,0.117650,5.863527
1001.703125,-0.165975,-1.786234,0.419236,7.294325
1001.707031,5.569639,-1.447721,7.125324,6.508337
1001.710938,16.715622,2.406639,4.424361,8.674551
1001.714844,1.292421,14.387340,12.845540,10.859689
1001.718750,12.737345,11.753773,8.202932,-1.384592
1001.722656,13.994129,6.628837,8.305320,11.311919
1001.726562,16.637585,4.253213,12.554859,9.357163
1001.730469,4.893721,6.236834,9.267708,7.380445
1001.734375,9.419820,11.523837,6.182432,6.986818
1001.738281,8.449799,3.146981,5.276659,9.796142
1001.742188,8.077364,10.098276,6.715711,6.185986
1001.746094,4.791183,6.706508,1.655173,2.092176
1001.750000,-1.158810,-4.952703,-6.054699,4.474536
1001.753906,4.303131,-1.518355,-1.263371,-5.270513
1001.757812,0.476599,-3.386859,-1.605734,-3.367599
1001.761719,-10.456808,-6.154980,-8.390626,-9.210283
1001.765625,-13.396699,-5.862313,-5.169387,-8.053343
1001.769531,-3.068534,-9.249855,-7.574439,-11.551485
1001.773438,-12.561278,-12.851274,-13.556854,-14.491303
1001.777344,-11.274877,-1.476590,-5.234071,-11.782635
1001.781250,-16.300941,-8.393100,-3.266236,-12.414672
1001.785156,-13.317844,-6.651917,-9.382141,-9.339447
1001.789062,-2.007246,-4.545113,-5.968670,-7.372881
1001.792969,-5.949160,0.725179,-8.020680,-2.279064
1001.796875,-2.439965,-5.219091,-1.598639,-6.609757
1001.800781,-4.588098,1.126462,2.311320,-4.196566
1001.804688,0.540432,-0.374955,4.690115,8.970318
1001.808594,10.672824,-3.381744,-1.263683,1.349617
1001.812500,13.889839,10.453632,4.988536,4.609758
1001.816406,6.724537,9.152834,11.688029,4.276701
1001.820312,12.907676,17.049453,7.954275,11.667111
1001.824219,8.963066,16.561000,13.208237,14.061256
1001.828125,5.780418,12.619273,9.930813,3.158615
1001.832031,2.461010,10.927995,13.052736,11.028620
1001.835938,7.559257,7.747237,13.943481,3.856950
1001.839844,7.840652,5.869623,16.479630,5.468074
1001.843750,4.295867,5.613976,-1.043407,-0.407254
1001.847656,-0.553879,2.478193,2.457072,5.181260
1001.851562,-3.311129,2.564430,-1.560266,-6.136836
1001.855469,-4.837369,-2.224089,-3.663574,-7.388593
1001.859375,-5.027347,-6.613011,-2.366126,-6.928362
1001.863281,-9.011689,-7.826579,0.031575,-4.267846
1001.867188,-10.343394,-12.417111,-13.287840,-11.723060
1001.871094,-16.669470,-9.597781,-7.771709,-14.432655
1001.875000,-7.943639,-9.560649,-10.928789,-8.953484
1001.878906,-13.782800,-10.895515,-6.850157,-7.613995
1001.882812,-12.022325,-13.309960,-11.074251,-8.855679
1001.886719,-5.755466,-8.137881,-14.580688,-9.979827
1001.890625,-4.379146,-3.197302,-1.477165,-7.670991
1001.894531,-6.902493,-2.525199,-7.398486,-1.982230
1001.898438,5.935689,-0.172470,-3.823546,-0.993873
1001.902344,3.602441,-3.376698,7.487729,0.320616
1001.906250,3.072183,-4.864112,3.855099,3.168507
1001.910156,7.017994,-1.470455,6.216437,9.806252
1001.914062,5.131317,4.375199,15.524608,-1.574598
1001.917969,14.494443,10.021312,8.987726,13.287421
1001.921875,8.443981,5.318412,8.863993,6.178061
1001.925781,11.684354,7.117504,7.007031,15.711487
1001.929688,15.070155,1.764235,4.199279,10.248578
1001.933594,15.210822,6.142141,7.728514,3.568154
1001.937500,7.401420,8.434584,11.560536,8.657142
1001.941406,2.147660,4.296005,-2.327222,4.327444
1001.945312,5.255201,5.183690,6.693118,0.528312
1001.949219,-6.066559,5.916591,0.932885,0.465755
1001.953125,-0.860863,-5.463536,5.000009,2.448321
1001.957031,-1.181956,-5.568668,3.227594,4.167990
1001.960938,-11.228831,-2.918255,-4.394545,-10.115025
1001.964844,-7.821666,-2.638252,-14.600931,-3.032398
1001.968750,-14.532141,-6.733455,-12.429683,-14.015201
1001.972656,-12.979359,-12.400464,-9.799430,-9.414177
1001.976562,-7.888333,-9.682751,-9.704796,-10.309106
1001.980469,-16.086113,-9.132475,-13.530927,-9.316419
1001.984375,-10.206910,-7.110246,-7.037213,-15.011465
1001.988281,-10.698779,-5.086396,-9.211048,-9.887782
1001.992188,-5.055904,-3.333489,-9.113864,-2.533630
1001.996094,0.902196,-8.587493,-1.310042,2.422999
1002.000000,1.727963,2.420475,0.297920,-1.534832
1002.003906,2.333963,-0.148533,4.760437,0.866855
1002.007812,1.541468,2.099566,5.898937,10.444375
1002.011719,3.033305,7.949876,9.904508,9.653712
1002.015625,13.548497,14.165415,11.025880,8.991521
1002.019531,8.518922,12.111840,9.439788,17.609471
1002.023438,11.725473,17.684385,12.524602,10.072395
1002.027344,12.860700,9.124084,7.792030,9.976491
1002.031250,9.965286,9.262241,4.160933,6.270524
1002.035156,6.900460,0.078865,9.370275,15.634187
1002.039062,2.966171,7.023739,9.449847,15.239066
1002.042969,2.060475,5.502398,5.259197,1.522076
1002.046875,1.540125,1.929077,-1.096255,-2.838015
1002.050781,2.619483,2.576252,-2.739335,-1.880583
1002.054688,-1.418441,1.176332,-0.680294,-5.553767
1002.058594,-8.314903,-4.286267,-5.075809,0.181913
1002.062500,-1.461627,-9.309085,-7.656576,-4.870556
1002.066406,-11.929693,-10.520364,-6.101704,-11.799759
1002.070312,-2.385057,-11.002427,-8.176685,-13.455006
1002.074219,-2.564458,-7.849377,-7.591331,-11.243291
1002.078125,-6.399018,-8.383452,-9.891999,-7.944679
1002.082031,-15.255783,-6.672625,-1.865642,-10.286879
1002.085938,-12.894462,-16.340471,-9.080030,-6.850623
1002.089844,2.983720,-3.389402,-14.741336,-6.321471
1002.093750,-3.805711,-5.048978,-2.599048,-2.951482
1002.097656,-2.940111,0.356852,1.369698,1.196882
1002.101562,2.187035,2.076695,-3.798756,2.630643
1002.105469,5.973400,4.850031,7.759823,4.223379
1002.109375,1.163499,-5.043493,-1.735773,2.776406
1002.113281,0.789411,8.512575,10.153038,2.396770
1002.117188,12.104322,9.320228,9.098781,8.798461
1002.121094,9.083738,10.429580,15.394036,7.488649
1002.125000,7.181853,9.876742,7.781950,8.817729
1002.128906,6.104301,10.635658,8.381775,6.831595
1002.132812,12.324304,-2.165240,12.916962,13.362047
1002.136719,16.387975,9.529185,14.083279,13.673398
1002.140625,6.393700,3.672464,8.147191,-2.369476
1002.144531,-0.035713,5.765122,9.985966,2.776349
1002.148438,-1.241505,6.446253,7.102956,1.572467
1002.152344,0.476269,-4.266265,0.816911,-3.550312
1002.156250,-2.696687,-3.338318,-1.464397,-4.115947
1002.160156,1.014664,-12.443722,-0.793592,-9.246154
1002.164062,-12.506280,-12.754425,-7.784991,-9.072444
1002.167969,-7.929445,-11.630937,-12.761593,-5.672742
1002.171875,-4.126022,-17.916390,-16.229203,-10.411387
1002.175781,-11.611298,-12.875120,-13.053863,-4.935343
1002.179688,-14.814186,-10.839956,-15.348994,-13.749511
1002.183594,-7.360803,-6.077245,-6.226020,-4.137786
1002.187500,-0.932771,-11.443670,-16.455283,-3.897084
1002.191406,-7.713292,-6.712810,-15.282265,-12.058292
1002.195312,0.856501,-3.774776,-1.126766,-3.732212
1002.199219,-0.568659,-3.083681,0.792284,-8.355934
1002.203125,5.559857,-4.470336,-5.808877,4.813129
1002.207031,0.904523,4.221391,4.076140,-0.164875
1002.210938,5.116675,-1.058122,4.533319,11.105359
1002.214844,4.603658,6.708747,7.997447,6.290009
1002.218750,8.380735,8.865149,11.076237,11.038975
1002.222656,12.598375,5.979604,7.334337,9.008115
1002.226562,9.262430,9.525840,14.867346,17.585320
1002.230469,10.152359,2.133181,9.307076,16.573179
1002.234375,4.770219,6.328367,6.059117,9.031841
1002.238281,10.510383,-5.932230,6.722064,8.939753
1002.242188,-0.369650,3.644619,-2.312963,6.468609
1002.246094,-1.867802,4.598101,7.111061,12.701786
1002.250000,-4.052368,-4.985530,-2.278396,0.824557
1002.253906,-2.748714,-3.548918,-5.366789,-2.270788
1002.257812,-5.598773,-1.616963,-10.889519,-7.982612
1002.261719,-5.507517,-5.512195,-11.413338,-6.446984
1002.265625,-8.120399,-8.585201,-9.527616,-16.642026
1002.269531,-7.745572,-13.281559,-4.862188,-3.393354
1002.273438,-14.772168,-9.068001,-12.724273,-11.377047
1002.277344,-14.252268,-14.826413,-4.499861,-5.940236
1002.281250,-7.236594,-8.640494,-8.291610,-17.094471
1002.285156,-8.184162,-4.862196,-11.227805,-11.198218
1002.289062,-7.030208,-3.874583,-5.586970,-7.596074
1002.292969,-11.950215,-0.400433,4.745110,-9.305655
1002.296875,-7.469559,-2.860071,-0.812420,1.770810
1002.300781,3.445380,6.652099,-3.022101,5.415863
1002.304688,1.960842,4.742409,-2.040807,5.044557
1002.308594,4.034023,9.277986,7.475286,6.344216
1002.312500,6.788132,2.640747,9.957477,15.356686
1002.316406,8.078920,16.566680,10.458896,11.236289
1002.320312,8.037320,10.261793,9.045642,8.883071
1002.324219,13.194387,9.844703,10.010578,10.778539
1002.328125,12.844133,1.255267,12.456951,13.371234
1002.332031,9.099346,6.704700,12.357901,9.519437
1002.335938,12.096389,10.498588,5.819531,7.463159
1002.339844,5.770500,7.354568,2.556351,3.114018
1002.343750,3.612478,2.509772,9.444671,10.073789
1002.347656,3.577482,9.567459,1.468236,4.772323
1002.351562,0.750691,-0.897585,-3.683782,10.642282
1002.355469,-3.022823,0.453094,-0.693656,-2.877355
1002.359375,-4.523687,-2.022140,-5.215638,-1.915926
1002.363281,-17.309423,-7.002101,-5.908576,-11.122974
1002.367188,-6.603858,-5.071462,-9.611775,-7.689710
1002.371094,-11.295511,-2.427154,-10.614974,-10.579177
1002.375000,-9.490574,-9.879228,-16.256242,-12.174175
1002.378906,-12.279081,-10.080761,-10.998535,-15.586176
1002.382812,-12.353185,-7.628705,-9.966724,-3.874249
1002.386719,-8.220169,-14.329912,-1.612509,-5.822098
1002.390625,-8.904632,-1.894450,-8.314900,-5.734745
1002.394531,-3.177333,3.373557,-5.766404,-0.817047
1002.398438,-2.111035,-0.436267,-4.287167,0.421583
1002.402344,1.852274,0.421237,2.948318,9.958422
1002.406250,3.989434,3.340070,0.513126,3.125976
1002.410156,7.744530,5.092315,7.027578,4.619528
1002.414062,5.549113,7.363263,9.972477,5.671139
1002.417969,12.265074,10.495435,7.840882,11.962879
1002.421875,13.041693,11.085852,10.970118,8.975350
1002.425781,0.321716,9.893657,9.820187,16.706936
1002.429688,12.860634,11.715240,11.803908,7.414346
1002.433594,4.583058,7.484009,10.428782,2.587150
1002.437500,11.309745,4.602481,9.346731,7.022658
1002.441406,5.573912,2.988876,1.610144,3.984862
1002.445312,1.912589,14.334927,7.534614,-1.458308
1002.449219,-5.081701,-4.786929,-2.124010,-8.248106
1002.453125,2.349576,-2.925791,-3.694389,-0.441334
1002.457031,-2.394972,1.969452,-0.210465,-4.138115
1002.460938,-9.460826,-8.649495,-8.540904,-1.954115
1002.464844,-4.842081,-2.515955,-2.641696,-12.002699
1002.468750,-4.585359,-10.020153,-12.806214,-14.935572
1002.472656,-6.363600,-10.280134,-9.067602,-11.298488
1002.476562,-11.279707,-12.661245,-9.296447,-12.732988
1002.480469,-18.407923,-8.519886,-6.524972,-22.151858
1002.484375,-10.870693,-11.491867,-9.316026,-8.999450
1002.488281,-8.690119,-8.227948,-3.978197,-7.273390
1002.492188,-8.551895,-3.136288,-2.606273,-3.632463
1002.496094,-0.741136,-6.557360,0.303131,-0.985333
1002.500000,-3.198843,-4.445858,1.760268,1.308159
1002.503906,3.009737,4.918574,8.279073,-3.398680
1002.507812,7.796461,1.830729,0.048517,3.826916
1002.511719,13.322995,14.029199,8.166895,6.418504
1002.515625,10.472974,8.408076,8.324512,3.978187
1002.519531,12.591055,4.361808,9.157919,7.578491
1002.523438,3.217078,13.963859,13.509089,9.166747
1002.527344,12.890317,6.495495,12.667132,9.695358
1002.531250,14.573561,11.704093,11.272758,14.202472
1002.535156,6.519217,10.669255,13.430788,2.285520
1002.539062,4.668603,-0.959623,11.155766,3.396837
1002.542969,4.765750,4.322925,3.814944,6.734804
1002.546875,-3.969230,2.914454,4.902145,-0.299191
1002.550781,-8.010502,-1.194990,-1.304314,-1.600081
1002.554688,-0.820315,-3.496388,-6.911746,0.782180
1002.558594,-4.168179,-12.807496,-7.390510,-3.667057
1002.562500,-13.414787,-2.267709,-5.676081,-5.914696
1002.566406,-7.818440,-9.569611,-8.926821,-6.047551
1002.570312,-12.086021,-8.092206,-10.065024,-10.557993
1002.574219,-17.913202,-9.718980,-17.360201,-1.215590
1002.578125,-12.811330,-10.880379,-15.516593,-4.060684
1002.582031,-20.813036,-8.772301,-11.128073,-11.479378
1002.585938,-7.340739,-9.884149,-7.819657,-13.105445
1002.589844,-3.091717,-1.408195,-3.160313,-4.566723
1002.593750,-10.090858,0.195544,-3.126343,-2.173529
1002.597656,-8.692794,-8.656770,1.534471,-7.506107
1002.601562,1.383429,6.527242,-5.931327,-1.632944
1002.605469,5.081310,5.046363,4.452631,2.441284
1002.609375,4.480640,3.487738,1.549996,8.860903
1002.613281,10.214330,14.164658,6.226254,9.896936
1002.617188,19.795185,12.547462,7.403852,6.856675
1002.621094,5.202448,10.231240,12.112102,9.710063
1002.625000,11.253004,4.834138,9.871429,7.381061
1002.628906,10.400587,8.011154,9.992022,7.012104
1002.632812,13.199732,17.886843,4.466833,2.298043
1002.636719,3.537180,7.099921,5.539609,7.797045
1002.640625,14.228983,2.732267,10.105416,4.085031
1002.644531,4.128312,4.343661,6.899026,-0.004586
1002.648438,0.948887,0.119029,-1.221888,-3.189639
1002.652344,-10.256725,-6.044529,0.132559,-5.521832
1002.656250,-12.100019,-2.848483,-1.580845,-7.775659
1002.660156,4.843762,-1.847898,-2.510108,-1.161920
1002.664062,0.424489,-5.246577,-10.817704,-6.287753
1002.667969,-12.557539,-7.383912,-7.601090,-6.237370
1002.671875,-8.649479,-11.834163,-6.937807,-13.456142
1002.675781,-8.655168,-11.491882,-10.491309,-6.873597
1002.679688,-6.516743,-5.555196,-15.830937,-4.267894
1002.683594,-9.723084,-2.647133,-12.161240,-9.199862
1002.687500,-11.543627,-7.134945,-10.644446,-12.401192
1002.691406,-6.092999,-3.178917,-3.669792,4.265266
1002.695312,-9.589622,-6.409431,0.658894,-2.668997
1002.699219,-5.276058,2.266616,-0.510537,-3.191407
1002.703125,1.840062,8.378127,4.710696,-0.447714
1002.707031,4.026912,5.314976,6.196271,1.766348
1002.710938,9.743387,2.674263,3.979721,9.299365
1002.714844,9.987828,10.304139,0.397817,12.340385
1002.718750,8.288137,6.553384,6.311190,1.681812
1002.722656,8.039182,4.434756,8.252269,7.854132
1002.726562,9.551865,13.497595,11.814796,1.660907
1002.730469,13.932289,9.981263,13.342961,10.204540
1002.734375,19.121492,5.198269,12.301467,3.566579
1002.738281,9.770832,2.304765,2.597334,1.690351
1002.742188,-3.817636,7.759419,6.027439,7.499079
1002.746094,7.387975,4.087283,-0.828098,-1.932157
1002.750000,2.534228,2.664374,2.991698,0.374014
1002.753906,-8.148421,1.415646,2.087679,4.851159
1002.757812,-9.158345,-6.485725,-2.152243,-5.693206
1002.761719,-1.812338,-7.207665,-6.641503,-11.829366
1002.765625,-2.151287,-12.309525,-4.142573,-5.532603
1002.769531,-10.487276,-17.010714,-13.813371,-2.093122
1002.773438,-12.660138,-13.600451,-5.627549,-6.205011
1002.777344,-10.222666,-6.368727,-8.819669,-8.748137
1002.781250,-7.661920,-12.179761,-9.254271,-7.250960
1002.785156,-10.869190,-5.493718,-1.267074,-15.168109
1002.789062,-8.990249,-0.990686,-3.388349,-8.093129
1002.792969,-8.518610,6.716846,-3.277330,-6.687947
1002.796875,6.855880,1.013754,-3.139661,5.543017
1002.800781,-2.197128,-4.724673,7.110003,3.398707
1002.804688,0.799109,-2.686030,7.357255,1.284515
1002.808594,7.886474,13.488187,3.564136,7.363405
1002.812500,4.280324,15.808066,5.071821,11.920183
1002.816406,13.300302,3.184832,11.209834,7.944877
1002.820312,7.048512,11.116493,13.376102,7.999561
1002.824219,19.817757,9.245000,6.707175,4.529331
1002.828125,12.931518,13.572619,10.792151,13.220432
1002.832031,5.027715,8.445771,11.747504,8.511291
1002.835938,9.076017,8.370695,14.115106,3.101058
1002.839844,11.446306,3.569600,-0.547156,5.761086
1002.843750,9.947615,6.893133,9.288811,8.244368
1002.847656,-7.426096,7.857900,2.722510,0.675350
1002.851562,5.059442,-2.299815,-6.889478,3.897328
1002.855469,-2.708961,-0.669780,-9.234154,-9.047809
1002.859375,-9.367608,-6.179527,-8.273296,-7.929628
1002.863281,-1.476734,-10.706916,-6.526839,-16.352176
1002.867188,-5.314760,-8.714834,-9.521741,-13.020924
1002.871094,-6.757484,-6.774254,-12.908143,-13.872224
1002.875000,-5.430241,-0.400097,-6.277127,-6.154746
1002.878906,1.902112,-10.172355,-2.260947,-8.298501
1002.882812,-12.627480,-1.995445,-6.597721,-9.754112
1002.886719,-7.603575,-4.679503,-6.211105,-2.508603
1002.890625,-6.975009,-7.685581,-3.935797,-3.923193
1002.894531,-5.609490,-1.070696,-0.095596,-11.329274
1002.898438,1.527337,-3.201338,0.030383,-2.811837
1002.902344,1.879983,-1.536444,-0.027014,-1.374970
1002.906250,5.279664,4.292843,3.698117,4.116202
1002.910156,6.702972,-4.126950,15.806691,5.096507
1002.914062,6.542683,6.619110,4.546897,1.079095
1002.917969,4.378920,9.124399,5.531801,8.711709
1002.921875,5.447705,13.772632,7.353256,7.975154
1002.925781,17.731137,6.259078,2.807934,12.255211
1002.929688,14.765916,11.873576,8.127805,5.629519
1002.933594,8.935009,4.035985,-2.543538,10.538978
1002.937500,8.722676,7.446895,-0.218139,7.095504
1002.941406,5.128397,11.737832,0.597744,4.619552
1002.945312,3.560682,3.781975,3.554023,2.744231
1002.949219,2.881800,5.424309,-6.707046,6.379716
1002.953125,-3.838973,-0.185908,0.589476,-3.829815
1002.957031,-0.805008,-3.079113,-5.475666,-7.753401
1002.960938,-11.033332,-10.313375,-8.526109,-7.807925
1002.964844,-10.784509,-8.428403,-5.946701,-7.589195
1002.968750,-6.458093,-11.631555,-12.675898,-10.527478
1002.972656,-8.016321,-8.972698,-5.663616,-10.589523
1002.976562,-10.461148,-7.569535,-14.755180,-4.789965
1002.980469,-9.544397,-12.322303,-12.284691,-4.149239
1002.984375,-7.949864,-9.911631,-13.782125,-12.067676
1002.988281,-6.921371,-7.006609,-6.579563,-14.253004
1002.992188,-5.278488,-5.995152,-6.988043,-11.814373
1002.996094,2.321551,4.918594,-5.082292,-5.838365
1003.000000,4.028703,4.233788,1.474331,3.075535
1003.003906,8.788064,10.190648,6.944319,-0.549144
1003.007812,4.751674,6.609359,6.209967,4.153545
1003.011719,-4.509911,10.318448,8.541515,6.958590
1003.015625,7.344468,9.162660,16.341128,-1.339508
1003.019531,12.057410,10.346622,1.421576,15.604670
1003.023438,5.550365,6.657923,12.604001,9.187243
1003.027344,8.633416,9.139854,14.100677,9.701016
1003.031250,-2.475375,10.292471,13.538567,4.771048
1003.035156,8.806453,11.701407,4.614615,8.078870
1003.039062,5.106472,4.159382,16.905584,7.879401
1003.042969,4.320522,5.414505,1.834119,0.639852
1003.046875,6.589072,4.119655,-1.765234,-0.047549
1003.050781,-3.648244,2.523893,0.017578,-4.231940
1003.054688,-2.338506,-0.442121,-0.105227,-2.793355
1003.058594,1.555589,-6.902692,-4.907258,-6.323299
1003.062500,-7.271099,-7.190059,-14.059459,-2.077138
1003.066406,-11.557163,-0.167429,-8.156976,-13.199442
1003.070312,-8.853315,-7.543193,-14.115242,-2.603674
1003.074219,-7.563746,-8.427572,-9.844979,-11.708488
1003.078125,-5.594305,-15.527995,-11.961940,-11.740110
1003.082031,-12.649358,-8.166518,-13.629840,-5.782474
1003.085938,-9.626216,-13.916903,-1.888217,-6.850978
1003.089844,-1.171410,-6.435948,-6.084687,-15.836425
1003.093750,3.432019,0.961500,-4.481800,0.883501
1003.097656,-2.783332,-1.414297,1.826548,-4.943149
1003.101562,5.030038,-5.344585,-0.051539,1.703810
1003.105469,6.719409,6.130057,4.264712,4.369560
1003.109375,0.701019,7.292039,5.751325,4.001112
1003.113281,4.789103,4.494163,4.972019,4.345591
1003.117188,3.260750,0.402763,11.541454,12.085236
1003.121094,7.814028,12.893140,8.202272,14.792053
1003.125000,3.431665,3.214156,10.741768,13.291767
1003.128906,13.851666,10.915412,10.004618,6.801798
1003.132812,10.423777,11.421419,13.048288,6.346882
1003.136719,6.444668,3.849345,8.659876,11.346227
1003.140625,0.381126,6.282913,-2.192969,4.677276
1003.144531,-0.433398,10.753371,14.728702,6.334341
1003.148438,-3.148733,-7.812811,-0.689850,4.940116
1003.152344,4.068557,-4.274655,-4.692530,-4.075523
1003.156250,-3.518063,-0.728978,-6.343922,-6.604475
1003.160156,-8.278873,-10.403881,-9.080884,-14.525793
1003.164062,-11.650865,-9.078383,-13.539460,-12.947918
1003.167969,-6.335865,-13.599031,-6.608011,-5.017192
1003.171875,-8.838091,-9.191169,-6.904589,-6.217572
1003.175781,-11.430356,-8.175323,-17.656439,-9.012476
1003.179688,-6.869780,-7.859857,-2.724768,-11.314961
1003.183594,-4.185223,-8.593200,-0.304439,-7.601306
1003.187500,-1.450220,-4.937004,-4.259858,-17.048699
1003.191406,-5.888430,-3.279420,-4.781254,-2.858590
1003.195312,-6.367253,-11.186221,-3.845165,-10.415568
1003.199219,-4.231598,-0.295180,1.452468,2.383227
1003.203125,-1.610759,-1.653539,9.502570,3.488214
1003.207031,6.124986,3.722323,1.210956,7.769235
1003.210938,-2.979857,4.686497,5.843796,9.706847
1003.214844,6.494675,14.008743,10.825914,4.089873
1003.218750,2.618319,9.945088,12.407580,2.202812
1003.222656,7.194792,-3.751948,8.510670,7.903726
1003.226562,5.268365,13.581416,5.534952,10.362341
1003.230469,9.948287,9.677180,9.306302,5.491481
1003.234375,3.942887,12.094949,11.608389,6.739271
1003.238281,9.773755,12.422536,3.710515,8.645019
1003.242188,15.732364,5.073663,8.936350,3.150669
1003.246094,3.830224,-1.594087,-6.803439,2.758553
1003.250000,-0.546717,3.770921,-3.344184,3.766344
1003.253906,-0.931394,-3.007712,-1.506402,-2.125552
1003.257812,-1.482822,-11.041131,-9.165331,-7.418569
1003.261719,-8.961400,-3.315608,-11.649724,-3.424737
1003.265625,-10.712297,-13.586739,-10.843358,-7.147751
1003.269531,-7.348149,-9.550211,-8.021906,-11.291362
1003.273438,-8.976127,-7.117802,-5.180784,-9.704632
1003.277344,-10.495314,-9.175018,-15.081715,-10.491629
1003.281250,-7.139758,-4.576740,-3.086327,-4.843303
1003.285156,-9.477433,-14.297881,-4.426864,-7.547560
1003.289062,-4.838107,-6.866258,-5.691964,-9.726977
1003.292969,-0.848161,-13.751130,1.197685,-5.129319
1003.296875,2.489934,-5.178056,1.264797,3.269563
1003.300781,-2.508929,1.032431,2.177073,3.286385
1003.304688,7.108629,2.295103,-1.696210,3.640114
1003.308594,6.993375,1.553587,1.136531,10.939408
1003.312500,1.295027,4.159208,11.120532,-1.685773
1003.316406,12.028021,9.920020,7.008784,8.734937
1003.320312,11.301959,11.084929,10.792620,11.861408
1003.324219,15.718994,14.011942,7.353502,10.954517
1003.328125,16.014607,10.986724,9.577516,13.220739
1003.332031,12.070574,8.530374,9.878905,13.914883
1003.335938,14.295669,11.690596,5.291736,4.369827
1003.339844,4.925529,8.299966,-1.651341,1.110019
1003.343750,14.901246,5.517663,2.414760,10.989840
1003.347656,-2.800740,3.294721,3.848113,-2.637744
1003.351562,-2.096443,1.456876,0.423247,3.795108
1003.355469,4.116653,0.954633,-1.898230,-4.847918
1003.359375,-7.452690,-0.940164,-4.755363,-10.625366
1003.363281,-9.412562,-6.925234,-5.064132,-9.960713
1003.367188,-14.251741,-7.930189,-9.293171,-10.517877
1003.371094,-12.339985,-7.663956,-6.943197,-8.422142
1003.375000,-9.149163,-10.603980,-12.142632,-10.554605
1003.378906,-7.788629,-7.408216,-9.268267,-8.063687
1003.382812,-11.910534,-1.797890,-2.830358,-12.090886
1003.386719,-6.259943,-0.483881,-10.029216,-8.411935
1003.390625,-2.948378,-2.137697,-4.771136,-8.421558
1003.394531,-6.188645,-6.480978,-1.609232,0.280806
1003.398438,-0.541498,-0.308689,-5.825376,-6.643678
1003.402344,2.402393,-1.244859,-2.438126,5.367741
1003.406250,6.924967,9.586383,8.247132,2.716411
1003.410156,3.922127,10.492265,3.660538,2.700688
1003.414062,14.561927,4.823468,10.441383,8.719563
1003.417969,6.516241,7.461066,10.148372,4.148712
1003.421875,10.883962,10.286396,7.328767,11.303772
1003.425781,12.898252,12.653373,10.111509,6.063910
1003.429688,13.473884,12.533575,2.293912,3.749780
1003.433594,5.599630,11.219183,8.549344,8.585581
1003.437500,9.219520,-0.046259,14.479401,7.160120
1003.441406,0.912777,4.566465,2.422037,7.572133
1003.445312,1.812441,3.006185,3.792910,2.529532
1003.449219,-9.242185,10.022807,-4.858972,2.422220
1003.453125,1.718469,1.708055,2.363257,-0.534193
1003.457031,-1.201783,-6.495844,-8.732168,-5.703945
1003.460938,-3.880636,-5.969850,-1.696486,-5.185678
1003.464844,1.302684,-12.810732,4.154966,-8.525492
1003.468750,-9.287616,-12.892601,-12.181466,-13.269705
1003.472656,-9.879353,-6.578644,-9.664568,-7.729346
1003.476562,-4.883311,-7.901921,-17.251278,-9.742132
1003.480469,-3.379522,-11.320952,-8.689438,-12.510957
1003.484375,-2.760693,-10.537852,-11.388851,-11.529966
1003.488281,-6.403326,-14.239541,-8.807335,-9.681768
1003.492188,-0.756424,-5.480521,-2.093547,-2.397305
1003.496094,-3.874361,-4.136537,-3.032366,-1.159621
1003.500000,-4.052538,0.662310,7.789220,4.560454
1003.503906,3.584489,6.021405,8.336596,-0.498686
1003.507812,2.936306,8.838978,3.036594,-2.397551
1003.511719,4.535988,9.763499,8.968524,7.800400
1003.515625,8.636208,6.206169,6.783192,5.870014
1003.519531,6.646730,2.909847,15.736316,1.570251
1003.523438,10.802631,9.538800,5.651938,9.863452
1003.527344,15.193593,-1.390853,12.502503,10.393267
1003.531250,9.007590,11.164314,11.809712,15.538281
1003.535156,-0.584218,5.655105,6.411894,10.031167
1003.539062,5.457687,12.777680,2.860289,9.606266
1003.542969,0.458779,3.423428,-2.547432,2.606370
1003.546875,-6.244305,3.019232,-3.203851,4.192503
1003.550781,-0.387347,0.745584,1.698566,1.562020
1003.554688,-8.155247,-4.097817,-13.928711,-8.330054
1003.558594,-6.481473,-3.380460,-9.789834,-13.555057
1003.562500,-6.173954,-3.379325,-6.906218,-3.982676
1003.566406,-7.975068,-8.060446,-10.626570,-12.015270
1003.570312,-15.142829,-10.953103,-6.819679,-9.614350
1003.574219,-14.286545,-13.443230,1.670773,-13.408347
1003.578125,-17.108972,-9.256867,-1.005844,-7.673373
1003.582031,-10.326021,-8.594892,-5.509367,-5.244664
1003.585938,-14.356592,-13.699820,-6.405116,-9.977762
1003.589844,-1.255621,-9.233992,-8.942039,-8.184859
1003.593750,1.323294,-6.400618,-10.734402,-7.459903
1003.597656,1.780546,-7.537074,-2.413956,-2.033961
1003.601562,1.225270,-2.641540,6.351574,1.099426
1003.605469,3.423271,6.978505,2.215496,-3.823057
1003.609375,10.923153,1.342177,8.956789,7.885497
1003.613281,0.625298,8.005935,8.181044,12.595615
1003.617188,4.916210,10.264664,10.197556,2.690415
1003.621094,10.940925,10.584939,7.256443,7.477438
1003.625000,15.547015,11.720082,9.277318,10.628097
1003.628906,8.304657,10.323185,2.947058,3.643410
1003.632812,11.216386,4.682497,8.161491,13.092705
1003.636719,5.962229,4.329485,-4.349229,9.119872
1003.640625,4.114045,7.795716,8.450235,6.170304
1003.644531,2.596624,9.745613,1.317548,-0.393390
1003.648438,5.783132,2.636617,9.132965,-8.087902
1003.652344,-7.064581,-2.017009,-4.091495,0.694701
1003.656250,-2.815090,-7.157716,-4.255745,-8.687448
1003.660156,-7.807149,-5.703881,1.967320,-14.957149
1003.664062,-6.448704,-0.453058,-7.835604,-2.063694
1003.667969,-9.921274,-7.243865,-5.988217,-9.527623
1003.671875,-7.609534,-14.197795,-10.943382,-13.484085
1003.675781,-11.760947,-6.611096,-12.805497,-11.595174
1003.679688,-6.221195,-8.535001,-14.008423,-10.724092
1003.683594,-7.930922,-8.468650,-6.051020,-2.491267
1003.687500,-9.050838,-8.820094,-7.992972,-4.649097
1003.691406,-13.640567,-8.430666,-6.366730,-2.296150
1003.695312,2.004457,4.387204,-2.843049,0.422917
1003.699219,-7.861942,-6.939515,6.224074,-2.408712
1003.703125,4.460265,-5.109414,2.465584,3.902254
1003.707031,3.609003,4.258509,8.575270,-4.491931
1003.710938,9.446386,4.676782,11.076482,11.413823
1003.714844,9.827026,15.541069,7.364176,2.977500
1003.718750,6.266681,7.609684,4.453505,4.388055
1003.722656,13.004332,12.518016,10.265957,9.655800
1003.726562,7.062087,7.822769,10.114000,15.080439
1003.730469,8.073462,5.751664,10.058044,12.248205
1003.734375,8.470834,8.908016,13.807463,3.479754
1003.738281,8.615004,13.395571,5.406015,11.074787
1003.742188,6.623303,8.051852,3.450194,-0.714627
1003.746094,2.702671,8.342491,-0.745006,5.823009
1003.750000,1.472585,0.375145,1.134038,-3.326958
1003.753906,-7.633047,-3.273996,-2.544312,-2.899693
1003.757812,-11.359949,-7.501116,-8.333105,0.285226
1003.761719,-5.069064,-6.366457,-6.022173,-4.044500
1003.765625,-8.756894,-12.178364,-1.762102,-11.898640
1003.769531,-3.923125,-8.899019,-5.770885,-11.415271
1003.773438,-6.796676,-13.823951,-2.210080,-11.187712
1003.777344,-7.840282,-5.268122,-10.084447,-9.505758
1003.781250,-12.114482,-11.540794,-11.965291,-12.853519
1003.785156,-6.373015,-10.847949,-7.610201,-11.712038
1003.789062,-8.997508,-10.200668,-0.123217,-4.266342
1003.792969,-6.683867,-0.360303,-9.679260,-6.425622
1003.796875,-5.244659,5.470385,-3.759768,-7.310483
1003.800781,5.256488,-4.410562,-3.667076,1.306269
1003.804688,5.246263,-4.445613,5.788843,0.826955
1003.808594,9.508897,6.196393,4.497069,9.439644
1003.812500,8.131883,12.726265,9.402120,6.965262
1003.816406,12.280971,5.957547,9.741410,3.419080
1003.820312,11.409080,10.037788,11.593093,2.550089
1003.824219,11.455765,13.686238,10.034480,8.783968
1003.828125,13.283152,18.245154,8.401242,10.080551
1003.832031,5.475705,9.465541,9.395317,4.852230
1003.835938,8.584439,6.955335,4.842561,4.764679
1003.839844,6.889696,5.722542,5.517862,0.956219
1003.843750,4.289711,-2.473551,5.885793,6.116238
1003.847656,2.539822,-0.429671,2.355546,0.883086
1003.851562,-3.969835,-0.345813,-3.284789,2.105802
1003.855469,-0.191549,-5.563762,-2.936179,-6.510457
1003.859375,-6.547865,-6.123747,-8.039978,-6.911249
1003.863281,-9.998020,-9.160867,-8.607824,-10.714829
1003.867188,-15.694374,-10.267472,-3.366594,-0.886152
1003.871094,-14.037185,-15.106548,-9.346719,-4.976454
1003.875000,-8.763717,-10.554418,-15.739412,-12.458949
1003.878906,-6.425297,-10.343789,-13.364143,-8.016933
1003.882812,-6.155712,-6.773186,-12.104426,-14.592951
1003.886719,-7.333015,-5.414436,-9.747936,-7.683916
1003.890625,-11.701531,-0.973479,-1.085547,0.602686
1003.894531,-10.973913,-3.841343,2.907893,-9.858074
1003.898438,0.506561,0.118228,7.786420,-1.103524
1003.902344,7.230867,6.530960,3.043088,5.724226
1003.906250,1.502137,-1.073463,11.808745,5.278959
1003.910156,10.529885,9.458098,6.216081,11.997651
1003.914062,7.933057,6.836334,-1.440637,7.244183
1003.917969,12.900079,8.194271,5.313842,7.595805
1003.921875,6.260899,7.529176,6.178321,14.390239
1003.925781,17.687206,10.427968,7.160245,11.951719
1003.929688,18.395178,11.471102,10.077445,15.870645
1003.933594,9.436810,8.293548,6.058625,9.059073
1003.937500,5.330521,6.298684,9.382082,8.799450
1003.941406,9.236855,-0.836319,8.721418,10.631981
1003.945312,7.161564,7.666491,4.510300,2.530420
1003.949219,2.095824,0.511021,-1.971047,1.907047
1003.953125,-3.527462,-4.257878,-9.309985,1.933309
1003.957031,-1.411395,-1.093202,-5.555386,-4.755306
1003.960938,-5.931524,-7.810967,-1.236191,-6.080682
1003.964844,-7.222692,2.956945,-0.565239,-8.746791
1003.968750,-7.175788,-5.118419,-10.162065,-7.510422
1003.972656,-8.388316,-6.240738,-16.754429,-16.881932
1003.976562,-3.130510,-9.118993,-7.994813,-21.909481
1003.980469,-10.453410,-10.557013,-12.178088,-11.605773
1003.984375,-7.796875,-2.454628,-9.204971,-4.078058
1003.988281,-10.596068,-16.669554,-8.506541,-2.526162
1003.992188,-5.162915,-4.643002,-0.213650,-0.591569
1003.996094,0.559184,-2.819189,-0.033732,-7.887955
1004.000000,-0.449578,3.913515,-7.974070,6.703625
1004.003906,7.478359,5.064433,-0.222107,0.319268
1004.007812,12.488273,7.256288,-0.390124,-0.176448
1004.011719,3.176424,6.978381,15.239086,4.730258
1004.015625,12.547062,9.514776,9.912749,3.328837
1004.019531,13.344787,10.354899,7.922603,7.489033
1004.023438,10.983255,8.862980,15.625683,10.057405
1004.027344,11.481518,11.840958,11.775557,13.712230
1004.031250,6.585262,6.589804,13.443519,12.690007
1004.035156,13.230016,9.117766,8.437265,1.585923
1004.039062,9.359206,5.534939,10.152156,10.488800
1004.042969,7.329116,4.371552,2.693917,0.194104
1004.046875,3.134747,8.049312,-2.556632,0.171064
1004.050781,8.768889,-1.664713,-1.014259,-5.359854
1004.054688,3.242256,-10.064311,-2.241286,-3.807982
1004.058594,-7.900418,-8.840100,-0.904831,4.341945
1004.062500,-12.306425,3.076794,-6.993221,-10.114505
1004.066406,-14.057381,-10.716121,-6.387187,-6.263412
1004.070312,-6.771601,-13.852923,-7.694037,-7.368347
1004.074219,-5.362226,-10.543189,-10.293229,-8.546513
1004.078125,-5.217320,-12.473828,-17.184171,-14.030398
1004.082031,-11.716980,-4.417997,-12.557617,-8.854572
1004.085938,-16.302602,-2.708707,-7.733214,-13.059532
1004.089844,0.681912,-3.636568,-9.820507,-9.296914
1004.093750,-0.740807,-4.823385,0.378079,-7.602095
1004.097656,-1.740998,1.851742,-2.061974,-9.858631
1004.101562,4.536930,5.716663,6.221416,-0.270753
1004.105469,-1.741258,3.065742,1.846715,-0.050406
1004.109375,-1.359903,2.677610,5.036508,4.120328
1004.113281,2.605903,5.536265,8.580839,8.374855
1004.117188,9.896018,4.758845,2.877600,8.391392
1004.121094,10.010821,14.803225,5.753737,9.759736
1004.125000,8.053634,8.443739,12.928064,8.021511
1004.128906,14.418838,10.293514,10.825309,9.132634
1004.132812,5.705478,7.169419,15.045653,6.836679
1004.136719,14.669352,-0.638683,11.613466,10.789960
1004.140625,2.186823,1.913061,3.563738,6.497764
1004.144531,-4.090328,3.563642,2.660566,2.055697
1004.148438,-0.524011,-0.108886,-1.229809,5.367992
1004.152344,3.557676,-3.780323,-4.751650,2.352938
1004.156250,0.545110,1.414210,-5.814027,-6.190143
1004.160156,-9.115541,-0.825737,-8.341232,-5.032234
1004.164062,-6.563680,-1.561686,-3.189272,-10.493146
1004.167969,-1.704083,-8.942035,-6.030861,-10.316638
1004.171875,-15.533795,-12.581408,-13.987178,-6.682232
1004.175781,-14.416057,-8.531464,-14.951795,-12.098057
1004.179688,-12.508380,-6.277252,-5.060627,-9.220505
1004.183594,-7.989932,-4.533170,-5.396180,-7.415429
1004.187500,-3.878310,-4.929109,-5.688509,-7.729835
1004.191406,1.620175,-9.554803,-7.717402,-5.903746
1004.195312,-1.527530,5.439089,4.562319,-5.486570
1004.199219,2.101337,2.047259,0.877362,9.448209
1004.203125,3.008678,3.298084,5.672442,8.418505
1004.207031,6.885546,1.006976,10.117189,6.313937
1004.210938,6.914882,1.276454,6.977495,0.449198
1004.214844,6.764979,4.982647,1.839121,8.903262
1004.218750,12.798636,1.623481,2.943702,11.466720
1004.222656,12.460393,7.098425,16.917492,6.663078
1004.226562,4.703319,12.103217,15.184255,14.935929
1004.230469,13.153922,11.178815,8.218359,5.094478
1004.234375,6.827370,8.879197,5.310030,11.632962
1004.238281,10.145873,4.091194,2.232571,4.597921
1004.242188,3.074659,3.623463,0.642031,8.478596
1004.246094,-3.076689,0.430721,-1.430288,5.874576
1004.250000,1.932428,6.597068,2.728403,-11.191310
1004.253906,-6.816131,-3.356802,0.263976,-6.719639
1004.257812,-1.555324,-5.924233,3.565694,-6.523186
1004.261719,-5.393165,-10.681476,-1.468750,-9.760271
1004.265625,-12.377286,-5.927570,-2.443765,-9.052309
1004.269531,-10.468491,-7.038185,-3.737362,-2.211383
1004.273438,-10.295915,-9.271010,-7.685894,-5.679721
1004.277344,-13.068830,-11.891200,-6.158327,-12.435838
1004.281250,-10.869129,-6.590362,3.977660,-10.660920
1004.285156,-10.241941,-11.127898,-16.546003,-0.418597
1004.289062,-2.767488,1.338696,-3.239479,-0.285170
1004.292969,-0.958572,-17.269065,-4.750447,-3.492914
1004.296875,-4.825245,-2.277576,-8.503327,-1.249092
1004.300781,2.346878,-1.454963,-1.147786,-1.905939
1004.304688,0.670277,1.984000,5.906151,3.062503
1004.308594,0.090660,6.312074,6.356667,7.260762
1004.312500,12.849752,6.682491,8.285346,2.446822
1004.316406,8.030454,10.897650,3.979836,3.314275
1004.320312,8.433054,17.669339,11.230041,13.828332
1004.324219,8.051741,10.775763,7.871626,8.516123
1004.328125,18.809916,2.989560,9.320158,14.508727
1004.332031,10.505421,12.218616,8.482990,7.879674
1004.335938,8.428700,8.077846,7.022510,5.007329
1004.339844,12.380593,1.831642,3.392584,1.852190
1004.343750,5.014070,2.074851,-0.581782,6.133439
1004.347656,-0.330506,0.420991,2.737043,10.771725
1004.351562,-3.671007,3.188136,-0.335214,3.773899
1004.355469,-2.349328,-12.510816,2.062657,-1.230309
1004.359375,-10.128254,-6.236686,-7.098050,-3.372780
1004.363281,-3.678713,-6.225212,-13.379306,-10.152904
1004.367188,-5.838663,-17.054681,-8.449233,-4.562406
1004.371094,-11.384029,-5.578553,-1.730384,-3.910076
1004.375000,-11.782124,-8.769228,-12.648883,-9.608130
1004.378906,-10.265035,-8.449513,-12.369685,-17.258613
1004.382812,-15.188509,-12.580629,-6.781452,-1.325437
1004.386719,-7.816175,-10.872212,-10.067452,-6.120085
1004.390625,-6.515153,-4.793200,-4.898455,-4.293230
1004.394531,-4.234460,-9.477598,-0.074161,-4.428633
1004.398438,1.513770,6.285222,-1.804593,-10.579236
1004.402344,3.085594,8.128358,-1.261316,-3.594062
1004.406250,1.921904,5.376159,2.286821,15.238378
1004.410156,2.853382,0.112894,-2.032509,11.356455
1004.414062,8.256236,11.184647,2.698278,17.078926
1004.417969,11.708997,6.962469,16.677929,9.452029
1004.421875,8.369565,7.963028,9.496110,8.378008
1004.425781,13.472973,8.142924,13.790297,13.499530
1004.429688,16.412776,11.162976,5.607314,20.931206
1004.433594,2.240473,9.991869,6.189769,7.274547
1004.437500,5.556562,9.314825,3.800203,7.796691
1004.441406,6.703762,2.230012,4.373874,9.375937
1004.445312,1.534953,1.502363,1.791898,12.751786
1004.449219,-0.614818,1.103345,0.508674,-1.006452
1004.453125,2.257747,1.163409,-0.383972,0.140805
1004.457031,-4.175185,-6.544811,-4.011324,-9.336109
1004.460938,-6.515980,-9.464651,-0.274558,-13.871570
1004.464844,-2.163561,-3.518700,-12.055526,-4.386998
1004.468750,-11.118026,-5.387184,-13.569979,-12.507696
1004.472656,-10.971975,-17.997389,-15.412096,-14.760427
1004.476562,-9.541192,-9.056977,-8.191110,-9.918767
1004.480469,-12.184558,-17.486130,-10.555205,-6.035485
1004.484375,-10.579947,-8.688259,-10.926223,-8.496733
1004.488281,-12.071120,-6.055745,-8.167006,-4.474903
1004.492188,-3.817009,-2.500867,-8.727316,0.306382
1004.496094,6.168076,0.590365,2.575142,1.620276
1004.500000,-4.353541,-1.321272,0.826243,6.308194
1004.503906,3.091859,-4.892196,-3.447011,1.858870
1004.507812,3.437395,7.537387,4.696077,9.811799
1004.511719,9.704428,7.626621,3.483770,9.886122
1004.515625,10.043561,1.972307,0.076336,1.593751
1004.519531,6.786355,11.322821,9.368672,7.853155
1004.523438,7.510625,14.353817,10.132355,13.750749
1004.527344,7.979452,13.544346,1.687244,16.129647
1004.531250,10.393284,8.420781,9.999538,13.500404
1004.535156,2.334589,3.153935,5.686396,9.241589
1004.539062,4.358888,6.240114,11.361669,8.433519
1004.542969,-2.720028,10.978561,2.401049,-2.871726
1004.546875,3.517844,-1.332740,4.136404,6.376003
1004.550781,-1.830811,0.359360,-0.708107,5.252314
1004.554688,-6.814714,-9.831014,-3.692480,3.074520
1004.558594,-2.295191,-6.967456,-3.137849,-10.051348
1004.562500,-5.957182,-6.068348,-10.574762,-3.354959
1004.566406,-10.251268,-7.394812,-4.459045,-15.373319
1004.570312,-9.955220,-12.939883,-13.567407,-12.759318
1004.574219,-7.328111,-11.217232,-8.086257,-7.563025
1004.578125,-7.014315,-15.614614,-16.266646,-12.639719
1004.582031,-0.679501,-14.218875,-5.860299,-10.110250
1004.585938,-6.159396,-7.404118,-4.983632,-13.383442
1004.589844,-2.868180,-6.005918,-5.775739,-10.649462
1004.593750,-6.597686,-5.538116,-9.925280,-1.516482
1004.597656,-4.207307,1.096700,3.000188,-9.371835
1004.601562,7.817464,-2.371173,5.860293,2.147641
1004.605469,11.172748,-2.052470,4.626030,0.350619
1004.609375,9.547406,5.006246,2.992362,8.033097
1004.613281,4.600015,-0.516568,12.696157,9.221382
1004.617188,6.587505,9.893006,10.426588,10.558034
1004.621094,10.786563,10.978263,18.857343,13.109201
1004.625000,7.829772,10.237544,14.356922,10.625221
1004.628906,5.141939,8.642341,8.012609,17.071983
1004.632812,5.826029,10.201594,2.017820,-0.928110
1004.636719,3.700679,11.288041,10.400394,1.796773
1004.640625,0.741826,8.835056,5.080950,10.709371
1004.644531,10.923308,8.712082,1.327109,-3.850994
1004.648438,-5.934973,0.972726,4.528638,0.387590
1004.652344,-0.924733,-3.074871,-0.096757,-5.254950
1004.656250,-12.662342,-3.218730,-8.763364,-2.840448
1004.660156,-9.096557,-3.598291,-5.235056,-8.815805
1004.664062,-7.904785,-9.372838,-9.464248,-4.472649
1004.667969,-8.559711,-8.968343,-7.163520,-8.305218
1004.671875,-4.146363,-8.689200,-5.429081,-14.424699
1004.675781,-10.877213,-10.761911,-7.286865,-8.085039
1004.679688,-10.646818,-5.052368,-13.025794,-2.503711
1004.683594,-15.527797,-11.248925,-2.881522,-12.352387
1004.687500,-1.550871,-12.396723,-12.273752,-7.560047
1004.691406,-12.553460,-0.484199,-4.430757,2.475024
1004.695312,-2.576664,-3.775268,-4.746192,-7.393249
1004.699219,-1.249951,-0.114238,5.105027,0.795028
1004.703125,3.090185,4.877731,6.287539,-1.512708
1004.707031,10.982850,0.388294,3.445913,12.642350
1004.710938,2.581320,6.197629,1.838476,5.960264
1004.714844,12.796381,15.723071,5.058039,11.026163
1004.718750,13.140441,10.841753,10.351198,6.865412
1004.722656,10.938917,13.340448,13.798339,12.628691
1004.726562,9.171740,18.279271,10.635286,6.043723
1004.730469,14.091566,13.905964,11.467244,13.764479
1004.734375,11.449473,9.779422,5.156433,5.093109
1004.738281,14.611018,1.254152,2.360441,9.452714
1004.742188,10.901091,5.005559,4.943973,7.924118
1004.746094,-2.122176,4.382475,7.865837,-3.183342
1004.750000,6.599370,-1.881149,1.232229,-5.144568
1004.753906,-7.062296,-2.264731,0.351395,0.254335
1004.757812,-7.815118,-13.193799,-6.006184,0.108045
1004.761719,-11.273110,-5.322369,-7.420440,-8.455355
1004.765625,-8.948079,-7.394953,-12.582967,-11.478964
1004.769531,-2.075129,-12.108339,-7.599782,-6.780350
1004.773438,-13.351964,-13.794573,-12.334328,-5.958280
1004.777344,-2.718237,-10.380734,-13.236697,-10.262082
1004.781250,-11.940044,-8.413735,-10.506736,-4.833362
1004.785156,-11.133951,-8.495814,-8.084566,-6.157417
1004.789062,-0.241608,-3.901025,-4.855087,-11.754805
1004.792969,-1.892494,-11.942662,-1.051463,-2.094409
1004.796875,-5.461456,-2.746377,-4.438977,0.183738
1004.800781,5.713558,1.682708,-5.944632,0.496634
1004.804688,1.154911,1.989509,8.061531,3.531369
1004.808594,0.621197,5.434451,-2.064227,9.011453
1004.812500,3.063936,2.177099,7.518012,2.069136
1004.816406,5.993477,6.428372,2.855254,5.763353
1004.820312,9.311137,7.355204,7.888958,16.885896
1004.824219,14.019239,9.896997,9.832835,11.396251
1004.828125,9.351752,8.893624,11.820375,16.920986
1004.832031,11.891360,3.612103,12.546273,4.631043
1004.835938,11.639761,12.959629,7.650363,12.267020
1004.839844,-1.192751,10.592563,9.033506,13.193006
1004.843750,8.276192,2.019504,0.179646,2.377216
1004.847656,-1.067590,5.105056,-1.433180,-0.695037
1004.851562,-8.168166,-2.958728,2.537202,1.886983
1004.855469,-4.586052,-6.494258,-6.744493,-1.936224
1004.859375,-8.250588,-3.164663,-4.879411,-4.258876
1004.863281,-8.771215,-3.228521,-9.902546,-13.311288
1004.867188,-3.615497,-10.644874,-15.933295,-5.971114
1004.871094,-17.885676,-14.189784,-7.593213,-1.220080
1004.875000,-7.000365,-14.078354,-11.018651,-7.945711
1004.878906,-7.181747,-12.810140,-9.991161,-13.599597
1004.882812,-12.456176,-5.134702,-8.510587,-10.955740
1004.886719,-10.430488,-9.621366,-16.186673,-2.973535
1004.890625,-6.967038,-2.330731,-9.824215,-11.008019
1004.894531,-8.318291,-5.686145,-5.538848,-6.428970
1004.898438,-8.439773,0.371356,0.574813,-2.635802
1004.902344,2.084889,2.954664,-4.676979,4.857829
1004.906250,8.265937,-1.197762,5.060647,-1.372281
1004.910156,5.690584,7.125761,7.844828,3.793006
1004.914062,1.634868,7.981582,8.007210,12.617755
1004.917969,2.049266,8.381891,13.291483,6.042264
1004.921875,6.425552,11.517296,10.180850,9.383653
1004.925781,13.645154,9.400720,12.814787,2.308747
1004.929688,5.461610,5.315085,2.907796,9.140624
1004.933594,6.150070,8.011897,16.827203,14.202403
1004.937500,3.186186,5.654996,0.465252,1.839329
1004.941406,8.298221,4.674772,7.399377,10.209103
1004.945312,5.544286,6.761786,-1.301597,0.205177
1004.949219,2.174259,-0.610746,4.141950,4.960564
1004.953125,-9.519629,-0.797660,3.645617,-1.659891
1004.957031,-5.152211,-8.555281,-11.288581,-4.023849
1004.960938,-8.800593,-9.702279,-6.753493,-10.353156
1004.964844,-8.330106,-2.304237,-5.698871,-5.231063
1004.968750,-13.546698,-12.237699,-5.899963,-4.921259
1004.972656,-14.696721,-10.994252,-10.118355,-5.654481
1004.976562,-6.825403,-9.996116,-4.103773,-18.769456
1004.980469,-6.233295,-9.856005,-12.476979,-6.296675
1004.984375,-1.660980,-7.192316,-8.045742,1.971907
1004.988281,-15.272486,3.812285,-8.116476,-3.939522
1004.992188,-3.087571,-6.166393,-11.378891,-3.725991
1004.996094,-0.706774,-7.514904,-4.311035,-1.771003
1005.000000,-0.453136,2.156723,-2.383296,-0.072889
1005.003906,6.433545,-0.431394,3.107338,-0.952718
1005.007812,1.627051,8.707306,4.088694,-3.671062
1005.011719,9.204963,8.588632,5.535342,11.386083
1005.015625,5.547137,7.863140,15.192658,17.159135
1005.019531,12.282225,18.874687,4.554942,20.351267
1005.023438,8.688457,5.389713,11.705660,12.240263
1005.027344,9.518286,13.853997,11.929824,11.114492
1005.031250,10.961393,1.962932,13.245346,11.861675
1005.035156,5.047663,8.465322,8.402486,12.423197
1005.039062,6.495863,2.143005,1.164583,6.017934
1005.042969,7.654519,5.773605,-0.672575,1.690077
1005.046875,2.802799,1.908023,-0.119391,5.852271
1005.050781,1.943167,-2.449935,1.099662,-1.107622
1005.054688,0.844156,-4.680387,-5.005665,-2.334679
1005.058594,-4.729776,-2.320905,-8.763665,-0.802433
1005.062500,-4.426095,-14.482664,-6.703495,-12.924057
1005.066406,-10.259862,-15.496064,-9.021823,-16.544526
1005.070312,-9.649729,-7.035672,-9.814087,-8.215935
1005.074219,-14.497991,-7.014110,-13.328848,-10.767742
1005.078125,-14.571914,-12.123441,-14.938575,-12.002074
1005.082031,-7.430616,-14.749940,-6.462616,-2.806415
1005.085938,-1.616250,-8.765178,-15.794601,-9.468941
1005.089844,-5.275053,-2.631642,-1.037708,-3.108032
1005.093750,-5.124156,-5.583843,-6.226832,-2.515507
1005.097656,2.414431,3.246284,-5.325721,2.010215
1005.101562,3.846237,-2.621530,-0.288039,4.210228
1005.105469,-5.488879,0.271496,4.758794,6.044933
1005.109375,4.282019,6.163533,4.557639,9.377134
1005.113281,6.171795,7.392216,9.964250,5.333314
1005.117188,7.257123,6.709880,13.970299,9.079517
1005.121094,12.068929,4.357892,10.583645,11.740488
1005.125000,8.905708,11.675843,9.083976,5.214061
1005.128906,9.058064,3.235589,8.958045,8.318155
1005.132812,8.401420,3.242485,6.276894,10.066003
1005.136719,11.511937,2.030521,7.458534,5.182942
1005.140625,6.863263,9.351313,8.987669,1.712062
1005.144531,1.191886,5.276394,1.928414,4.995963
1005.148438,1.729628,-2.761363,-4.498405,-1.596436
1005.152344,0.897163,-0.616943,1.764691,-1.063962
1005.156250,-4.929476,-0.660307,-1.524169,-0.923980
1005.160156,-8.970551,-1.303353,-0.884429,-1.061858
1005.164062,-4.741369,-10.756440,-9.211514,-7.045001
1005.167969,-8.519574,-11.585718,-6.384582,-7.856136
1005.171875,-9.384152,-9.441756,-8.966817,-15.733179
1005.175781,-8.675997,-11.855443,-9.080715,-11.979341
1005.179688,-8.883339,-12.039223,-8.338029,-9.813809
1005.183594,-13.223344,-9.146146,-10.292785,-8.028345
1005.187500,-10.621524,-7.951732,-8.356661,-8.592723
1005.191406,-4.466587,-5.498349,-6.528125,-1.402103
1005.195312,-0.089577,-8.034294,-4.870946,4.676972
1005.199219,-4.166925,-2.578290,-1.503308,-0.096937
1005.203125,0.537431,-1.947918,-6.987470,1.227068
1005.207031,2.500482,0.830566,4.209676,9.685995
1005.210938,3.781960,9.686799,11.224031,-0.337794
1005.214844,4.840202,6.285564,4.835437,10.006631
1005.218750,5.882652,3.276875,9.385456,-1.100093
1005.222656,10.144355,12.966378,10.456222,10.423710
1005.226562,6.471590,17.898228,8.470950,15.320231
1005.230469,4.290693,7.181570,15.083537,3.552678
1005.234375,5.869441,2.815562,15.463254,9.784741
1005.238281,5.623881,14.298658,4.912761,10.221596
1005.242188,4.711705,7.606370,6.506122,4.605144
1005.246094,2.043765,3.735816,1.702377,5.180872
1005.250000,-3.279139,-2.217842,-12.705446,-0.303136
1005.253906,-1.417876,-8.754631,6.043080,-5.464868
1005.257812,-6.611998,-6.920383,-3.221222,-5.925463
1005.261719,-5.568680,-7.261266,-10.450339,-7.976655
1005.265625,-1.454493,-4.815529,-10.327750,-10.865950
1005.269531,-16.464760,-3.552728,-5.386737,-19.315794
1005.273438,-8.206658,-12.680548,-9.092734,-16.277353
1005.277344,-9.891535,-8.739738,-1.021199,-14.090262
1005.281250,-7.968293,-7.780454,-15.578398,-13.654319
1005.285156,-2.350369,-5.835441,-9.877544,-3.621501
1005.289062,0.073560,-3.824182,-3.924982,-7.327500
1005.292969,-4.593625,-4.201348,-9.645057,-8.200807
1005.296875,-1.658079,-2.279145,2.603570,3.699829
1005.300781,1.525615,8.025883,-3.217008,4.132684
1005.304688,5.347977,2.922162,7.903740,-0.483220
1005.308594,-4.874951,10.991104,10.190411,-1.598342
1005.312500,12.787843,0.115357,6.226521,11.348262
1005.316406,6.234121,10.814149,9.130772,4.229198
1005.320312,6.058953,15.104347,11.374591,13.407456
1005.324219,7.245784,1.966346,8.844751,10.915946
1005.328125,10.518382,6.134946,11.565348,8.134197
1005.332031,10.695372,17.757462,8.678956,20.462911
1005.335938,7.488712,15.716115,5.650827,11.163293
1005.339844,4.935134,13.097475,10.010968,12.000651
1005.343750,5.149862,-0.837355,1.569667,4.535501
1005.347656,0.329469,-2.935951,4.051297,9.797303
1005.351562,-3.441195,-1.154832,5.855078,7.038170
1005.355469,-0.510487,-6.483496,0.933267,3.142453
1005.359375,-13.196174,-6.903558,-10.187098,2.842423
1005.363281,-2.079604,-7.184204,-4.305746,-10.240993
1005.367188,-15.051257,-7.976776,-9.602636,-10.490145
1005.371094,-8.321203,-14.418954,-8.544882,-11.828566
1005.375000,-10.943068,-11.458525,-11.872600,-12.956790
1005.378906,-6.468810,-12.333026,-13.752256,-12.259045
1005.382812,-13.877865,-5.788396,-4.461884,-4.513918
1005.386719,-9.665834,-4.814506,-11.480389,-9.010643
1005.390625,-7.351594,2.256968,-8.195843,-9.603487
1005.394531,-5.189412,2.741553,0.780422,0.985783
1005.398438,-1.371533,1.217552,-2.333669,-2.609217
1005.402344,2.066662,5.142392,4.780376,5.436609
1005.406250,7.521181,8.379249,4.335179,8.068886
1005.410156,11.425943,7.764829,5.103131,2.802861
1005.414062,8.990628,4.149382,10.361009,9.794612
1005.417969,3.537288,8.085129,3.347140,7.330764
1005.421875,11.656480,11.673023,1.468796,14.974657
1005.425781,11.891572,4.786118,12.071002,9.794078
1005.429688,5.399673,10.243646,7.365073,7.379433
1005.433594,3.147363,6.180203,5.505498,14.467320
1005.437500,5.863138,12.863021,-0.307285,6.088304
1005.441406,4.283053,7.256011,8.471441,12.891673
1005.445312,-3.656810,2.925320,1.892656,2.612353
1005.449219,-0.439392,6.426164,0.042845,-2.563374
1005.453125,-15.923830,0.799463,4.319896,3.675290
1005.457031,4.983694,-9.823351,-3.542817,-5.341561
1005.460938,-8.971587,-18.701375,-10.466063,-5.395039
1005.464844,-7.804489,-7.066631,-8.714548,-6.980716
1005.468750,-8.774448,-15.913698,-6.028122,-13.262601
1005.472656,-12.428506,-13.876279,-7.504150,-10.546411
1005.476562,-8.014208,-8.608712,-5.548958,-8.480283
1005.480469,-15.734982,-9.479684,-8.327090,-9.012089
1005.484375,-14.885656,-8.949316,-11.146266,-16.586495
1005.488281,-10.093444,-6.097719,-8.680283,-5.002868
1005.492188,0.706621,-14.825779,-0.535147,-4.159247
1005.496094,-0.095174,1.679423,-8.468516,-5.534071
1005.500000,-2.810762,-6.578580,-2.088172,-2.377930
1005.503906,3.123741,-0.619190,5.875821,-1.090407
1005.507812,4.268485,5.445035,7.868549,2.103941
1005.511719,8.402292,9.446923,5.577881,7.855701
1005.515625,3.783130,6.661326,10.097455,6.488683
1005.519531,8.924926,4.113320,2.807782,4.913902
1005.523438,2.305415,9.529247,7.673977,9.361720
1005.527344,3.822245,9.996614,13.431510,11.480309
1005.531250,9.057732,12.196918,8.870052,10.249464
1005.535156,9.163134,14.814013,9.224722,13.552262
1005.539062,11.815061,1.418333,10.260872,-0.185741
1005.542969,8.012154,2.741541,4.152104,3.864550
1005.546875,3.724278,-0.543669,7.103347,2.231950
1005.550781,6.949072,-0.259580,3.254419,-0.087245
1005.554688,-3.829061,-2.622592,-7.825391,-11.254523
1005.558594,-7.218408,-1.745239,-11.304956,-9.722847
1005.562500,-3.124646,-5.959515,-7.936546,-7.748095
1005.566406,-8.020490,-0.820192,-7.862103,-11.292533
1005.570312,-12.977908,-10.708687,-10.822817,-7.108067
1005.574219,-9.727467,-7.303451,-11.957663,-13.908280
1005.578125,-5.769172,-8.374873,-6.645524,-3.391202
1005.582031,-10.673298,-11.597663,-4.284470,-10.858300
1005.585938,-11.193475,-13.915724,-11.671786,-7.815451
1005.589844,-1.127632,-4.195414,-11.486588,-5.333164
1005.593750,-7.260968,-3.500633,-7.047704,-11.171908
1005.597656,-3.089397,0.310037,-3.354485,-11.079540
1005.601562,1.331731,-4.172133,-2.353762,-5.978640
1005.605469,6.804383,6.053089,3.064573,7.966695
1005.609375,2.323198,0.787946,4.492670,6.830231
1005.613281,12.986069,12.161676,9.063047,4.973017
1005.617188,10.639214,10.403743,10.080570,10.475835
1005.621094,7.519606,6.736147,12.105612,8.584124
1005.625000,9.402136,18.416145,6.834629,8.768680
1005.628906,6.827388,15.180112,13.292161,11.107317
1005.632812,3.014172,19.086743,19.377845,3.242318
1005.636719,13.712354,11.178593,8.671090,16.836708
1005.640625,2.476732,8.284931,3.035965,0.828068
1005.644531,6.283653,1.902323,5.070315,4.805472
1005.648438,-3.350374,5.783019,-1.792644,-2.505370
1005.652344,3.101901,-0.110408,4.095402,-5.278583
1005.656250,-3.511535,-5.997664,-6.214677,-4.796301
1005.660156,-9.946750,-5.912263,-0.631306,-8.791862
1005.664062,-6.350871,-3.319754,-6.431772,-7.092231
1005.667969,-2.129421,-6.990006,-11.511787,-4.705302
1005.671875,-14.462448,-11.655676,-12.397137,-11.808993
1005.675781,-9.593560,-9.318509,-10.178350,-16.106097
1005.679688,-5.581253,-12.773183,-11.043603,-6.565086
1005.683594,-7.092223,-17.540525,-6.669292,-6.184330
1005.687500,-14.571192,-14.388630,-8.622673,-7.107345
1005.691406,-12.828599,-2.496237,-3.093747,-9.194052
1005.695312,-4.244600,-4.119132,-1.906802,-5.578213
1005.699219,-13.474178,1.155901,3.194332,0.087597
1005.703125,-2.306064,7.652259,1.788504,11.774618
1005.707031,7.269933,6.779229,4.421104,-0.654509
1005.710938,1.940812,0.790820,8.002341,21.757964
1005.714844,7.239608,4.910506,11.831381,5.742854
1005.718750,11.765626,9.515298,0.017152,18.661681
1005.722656,14.067275,7.355198,4.504746,10.759965
1005.726562,7.079409,9.499972,12.861418,13.333716
1005.730469,9.982790,10.733146,7.518426,8.329448
1005.734375,10.597471,5.017695,8.262636,8.329262
1005.738281,12.575655,3.190279,0.947670,8.455509
1005.742188,10.499347,-3.717924,5.964763,7.769536
1005.746094,-0.572600,3.776294,6.289601,4.257194
1005.750000,0.351374,4.104728,-5.051985,-3.754142
1005.753906,-2.360774,-11.133270,-2.814361,0.468419
1005.757812,-10.445012,-2.575157,-3.245689,1.298535
1005.761719,-10.409829,-8.429433,-6.601056,-5.796174
1005.765625,-10.761367,-6.775123,-12.340712,-3.982566
1005.769531,-12.658957,-11.717666,-10.182438,-9.590334
1005.773438,-11.586378,-16.543294,-7.255298,-7.777523
1005.777344,-11.553501,-3.901590,-15.525833,-12.427267
1005.781250,-3.052872,-6.697808,-8.274769,-9.841087
1005.785156,-4.741823,-4.131609,-13.693500,-6.533232
1005.789062,-6.215711,-4.118060,-6.884570,-5.050182
1005.792969,-10.882871,-4.176235,-3.501288,-5.648549
1005.796875,-1.139509,-0.618163,-4.406016,-4.896954
1005.800781,-2.320666,-8.376417,1.749498,-2.844202
1005.804688,0.938298,8.658078,3.999020,12.257736
1005.808594,5.477931,10.278988,6.185555,9.940734
1005.812500,6.355293,14.731631,6.010620,8.907250
1005.816406,1.085682,14.614497,9.012460,16.680596
1005.820312,0.678072,12.815195,10.121484,8.662242
1005.824219,5.509816,3.243179,2.378145,12.283026
1005.828125,6.032174,10.419763,10.386231,9.789737
1005.832031,8.063914,7.773949,10.742742,6.198846
1005.835938,8.600158,14.648324,9.141864,4.963944
1005.839844,-3.058307,2.764078,1.700572,4.977213
1005.843750,-0.299556,4.191758,-5.510338,2.273719
1005.847656,4.032696,0.905522,-4.069271,3.548765
1005.851562,5.023768,-2.123481,2.641353,-0.701428
1005.855469,-5.616340,-1.060741,-5.065025,2.508326
1005.859375,-5.594838,-4.684104,-4.184280,-5.608026
1005.863281,-4.776951,-4.777901,-9.506300,-8.072012
1005.867188,-8.578281,-5.393205,-8.497331,-2.877131
1005.871094,-14.714381,-11.283174,-9.319498,-8.540917
1005.875000,-6.020051,-10.064852,-17.066525,-3.356455
1005.878906,-9.223840,-12.593800,-6.053240,-6.453862
1005.882812,-12.342048,-5.077957,-7.452816,-11.894106
1005.886719,-5.786644,-12.985866,-3.248054,-10.099340
1005.890625,1.544391,-7.243631,-8.263731,-1.810599
1005.894531,-3.631082,7.368746,-4.470410,2.791871
1005.898438,-9.303405,1.174967,5.427258,1.067386
1005.902344,3.361875,-5.702416,-2.361165,5.873107
1005.906250,-1.932024,3.556171,8.496184,11.923420
1005.910156,6.784611,15.662692,7.661955,10.799221
1005.914062,9.151224,6.059751,0.400976,11.128520
1005.917969,12.845748,4.279898,15.118190,13.366340
1005.921875,7.933734,11.450977,5.958124,6.261009
1005.925781,4.882740,11.009229,10.364651,13.585882
1005.929688,11.289373,14.246862,7.734042,11.399203
1005.933594,10.535786,12.413672,10.136459,11.689918
1005.937500,7.715799,4.925874,2.673563,4.624818
1005.941406,0.343714,12.285795,9.836675,7.419069
1005.945312,-0.488650,-0.353765,9.024699,7.401440
1005.949219,6.741788,0.328354,3.795380,3.337891
1005.953125,-7.062936,-2.856850,-2.331172,-10.896370
1005.957031,1.275239,-4.504056,-2.571089,-8.153635
1005.960938,-9.493981,-9.511794,-7.938824,-9.959290
1005.964844,-6.696009,-8.884808,-8.923963,-8.360726
1005.968750,-0.311060,-11.939367,-11.583479,-7.816652
1005.972656,-9.857483,-8.972607,-9.965924,-10.102889
1005.976562,-6.589740,-10.015735,-10.626895,-13.877180
1005.980469,-2.877995,-14.522759,-9.635144,-8.552241
1005.984375,-7.711621,-22.230149,-4.905769,-8.642185
1005.988281,0.636246,-8.128594,-0.502169,-13.264971
1005.992188,-1.773673,1.486296,2.345347,-9.783668
1005.996094,-1.313087,-1.609280,-0.068201,-9.802679
1006.000000,-2.753879,-3.615239,1.913502,1.631859
1006.003906,-2.092358,3.515155,1.797984,6.115633
1006.007812,-3.684530,8.324825,15.071837,1.356027
1006.011719,8.277401,13.362450,12.324301,9.580735
1006.015625,5.599042,11.211434,8.666575,2.867654
1006.019531,9.394843,18.987513,8.291485,14.156272
1006.023438,10.687117,16.047328,9.020108,11.584282
1006.027344,5.647519,7.193117,14.602149,7.524771
1006.031250,2.713876,7.777472,7.371479,11.906458
1006.035156,7.166201,9.693198,1.935568,8.291960
1006.039062,0.507504,4.245379,8.312988,5.189918
1006.042969,0.002638,10.764652,12.881529,3.508752
1006.046875,-1.836050,1.334609,10.110896,5.182993
1006.050781,-6.065878,2.046714,-1.640112,-4.109177
1006.054688,-5.250027,-1.479821,-2.775587,-3.334740
1006.058594,-1.860313,-4.385231,-2.419178,1.713865
1006.062500,-6.819900,-2.597838,-8.945165,-8.182450
1006.066406,-19.448376,-10.773971,-7.715177,-7.654166
1006.070312,-7.898884,-8.604922,-14.430130,-10.091709
1006.074219,-5.965183,-11.600931,-12.102520,-12.623842
1006.078125,-8.909722,-7.804615,-7.456388,-7.203667
1006.082031,-0.811918,-8.432384,-6.635450,-7.919452
1006.085938,-8.544159,-16.275313,-16.120609,-2.530271
1006.089844,-3.828906,-7.147779,-2.789957,-3.068951
1006.093750,-10.483317,0.889645,-2.207176,-11.275308
1006.097656,-4.456473,-0.393010,0.557669,-2.031901
1006.101562,8.370379,0.533448,3.475349,-1.294767
1006.105469,1.101261,2.522009,7.672285,3.828969
1006.109375,-4.744435,9.940201,5.343432,7.650200
1006.113281,8.791304,9.538764,0.591948,3.326669
1006.117188,1.838448,5.227468,0.040944,6.082235
1006.121094,8.161709,8.266801,11.954193,11.918141
1006.125000,3.402111,1.721373,0.246635,3.284794
1006.128906,5.738583,15.898718,12.812799,13.003058
1006.132812,7.176719,14.015004,11.517327,5.819355
1006.136719,6.464420,7.749595,12.042434,3.478493
1006.140625,1.912515,8.135491,2.807295,6.808833
1006.144531,-0.469870,8.101227,3.825829,3.957927
1006.148438,-0.687248,3.216584,0.461911,-6.542389
1006.152344,-11.639813,-4.151645,6.965397,-9.701475
1006.156250,-5.134928,2.947007,-8.794697,-5.319487
1006.160156,-4.937644,-6.366522,-7.134273,-6.976878
1006.164062,-4.873540,-4.097836,-5.849906,-6.366319
1006.167969,-5.128380,-14.134670,-10.521280,-5.970006
1006.171875,-10.554885,-10.829278,-14.748288,-14.287492
1006.175781,-13.807532,-7.737491,-11.229922,-13.009533
1006.179688,-14.071790,-8.092037,-6.144313,-6.764242
1006.183594,-13.547073,1.786461,-8.243355,-6.872235
1006.187500,-3.635116,-5.052613,-7.360771,-10.645523
1006.191406,-6.776595,-7.943617,-3.644542,-1.086025
1006.195312,-7.606237,-0.179931,-5.583944,-2.025161
1006.199219,6.776322,-1.300916,2.799202,-7.081455
1006.203125,-4.240477,1.176395,-0.205682,-5.586043
1006.207031,-1.782150,-5.941755,5.118619,6.384134
1006.210938,3.984782,2.140427,5.898805,0.374303
1006.214844,16.913143,7.865853,5.713358,9.737969
1006.218750,15.549282,6.530914,11.599933,6.123470
1006.222656,6.936689,10.997555,7.708793,14.212752
1006.226562,11.933086,6.258653,12.087870,5.990945
1006.230469,12.404368,7.454696,13.238280,12.968399
1006.234375,0.013520,11.906214,13.210458,3.455625
1006.238281,5.716811,2.542778,7.052230,11.409957
1006.242188,9.325623,5.694210,7.496145,4.653001
1006.246094,-3.047043,4.618420,-3.892948,-0.352731
1006.250000,-2.083852,7.805970,-5.556917,1.913133
1006.253906,4.607244,-3.833407,-2.997052,-3.541161
1006.257812,-3.808789,-7.311544,3.039772,-5.227099
1006.261719,-9.895980,0.744110,-11.538326,-3.628550
1006.265625,-6.743442,-5.860149,-9.189795,-2.384326
1006.269531,-9.005847,-12.801879,-7.021399,-12.458547
1006.273438,-7.142624,-3.933224,-5.242544,-7.357589
1006.277344,-7.705032,-7.976544,-8.489415,-3.593216
1006.281250,-9.219515,-13.662208,-7.190051,-4.937148
1006.285156,-13.114793,-5.019487,-10.199331,-13.597228
1006.289062,-4.485260,-9.993982,-8.569482,-11.516695
1006.292969,2.331555,-8.619641,-2.450418,-8.398986
1006.296875,-5.468427,-6.532263,-5.691663,-4.293978
1006.300781,2.015183,1.437302,-2.882765,-4.077089
1006.304688,5.321864,4.308748,0.455182,-2.635502
1006.308594,1.875149,7.110511,10.797591,7.600212
1006.312500,2.223523,5.928366,3.943585,15.005610
1006.316406,1.028827,9.151266,8.583171,6.061208
1006.320312,8.869219,9.649196,10.370871,14.989571
1006.324219,4.151133,6.524323,4.637487,1.534366
1006.328125,15.283064,8.918091,4.873583,4.819675
1006.332031,12.332759,13.412008,2.202589,6.705507
1006.335938,1.609541,-0.493103,16.382948,8.349312
1006.339844,9.711245,9.702124,-3.182192,2.669422
1006.343750,6.894794,3.035378,9.813464,1.240107
1006.347656,-6.909002,1.609033,-6.310787,-0.777224
1006.351562,3.640931,-0.864107,-5.778956,2.722628
1006.355469,-0.090820,0.689623,-4.285628,-2.533017
1006.359375,-3.224753,-4.045495,-7.938208,-3.887461
1006.363281,-10.497493,-1.223433,-4.435363,-16.542333
1006.367188,-9.163604,-10.454548,-6.854755,-19.619851
1006.371094,-7.728644,-4.459150,-4.357476,-3.658074
1006.375000,-11.956682,-14.593648,-15.006078,-2.482411
1006.378906,-8.213966,-15.709687,-4.987397,-3.398706
1006.382812,-9.471063,-7.619021,-14.557238,-12.663513
1006.386719,-5.709857,-2.563545,-6.100475,-1.642851
1006.390625,-5.816490,-8.100514,-7.213246,-7.153055
1006.394531,-6.498848,-0.740140,-2.029996,4.767757
1006.398438,1.252160,0.599190,-1.325740,-2.266970
1006.402344,-2.757702,1.295555,-3.162173,0.341762
1006.406250,3.205183,5.165352,-3.844860,0.793500
1006.410156,7.868044,1.140494,4.873015,2.400150
1006.414062,9.086703,7.635627,11.171949,5.031564
1006.417969,9.551881,7.690642,6.250928,7.947846
1006.421875,2.672301,11.823760,5.809040,14.380328
1006.425781,7.067935,4.303640,12.433064,16.165404
1006.429688,15.760818,-0.259244,11.178695,6.825492
1006.433594,4.821440,5.634621,3.707439,7.316262
1006.437500,2.346671,9.481561,6.206030,11.970851
1006.441406,5.460686,-8.244176,5.239160,2.937750
1006.445312,2.169657,3.947542,6.302249,2.188021
1006.449219,-1.851772,-0.887746,0.940949,7.034212
1006.453125,-4.658831,-0.612582,-2.594502,-4.590057
1006.457031,-7.721996,-4.499589,-0.771199,-1.733113
1006.460938,-11.390885,-3.789989,-13.360611,-10.194057
1006.464844,-12.397866,-8.219117,-17.064475,-5.911898
1006.468750,-7.110498,-15.362317,-12.411691,-5.389132
1006.472656,-11.807448,-14.524722,-6.840011,-12.121958
1006.476562,-8.972056,-12.879310,-11.083071,-14.594237
1006.480469,-7.894733,-6.349842,-9.842184,-7.680327
1006.484375,-6.800715,-13.355588,-8.948554,-10.303852
1006.488281,-10.422971,-9.698934,-3.893617,-3.524006
1006.492188,-5.167346,-7.491794,-2.807212,-0.539323
1006.496094,-4.276840,-5.094738,-1.442605,-6.795937
1006.500000,-4.081156,3.185622,2.541979,8.530897
1006.503906,7.459920,3.050225,-4.595069,-0.722643
1006.507812,0.400567,2.282545,5.936808,5.713166
1006.511719,8.317125,12.592004,13.188172,4.086522
1006.515625,10.732722,10.416928,1.444369,12.385821
1006.519531,10.364799,11.044169,5.810587,10.489588
1006.523438,10.732750,9.803554,11.515272,6.375296
1006.527344,6.835697,10.894548,6.437404,6.463444
1006.531250,3.032282,10.504840,2.737871,8.314631
1006.535156,10.631415,8.579643,5.486463,6.024520
1006.539062,7.509023,4.087501,8.159180,12.326112
1006.542969,0.992335,10.926710,3.510807,-0.114548
1006.546875,7.314934,1.685260,4.294555,1.940950
1006.550781,-4.308320,-0.637126,11.007334,1.609530
1006.554688,-4.302971,-5.356986,-4.611898,2.982455
1006.558594,-5.168947,-6.713171,-2.322477,-3.875857
1006.562500,-10.615041,-14.935309,-12.316383,-8.765899
1006.566406,-8.573595,-1.238201,-6.078078,-8.225616
1006.570312,-5.865597,-14.451977,-12.458543,-7.769138
1006.574219,-14.034248,-10.090417,-7.249525,-6.394864
1006.578125,-3.797744,-13.036342,-10.134412,-11.147090
1006.582031,-12.759076,-14.687651,-10.861503,-3.333560
1006.585938,-8.001095,-5.176328,-4.291171,-7.169147
1006.589844,-11.312699,-3.393589,-10.373280,-4.150925
1006.593750,-3.875463,1.122401,-3.063463,2.346989
1006.597656,-1.317552,1.465729,-4.215053,3.257053
1006.601562,-2.796908,-5.254783,-1.026734,-3.260532
1006.605469,1.180877,3.382671,-5.122701,8.548583
1006.609375,1.606055,12.534977,3.977305,5.140032
1006.613281,8.881704,10.948231,9.867080,10.897197
1006.617188,7.023095,11.364123,13.987030,6.004425
1006.621094,7.329745,8.543439,9.055645,6.043303
1006.625000,1.167881,8.530731,11.633399,16.527904
1006.628906,13.108586,8.540069,13.262337,2.082499
1006.632812,8.812959,4.806572,6.990951,11.025603
1006.636719,0.658076,-0.010825,10.430680,3.416965
1006.640625,-1.686151,12.567066,9.604053,0.386522
1006.644531,4.900255,5.662281,-4.032889,0.122623
1006.648438,-1.025859,8.250321,-5.016278,0.455644
1006.652344,-4.881520,-1.783202,-1.550012,-5.973736
1006.656250,-0.576532,-4.549649,-8.548690,-2.757838
1006.660156,-4.853407,0.768531,-8.593217,-5.500451
1006.664062,-12.556175,-13.032582,-5.925674,-8.847309
1006.667969,-3.792581,-8.856143,-12.237560,-13.528325
1006.671875,-11.160960,-8.802132,-5.658396,-1.706029
1006.675781,-12.657772,-12.083700,-11.114106,-8.652166
1006.679688,-15.694272,-14.958656,-0.659362,-10.050202
1006.683594,-5.607558,-8.075620,-16.192385,-7.851829
1006.687500,-4.122519,-3.842698,-1.518587,-15.279698
1006.691406,-10.402269,-3.633294,-6.231740,-6.384244
1006.695312,-2.590862,1.117583,-10.422607,-5.320494
1006.699219,-2.589680,2.998020,0.834759,1.029237
1006.703125,5.056149,1.147823,1.888815,7.094063
1006.707031,-1.077152,7.075765,1.155833,5.672510
1006.710938,0.903947,8.314516,3.465702,2.744541
1006.714844,2.167592,11.381414,8.767941,11.817444
1006.718750,7.561311,6.835691,11.618577,11.825800
1006.722656,12.540766,11.070219,12.142873,12.896546
1006.726562,6.821037,7.874110,11.533083,9.413448
1006.730469,9.280078,6.992214,8.043344,11.454053
1006.734375,14.211947,4.176119,2.723040,4.173896
1006.738281,5.335598,5.869674,2.791705,7.678661
1006.742188,-0.943929,4.351409,-1.837305,4.640820
1006.746094,6.049582,2.678333,3.555448,2.448565
1006.750000,-2.495904,-9.719912,6.117962,-1.153114
1006.753906,-0.905029,1.968384,3.708550,-10.354671
1006.757812,-2.842898,-4.950358,-3.979677,-5.186631
1006.761719,-7.271745,-1.800446,-5.606763,-4.061694
1006.765625,-9.065721,-9.602653,-7.203545,-5.148744
1006.769531,-5.994790,-2.230717,-15.279491,-10.591152
1006.773438,-11.239480,-12.541455,-8.821794,-15.076509
1006.777344,-15.849115,-10.982777,-3.958797,-6.090807
1006.781250,1.505524,-9.903175,-12.040855,-16.788693
1006.785156,-5.936220,-8.070845,-8.531873,-12.764127
1006.789062,-11.642320,-1.743697,-5.229097,-7.675746
1006.792969,1.015163,-5.476059,-0.388267,-9.539275
1006.796875,-4.258841,4.113881,-3.778237,-2.706793
1006.800781,0.661426,-2.183829,8.699719,1.617141
1006.804688,7.235096,5.051778,5.174697,9.479562
1006.808594,5.281696,6.719829,6.342251,6.899617
1006.812500,4.913378,8.965189,4.155322,8.156280
1006.816406,12.411199,3.909440,4.773365,13.101144
1006.820312,11.262294,7.775536,7.766859,8.197796
1006.824219,11.735143,9.680662,13.651376,8.688083
1006.828125,8.434669,9.869248,7.236236,4.634919
1006.832031,6.645103,12.091522,8.448097,8.210555
1006.835938,15.341648,3.043176,10.147882,4.502134
1006.839844,4.790699,2.762136,7.481000,11.590193
1006.843750,8.758765,-1.282993,-1.857370,-1.718440
1006.847656,2.614253,-6.444746,-5.380290,-3.473150
1006.851562,1.878615,-6.482820,1.196750,-0.571358
1006.855469,-13.324794,0.491378,-6.849790,3.157445
1006.859375,-7.715455,-6.977803,-1.958611,-6.939009
1006.863281,-11.361759,-7.677484,-7.782036,-5.051701
1006.867188,-11.223015,-4.448540,-4.218756,-11.743447
1006.871094,-12.548235,-9.899077,-9.702068,-8.824473
1006.875000,-6.555174,-11.867625,-5.752280,-8.866280
1006.878906,-6.302498,-11.172002,-7.066962,-13.161619
1006.882812,-13.819808,-5.545393,-14.021887,-7.816638
1006.886719,-4.231696,-1.152585,-7.696422,-0.285296
1006.890625,-3.578016,-6.044090,0.349134,-2.473932
1006.894531,-4.035574,-8.444667,-8.096294,0.434118
1006.898438,-1.760359,0.007580,-2.946291,3.287146
1006.902344,-4.121868,3.423785,-6.046751,5.561006
1006.906250,16.609723,-0.096900,7.867502,3.898258
1006.910156,11.099029,6.562305,6.872525,4.678702
1006.914062,8.241034,8.187802,8.374698,2.873275
1006.917969,6.805654,8.291465,3.857708,16.524752
1006.921875,8.928610,13.615919,11.015196,7.413191
1006.925781,7.986275,8.615311,9.713672,13.105162
1006.929688,11.510290,13.051754,9.341423,9.300466
1006.933594,11.157972,14.407873,9.101070,3.725382
1006.937500,5.035711,5.481048,3.004583,12.833729
1006.941406,6.913270,5.481200,1.862553,5.000092
1006.945312,-0.320078,11.036268,4.822560,6.020178
1006.949219,-0.349449,-0.172119,5.280149,-5.270866
1006.953125,-3.802944,-1.635878,-1.527610,5.966847
1006.957031,-0.804568,-2.093640,-11.008221,-7.610745
1006.960938,-11.991368,-8.220157,0.265432,-3.080273
1006.964844,-6.802570,-8.678190,0.899492,-11.361005
1006.968750,-14.746092,-6.222424,-3.244938,-12.869436
1006.972656,-10.033107,-4.583501,-4.820722,-9.961848
1006.976562,-10.177798,-15.365184,-7.911684,-15.222818
1006.980469,-8.777017,-17.137530,-4.148705,-6.528312
1006.984375,-3.155714,-13.739560,-7.466995,-14.766594
1006.988281,-4.171298,-5.562440,-14.392829,-16.113146
1006.992188,-0.713278,-8.994502,-8.222589,-4.607265
1006.996094,-10.658931,-5.104369,0.567334,-4.898976
1007.000000,-3.347881,8.680513,-6.505690,-8.418565
1007.003906,-3.508606,-7.586336,-1.306406,7.676728
1007.007812,4.348820,7.452330,7.225829,-0.736296
1007.011719,5.757744,9.028019,8.062890,7.745567
1007.015625,17.039113,4.501604,5.816614,0.678219
1007.019531,12.836595,5.770612,0.194608,8.323839
1007.023438,8.078926,10.064928,5.825361,16.514961
1007.027344,2.809949,10.602342,12.366396,6.068619
1007.031250,5.131172,9.214246,11.299559,12.483020
1007.035156,13.436574,-0.539798,11.619246,6.690464
1007.039062,3.506810,10.632968,8.088817,6.883849
1007.042969,5.953606,-0.288429,10.618817,4.823201
1007.046875,-2.070678,8.627709,3.131300,-3.274383
1007.050781,-0.690423,-0.919262,4.137294,-6.875952
1007.054688,-4.285397,4.621913,-1.551143,-3.304722
1007.058594,-7.719590,-6.942880,-2.189624,-1.590999
1007.062500,-6.278777,-1.128984,-2.157102,-6.266747
1007.066406,-12.155244,-14.303366,-10.336668,-11.141610
1007.070312,-3.026769,-10.020890,-10.861755,-8.218056
1007.074219,-14.891626,-11.314003,-7.099754,-6.170967
1007.078125,-16.145647,-8.650504,-10.754107,-13.819620
1007.082031,-9.288808,-6.595381,-6.314881,-13.122519
1007.085938,-13.416827,-9.350425,-7.837224,-10.750431
1007.089844,0.331998,-7.266713,-6.209236,-10.019046
1007.093750,-7.318224,1.649973,-6.109761,-5.432579
1007.097656,-5.519964,-2.127388,-2.766424,1.729840
1007.101562,-0.763230,4.292270,0.140402,7.611307
1007.105469,8.529421,0.256884,-4.765630,0.969669
1007.109375,-1.026548,5.905242,5.123286,6.716561
1007.113281,4.861345,14.247441,15.267594,6.805142
1007.117188,3.778407,5.844170,6.430038,10.658137
1007.121094,14.095559,11.759725,9.506474,10.054130
1007.125000,8.779428,9.197337,6.286935,12.659925
1007.128906,5.128908,16.186384,9.892859,13.045763
1007.132812,13.556580,22.722105,14.123237,7.607400
1007.136719,10.335659,5.971756,10.507172,14.356672
1007.140625,2.174525,5.764032,8.767698,-2.624604
1007.144531,0.793918,8.165845,6.563412,2.750137
1007.148438,2.392047,13.686838,4.161041,4.885952
1007.152344,-1.094174,-8.340713,-5.022317,-0.096177
1007.156250,-2.785366,-6.070639,-7.098793,-2.466522
1007.160156,1.127492,-11.168828,-6.404050,-9.578467
1007.164062,-3.686191,-10.482462,-8.250154,-1.564406
1007.167969,-12.543418,-8.048412,-5.439695,-8.644814
1007.171875,-10.677054,-8.412938,-17.208166,-8.434395
1007.175781,-10.768621,-9.314690,-13.489138,-5.931935
1007.179688,-13.709385,-10.010121,-16.592278,-5.173104
1007.183594,-9.613467,-8.440208,-7.352453,-17.885874
1007.187500,-5.924899,-3.444486,-5.700518,-3.541704
1007.191406,7.242814,-0.613742,-9.950973,-7.119469
1007.195312,0.569720,-5.783971,-3.362171,-5.894005
1007.199219,1.966339,-6.286534,-6.156692,2.106818
1007.203125,1.189082,5.142284,9.367243,9.200050
1007.207031,4.467037,1.218300,7.058252,1.314874
1007.210938,6.616255,7.903214,1.778199,6.964441
1007.214844,19.301898,15.315462,3.732924,10.023920
1007.218750,8.627308,7.671877,5.259981,12.825681
1007.222656,11.121869,9.374846,7.283712,7.065829
1007.226562,17.478335,11.231931,9.884497,8.710123
1007.230469,9.665013,8.196346,15.531537,10.143929
1007.234375,8.652006,4.254464,3.265222,8.944979
1007.238281,4.098972,4.495795,9.083722,3.241599
1007.242188,2.377083,5.227970,6.439346,2.264576
1007.246094,0.516864,2.956245,1.294448,0.625697
1007.250000,7.346764,0.229119,5.122958,6.347891
1007.253906,1.049156,0.192389,-8.896360,0.825167
1007.257812,-5.570731,-6.477457,-8.466553,-10.752196
1007.261719,-6.223293,-10.790626,-6.790072,-8.805434
1007.265625,-12.077389,-11.093398,-14.017745,-9.924633
1007.269531,-9.606510,-3.009538,-12.278355,-8.382566
1007.273438,-14.486773,-5.844585,-11.968421,-2.848656
1007.277344,-12.989586,-4.616454,-8.338147,-2.472967
1007.281250,-9.463447,-7.936603,-13.940484,-9.614353
1007.285156,-11.463456,-3.760671,-3.599378,-7.762875
1007.289062,-7.326094,-3.001416,-4.431243,-13.384278
1007.292969,-3.836756,-1.242824,-4.122064,-1.918175
1007.296875,4.748913,0.589912,-6.168980,-4.561854
1007.300781,-0.611879,5.308680,-0.892103,3.597343
1007.304688,2.910783,5.180633,4.613149,0.901770
1007.308594,6.293674,5.227395,4.673640,-5.581608
1007.312500,6.443469,1.494652,11.490863,10.989529
1007.316406,6.405416,8.628865,6.478818,2.835529
1007.320312,7.263823,8.851220,9.906022,2.489060
1007.324219,2.525584,12.333099,9.594597,11.903992
1007.328125,3.431710,14.458667,5.899675,11.225281
1007.332031,13.691179,5.768634,7.444193,13.880148
1007.335938,10.654155,13.497125,6.861009,8.574741
1007.339844,3.319046,5.997159,6.480788,5.142766
1007.343750,9.793313,5.142218,11.639707,3.173348
1007.347656,3.909086,-0.824627,7.244370,-1.197865
1007.351562,-5.862883,0.260920,2.178246,-1.976633
1007.355469,-4.419720,-4.379054,0.044533,-0.553682
1007.359375,-11.545514,-9.263343,-11.110655,0.997122
1007.363281,-6.186947,-7.448904,-10.985341,-3.271206
1007.367188,-13.357094,-10.471822,-6.852083,-7.695897
1007.371094,-9.929862,-9.995188,-11.661067,-9.285560
1007.375000,-13.552049,-7.074908,-8.915316,-7.414633
1007.378906,-7.006101,-5.433051,-6.770163,-12.934795
1007.382812,-11.816072,-15.200850,-5.638084,-1.780730
1007.386719,-5.006291,-8.133384,-12.034080,-6.670854
1007.390625,-3.780100,-0.942294,-2.016967,-10.261810
1007.394531,-5.151305,-7.559492,-1.907710,-5.073732
1007.398438,-0.615675,-5.048689,-0.850978,-3.228149
1007.402344,1.323268,-7.269066,7.788284,0.536979
1007.406250,4.627625,7.427839,6.290681,1.941288
1007.410156,6.077238,1.859581,7.779912,-2.566089
1007.414062,8.092772,8.039237,12.431687,5.811038
1007.417969,11.322994,7.290614,15.916247,15.684018
1007.421875,8.231352,15.619464,9.432002,12.594624
1007.425781,12.073626,6.057081,11.523443,10.902036
1007.429688,12.772810,11.736228,5.489808,3.666213
1007.433594,12.276132,7.090038,3.080173,4.890981
1007.437500,7.202771,6.575777,4.599354,3.386414
1007.441406,8.776310,9.645461,10.663226,7.643034
1007.445312,-1.324804,0.388976,3.697278,-0.289700
1007.449219,-0.457683,-1.918438,1.730403,-3.062945
1007.453125,2.865013,-3.582994,-7.001773,-8.769970
1007.457031,-10.785479,-7.883119,5.974132,2.179977
1007.460938,-14.395703,-5.419057,-8.706613,-9.391290
1007.464844,-5.822486,-5.075246,-10.141319,-9.228413
1007.468750,-5.212657,-9.787760,-7.767506,-13.391553
1007.472656,-13.121032,-6.946009,-9.550669,-14.224415
1007.476562,-10.773333,-12.784620,-18.001797,-8.782817
1007.480469,-13.186434,-7.790144,-16.028773,-12.598498
1007.484375,-6.581371,-5.797098,-5.827084,-8.692278
1007.488281,2.001870,-12.834024,-0.105421,-3.600449
1007.492188,-3.696199,2.212356,-6.042223,-2.610075
1007.496094,-2.459063,2.025381,-8.586590,-3.197668
1007.500000,7.788564,1.381538,0.458845,6.815097
1007.503906,5.982289,-2.038393,4.357558,-3.459203
1007.507812,-0.088752,10.240649,8.822074,8.585786
1007.511719,9.646166,2.620565,9.288897,11.048413
1007.515625,17.142540,5.792258,8.756311,4.202343
1007.519531,8.440817,10.217396,16.789025,11.023720
1007.523438,4.166130,6.867587,13.404380,11.688550
1007.527344,10.851854,11.536811,11.653717,12.169387
1007.531250,7.511271,11.643093,6.383247,5.592826
1007.535156,1.569314,5.984611,10.702111,11.761169
1007.539062,9.216626,4.817154,3.297569,5.328675
1007.542969,7.406557,3.112669,9.573665,10.021538
1007.546875,5.221031,4.561109,-5.511289,-3.063089
1007.550781,-0.603853,-0.509370,-6.902098,9.359720
1007.554688,6.796078,-4.579838,-1.192568,-2.612448
1007.558594,-2.533731,0.054497,-7.260728,-3.416254
1007.562500,-12.139259,-6.316400,0.424218,-7.670564
1007.566406,-7.521245,-5.637139,-9.257512,-10.212215
1007.570312,-4.357989,-9.099798,-11.421188,-9.743513
1007.574219,-9.267787,-9.184115,-11.541114,-13.042924
1007.578125,-10.996859,-12.184367,-11.625554,-6.208505
1007.582031,-11.005684,-8.353473,-13.164812,-10.229164
1007.585938,-12.308857,-7.160793,-8.363731,-10.857485
1007.589844,0.165994,-5.088529,-9.495190,-4.751321
1007.593750,-10.908211,0.866295,-0.626554,-3.750095
1007.597656,0.840461,-0.061718,5.299946,-0.992371
1007.601562,4.174828,2.942785,0.566708,2.568616
1007.605469,11.235627,4.675254,5.710715,5.019972
1007.609375,8.265823,10.481900,-0.595021,3.820932
1007.613281,7.067381,1.206941,10.219551,3.792926
1007.617188,8.189474,4.448968,3.064585,13.718296
1007.621094,4.698928,15.503340,5.719940,16.660109
1007.625000,11.221218,11.128141,10.057801,2.867610
1007.628906,8.520045,12.781650,12.748084,8.416720
1007.632812,17.523372,7.921513,12.378802,9.458023
1007.636719,2.391193,1.359310,8.315296,7.767103
1007.640625,6.915108,-1.118201,-1.272822,4.622719
1007.644531,-0.476343,4.916632,7.125572,0.433444
1007.648438,-4.491080,-1.275657,-5.604289,-1.009198
1007.652344,6.521562,-5.403243,-6.160918,4.408355
1007.656250,-6.262836,-4.849984,-3.335667,-1.844155
1007.660156,-7.460491,-4.664194,-6.860223,-0.842069
1007.664062,-12.596950,-4.304641,-8.292941,-10.804929
1007.667969,-7.014220,-13.706948,3.724539,-11.639381
1007.671875,-5.560666,-6.890252,-14.861178,-4.760950
1007.675781,-9.331274,-13.781553,-8.462824,-1.067864
1007.679688,-1.825638,-8.833818,-18.004856,-11.999777
1007.683594,-5.681540,-2.890998,-8.331746,-9.376211
1007.687500,-4.805176,-4.601225,-2.528004,-16.612930
1007.691406,-4.886274,-8.877569,-3.266376,-4.809680
1007.695312,-4.407921,0.346268,2.217664,-0.166035
1007.699219,-0.719803,-3.374971,-3.654920,9.456368
1007.703125,8.199370,3.064776,-3.458611,-0.900678
1007.707031,7.028260,6.974820,5.965899,1.538354
1007.710938,2.888868,11.004164,2.757717,7.710920
1007.714844,7.686326,8.889168,6.292869,3.882099
1007.718750,2.573796,17.077955,12.745558,6.713512
1007.722656,10.320451,13.005922,11.712845,4.312723
1007.726562,13.600372,11.769437,7.130835,12.895480
1007.730469,10.583820,9.850354,9.653160,9.594976
1007.734375,9.113455,5.413764,11.825583,20.539375
1007.738281,11.286840,4.158915,9.101910,6.578339
1007.742188,-1.183051,4.238036,7.498989,10.441390
1007.746094,7.892328,-0.326593,4.776671,5.832958
1007.750000,5.166662,-8.853106,0.393529,2.403292
1007.753906,2.037948,-5.979953,-7.849262,0.952997
1007.757812,0.426707,-0.529808,-8.559639,-5.747677
1007.761719,-1.243535,-8.133822,-10.067674,-5.141640
1007.765625,-6.828675,-4.957750,-7.858766,-5.405198
1007.769531,-13.657986,-9.225869,-16.443695,-6.122376
1007.773438,-11.620669,-13.788796,-4.581617,-12.363533
1007.777344,-6.645672,-11.195238,-19.920659,-5.007236
1007.781250,-13.111818,-5.610536,-3.649191,-10.384596
1007.785156,-9.199669,-10.581783,-14.131164,-11.592278
1007.789062,-7.536601,-1.604576,-10.877646,-9.864127
1007.792969,-6.160823,0.162641,-5.168810,3.383265
1007.796875,-0.919316,-1.862341,-5.429875,-5.073875
1007.800781,5.187368,0.611251,-0.360905,5.722612
1007.804688,5.319702,2.695796,10.475757,6.632535
1007.808594,3.336036,9.956135,1.997364,2.849422
1007.812500,-1.596400,6.313545,11.246884,3.484637
1007.816406,13.232385,12.086340,5.868795,10.221883
1007.820312,7.437491,7.470701,14.722707,6.212460
1007.824219,12.429780,15.134456,15.087903,6.928630
1007.828125,10.458684,5.960440,11.325967,5.306119
1007.832031,10.644199,4.110418,5.288595,15.874114
1007.835938,2.087866,6.143427,18.135823,8.793281
1007.839844,5.090346,0.989026,10.104331,5.771259
1007.843750,4.635176,1.796942,5.334968,8.470616
1007.847656,-2.765053,5.686816,-3.201509,1.469623
1007.851562,3.179759,-10.793073,3.720032,0.721783
1007.855469,-7.665139,-2.335729,-10.902505,-10.172427
1007.859375,-8.939643,1.509944,-2.898827,-3.396025
1007.863281,-10.477137,0.094480,-12.113478,-3.799124
1007.867188,-10.297034,-8.755685,-2.146545,-9.958404
1007.871094,-17.158741,-1.580724,-9.973073,-8.355828
1007.875000,-7.744143,-8.126620,-11.152809,-4.719052
1007.878906,-13.931966,-6.789837,-11.767278,-8.857995
1007.882812,-14.539896,-6.313505,-8.491584,-10.041452
1007.886719,-4.674237,-2.733451,-3.108029,-2.205035
1007.890625,-3.862404,-4.893162,-12.824179,-4.179038
1007.894531,-5.807267,0.488286,-2.612756,3.387242
1007.898438,13.637621,0.180051,-4.939078,-0.586498
1007.902344,1.495049,2.891200,1.787085,4.073001
1007.906250,7.187519,10.462462,3.049840,2.272973
1007.910156,5.114329,9.148890,5.891912,-3.485788
1007.914062,5.611159,2.850352,3.364883,11.235092
1007.917969,6.092399,3.697541,8.395545,15.165785
1007.921875,7.251693,8.296888,13.850236,-0.403789
1007.925781,18.620128,11.966189,7.706300,11.815184
1007.929688,10.355399,15.686920,6.642027,10.162411
1007.933594,-1.138431,11.986731,5.265357,8.556503
1007.937500,2.417400,5.319497,6.802819,10.035982
1007.941406,5.304421,-1.925340,4.115347,4.486780
1007.945312,9.347815,4.951930,-0.065269,12.509470
1007.949219,2.196522,1.294715,0.605615,3.611355
1007.953125,-7.725302,7.858526,-0.954593,-5.958940
1007.957031,-3.025955,-4.402546,-1.165917,-8.388498
1007.960938,-13.654006,-4.853048,-6.501719,-4.538365
1007.964844,-7.956532,-8.888002,-8.272081,-13.819833
1007.968750,-5.237072,-10.501499,-8.216247,-3.382104
1007.972656,-12.011239,-0.534501,-4.309948,-11.717456
1007.976562,-10.068279,-8.791005,-11.126112,-10.708808
1007.980469,-8.539414,-4.333579,-12.234076,-4.721660
1007.984375,-7.594827,-13.224443,-6.296032,-12.520556
1007.988281,-3.605769,-15.661775,-5.561135,-9.175831
1007.992188,-7.815098,-5.362878,-5.543859,-5.937829
1007.996094,-3.534244,-3.730377,-4.407897,-1.809380
1008.000000,-0.686525,0.176601,-0.260855,-0.665986
1008.003906,5.272210,2.411775,4.158087,2.499323
1008.007812,-1.708341,2.252006,2.421178,10.964848
1008.011719,5.589843,5.361763,10.320460,1.519963
1008.015625,5.667980,7.839021,17.007121,10.289548
1008.019531,9.506173,14.297231,8.752005,15.994818
1008.023438,6.241524,10.320285,6.182794,6.791630
1008.027344,15.333042,9.763645,14.480393,14.001409
1008.031250,15.284178,12.759137,17.550389,-6.071744
1008.035156,6.719877,7.521448,8.742786,9.760676
1008.039062,11.181925,5.462475,2.948543,6.801936
1008.042969,5.236098,4.319660,4.186227,6.877895
1008.046875,-0.033897,0.717275,-2.451290,2.783774
1008.050781,-8.598425,0.172492,1.222947,-2.548040
1008.054688,4.694359,-8.760844,-4.688305,-0.372784
1008.058594,-8.850019,-1.126545,-1.914825,-3.104510
1008.062500,-2.339895,-6.823224,-7.594311,-9.645051
1008.066406,-9.124869,-5.217568,-22.113920,-7.953428
1008.070312,-5.654033,-9.394552,-13.965729,-12.680540
1008.074219,-7.485685,-11.403510,-11.975781,-9.256406
1008.078125,-18.008817,-19.136067,-6.999565,-8.672296
1008.082031,-6.078286,-9.740324,-6.855098,-13.438992
1008.085938,-11.904039,-8.014780,-7.207170,-7.646195
1008.089844,-5.945946,-7.796598,-7.775559,-4.147721
1008.093750,4.612040,-1.169460,1.206858,-3.336361
1008.097656,-4.024732,-1.581462,-11.677090,0.000233
1008.101562,1.102535,-3.783870,-6.035248,2.431614
1008.105469,1.758201,0.614928,1.484802,3.961812
1008.109375,2.003950,11.090026,7.061991,6.026242
1008.113281,3.475448,3.780409,8.058753,9.577154
1008.117188,9.345626,11.894906,8.043550,11.150503
1008.121094,12.278281,11.892459,7.152741,13.488263
1008.125000,12.571972,4.989638,14.203978,9.071333
1008.128906,10.806791,5.808456,7.916428,3.221141
1008.132812,4.548106,10.445125,6.676969,15.921751
1008.136719,8.400316,3.169275,7.769402,1.222510
1008.140625,-0.433578,7.768691,9.568930,5.737936
1008.144531,2.434310,11.879815,-1.439038,6.168161
1008.148438,2.765555,2.281148,4.960963,-5.294948
1008.152344,1.656781,-5.333230,-6.237183,-8.327592
1008.156250,3.004452,-5.298260,-4.247124,0.524303
1008.160156,-5.317161,-8.086473,-6.958661,-6.950602
1008.164062,-8.571680,-13.911558,-5.671861,-15.364967
1008.167969,-5.375582,-12.636146,-18.620901,-3.219096
1008.171875,-9.391305,-9.866771,-8.351461,-15.752871
1008.175781,-12.028848,-12.826154,-12.356281,-6.083819
1008.179688,-11.565833,-6.907455,-9.109224,-7.047039
1008.183594,-7.493515,-6.078667,-2.792406,-9.166218
1008.187500,-15.727902,-8.387735,-3.167628,-3.373489
1008.191406,-3.715919,-7.082826,-6.680535,-1.432015
1008.195312,-3.332450,3.622428,-7.937807,-0.964213
1008.199219,0.363542,0.254154,10.132997,-0.406466
1008.203125,-0.462378,-1.434240,-0.489552,-0.821136
1008.207031,2.504878,5.437664,1.587481,-1.358151
1008.210938,14.845625,4.869993,1.930009,8.138382
1008.214844,13.073910,10.816219,10.458307,7.810205
1008.218750,11.025455,9.842127,7.304391,13.233646
1008.222656,9.664254,12.918558,2.142871,9.876362
1008.226562,9.833347,9.004498,9.964820,10.656858
1008.230469,4.572857,0.515339,2.403427,12.974943
1008.234375,11.424127,13.425827,-0.096033,8.576091
1008.238281,7.110258,3.263012,4.930905,9.198773
1008.242188,1.948993,8.449508,8.480889,5.830351
1008.246094,-4.565736,-1.068985,8.011045,2.387049
1008.250000,-1.416122,4.291459,-3.287227,-4.671397
1008.253906,-0.237619,-8.386657,-6.784201,0.981232
1008.257812,-4.699925,-6.813294,-0.710107,-5.176289
1008.261719,-6.751359,-8.218870,-8.922272,-8.209066
1008.265625,-9.847364,-11.954010,-6.734638,-10.924582
1008.269531,-0.969359,-10.929050,-12.387016,-13.459897
1008.273438,-15.644132,-13.582546,-12.816759,-14.032945
1008.277344,-16.106366,-22.547493,-11.895515,-13.064928
1008.281250,-4.610964,-7.634921,-11.102599,-9.700773
1008.285156,-5.016831,-3.243638,-8.099553,-0.588116
1008.289062,-3.962721,-5.618443,-11.146730,-12.325916
1008.292969,-3.285351,-5.336557,-2.728320,-5.074512
1008.296875,-2.962237,3.990230,-0.702850,5.183642
1008.300781,-3.501726,6.265741,-1.035353,6.300232
1008.304688,-0.433683,2.271158,-8.633630,2.565097
1008.308594,0.639288,4.814418,15.620144,4.909758
1008.312500,11.297934,2.468559,7.991304,14.354341
1008.316406,18.996232,7.991986,4.461365,12.552500
1008.320312,14.268752,10.390521,13.006042,13.457854
1008.324219,12.470207,11.763149,0.112349,13.302080
1008.328125,4.790456,3.325383,8.424808,14.929988
1008.332031,8.827150,7.619741,10.876598,11.467922
1008.335938,10.893533,8.841763,7.685893,6.906769
1008.339844,9.170136,10.405726,3.626337,13.519196
1008.343750,3.431170,2.423512,5.382926,8.601047
1008.347656,4.365738,-0.987876,2.281169,-1.606731
1008.351562,-9.505606,1.056387,-0.705049,1.986241
1008.355469,-11.190816,-7.037140,-6.019007,-2.660793
1008.359375,-6.680180,-2.782847,-4.687810,-8.225266
1008.363281,-11.131027,-6.479290,-7.156809,-5.494316
1008.367188,-5.844762,-8.084711,-6.866114,-6.945672
1008.371094,-3.566607,-3.978205,-11.130127,-13.156287
1008.375000,-7.682898,-10.569960,-10.801242,-7.953114
1008.378906,-7.992943,-4.333613,-11.233696,-10.761247
1008.382812,-8.365935,-2.586274,-9.918237,-7.563732
1008.386719,-14.897444,-9.671019,-5.647896,-3.248373
1008.390625,-1.649385,-2.981148,-6.486464,-5.883689
1008.394531,-3.105467,-5.049018,1.155538,-4.415319
1008.398438,-0.359650,-1.852189,-6.546701,9.677578
1008.402344,-3.295410,-0.659473,0.541788,5.412320
1008.406250,5.695453,6.804404,0.202817,4.201188
1008.410156,1.680543,-0.049989,7.615412,6.358650
1008.414062,13.663563,5.868766,9.164660,7.011016
1008.417969,10.165102,5.236272,12.737819,4.740230
1008.421875,14.349763,8.949788,10.641984,12.421159
1008.425781,7.687437,14.324073,20.900691,8.708729
1008.429688,16.217052,6.162189,9.929492,9.171276
1008.433594,1.885665,5.085568,3.189723,9.112601
1008.437500,3.762740,9.718650,10.432647,4.998774
1008.441406,3.215964,1.058518,6.183526,6.938466
1008.445312,2.141643,5.779818,9.139777,4.708725
1008.449219,-1.983926,2.907579,2.513708,4.384948
1008.453125,-5.197673,0.820627,-6.048048,1.276403
1008.457031,-2.993256,-4.003457,-11.460781,-3.496374
1008.460938,-11.671289,-4.236954,-5.207154,-9.520837
1008.464844,-7.392328,-5.092196,-10.820503,-9.526138
1008.468750,-12.981282,-9.091309,-5.729535,-9.922664
1008.472656,-8.493050,-10.175789,-8.486246,-4.828603
1008.476562,-4.985379,-10.837944,-9.675017,-7.073614
1008.480469,-10.597946,-8.539424,-11.083416,-3.791770
1008.484375,-13.599296,-7.027253,-10.552232,-6.965780
1008.488281,-6.582631,-11.717230,-5.115514,-1.952647
1008.492188,-7.674375,-7.199125,-7.835789,-9.305506
1008.496094,1.718338,0.644038,-0.148842,-0.678966
1008.500000,-1.099788,-1.885677,-0.934506,4.344311
1008.503906,4.216246,6.678503,4.193760,-4.296897
1008.507812,6.605169,0.895837,2.744571,3.580120
1008.511719,12.147314,3.953552,3.953585,10.557761
1008.515625,17.398631,4.105925,9.229732,1.623707
1008.519531,8.696362,7.990654,2.590300,9.140542
1008.523438,10.238229,16.213104,3.978303,14.722974
1008.527344,13.063660,4.486380,8.411389,4.097962
1008.531250,7.816005,7.400534,7.469797,5.953538
1008.535156,8.640796,6.357034,13.356645,19.727600
1008.539062,4.768611,7.981585,0.986718,8.922133
1008.542969,-4.052020,1.137860,-2.108688,6.295084
1008.546875,-1.633702,5.910711,10.139877,-0.623648
1008.550781,-2.899941,-0.619840,-1.057764,-3.092413
1008.554688,1.439168,-6.829997,-3.986577,-5.812548
1008.558594,-2.627481,-8.148939,-8.690991,4.156882
1008.562500,-5.840767,-0.300917,-7.123086,-7.882022
1008.566406,-10.906956,-12.009686,-14.475548,-4.958092
1008.570312,-7.928259,-11.913697,-9.229138,-13.152000
1008.574219,-12.799034,-2.569266,-10.949209,-8.865732
1008.578125,-15.098222,-9.918627,-8.316291,-13.358465
1008.582031,-16.471754,-6.630356,-6.286487,-10.530233
1008.585938,-12.135420,-2.482009,-9.547377,-3.693857
1008.589844,-4.109106,-5.424989,1.367139,-8.515516
1008.593750,2.310390,-8.132147,-3.698619,-6.112414
1008.597656,-4.845670,-5.146030,-1.693352,-1.609047
1008.601562,-3.004832,1.679062,-2.088830,5.233148
1008.605469,-2.346989,2.252271,-0.268788,-3.516557
1008.609375,8.777314,8.463123,4.620293,1.513854
1008.613281,11.257127,12.264551,4.186837,6.675963
1008.617188,7.182082,7.038302,2.432782,5.521944
1008.621094,6.124347,9.084471,10.050628,13.540590
1008.625000,17.240464,9.038027,14.550494,10.855448
1008.628906,14.173723,10.631026,10.859785,11.083606
1008.632812,4.794895,2.850593,7.241388,17.434254
1008.636719,5.286571,6.213297,7.109634,5.123668
1008.640625,2.351700,10.302753,3.431706,3.313222
1008.644531,5.139881,3.501067,9.208081,-1.852418
1008.648438,2.457689,3.507425,0.671198,4.112346
1008.652344,0.417614,2.528574,-1.355784,0.209495
1008.656250,-6.616072,-6.893812,-2.934939,-2.839513
1008.660156,-7.545723,-5.821781,-1.979595,-14.765125
1008.664062,-4.907618,-10.446501,-5.184073,-5.733029
1008.667969,-3.193694,-7.628816,-7.369013,-7.978262
1008.671875,-7.252238,-6.192858,-5.951787,-6.455262
1008.675781,-8.397235,-8.688822,-15.598518,-9.433380
1008.679688,-11.820947,-15.365723,-9.455316,-2.612729
1008.683594,-8.239575,-6.149436,-6.599725,-9.283948
1008.687500,-2.069341,-9.774265,-5.469694,-5.045202
1008.691406,-3.488680,-1.565182,0.166111,-5.142276
1008.695312,-5.371094,-3.536397,-2.731418,-1.310848
1008.699219,-4.541120,-1.298810,-0.594669,-0.081293
1008.703125,-1.121881,2.454609,2.065397,3.935097
1008.707031,6.240363,14.219076,2.455488,4.464966
1008.710938,3.601710,9.873237,9.834470,9.660911
1008.714844,13.777711,14.866301,6.228820,10.826567
1008.718750,13.235242,14.678570,6.552374,4.646584
1008.722656,12.766682,4.562081,10.859400,4.582448
1008.726562,8.688477,7.758476,8.163261,9.588643
1008.730469,2.950087,4.534782,11.864564,7.429171
1008.734375,11.101774,4.664185,6.763332,9.405379
1008.738281,9.349863,5.398945,5.715907,0.458885
1008.742188,3.276958,6.124744,2.241400,3.000788
1008.746094,1.862878,-2.483994,8.650768,1.896898
1008.750000,-0.557230,0.507536,5.011483,-1.039597
1008.753906,3.614785,-1.767792,-10.391412,-1.648609
1008.757812,-9.919712,-6.581501,-3.344816,-10.144883
1008.761719,-12.258373,-11.643091,-4.958783,-4.019177
1008.765625,-8.374893,-8.007306,-10.724518,-7.880205
1008.769531,-5.014109,-9.147476,-8.675520,-14.373943
1008.773438,-11.760135,-3.949262,-8.169920,-10.199451
1008.777344,-2.760483,-6.636364,-9.162558,-11.370823
1008.781250,-16.786950,-13.821619,-3.515412,-16.793726
1008.785156,-14.647154,-8.286466,-6.893315,-9.321341
1008.789062,0.910065,-12.782805,-3.720479,-7.377045
1008.792969,4.041981,-7.710276,-1.869420,-8.089268
1008.796875,-1.819807,-3.412630,1.862793,-3.416360
1008.800781,-2.024293,-0.283955,8.744194,-0.515490
1008.804688,4.217838,-3.192127,2.279983,0.591444
1008.808594,8.339255,-0.900457,5.899999,7.063270
1008.812500,6.887961,4.623783,6.724127,7.656308
1008.816406,5.654055,12.383435,6.849281,14.377184
1008.820312,7.430212,7.629932,8.315278,12.844470
1008.824219,9.718783,14.667712,17.154320,0.206042
1008.828125,8.574135,9.224303,9.201311,7.983798
1008.832031,3.878142,7.087996,12.207703,12.213730
1008.835938,1.968649,7.596384,12.842422,6.991364
1008.839844,6.478684,2.662794,3.125081,11.815450
1008.843750,0.218772,6.261795,8.076569,6.489302
1008.847656,0.412206,6.017212,-3.053156,0.917811
1008.851562,-2.353527,2.972576,2.325995,-2.000945
1008.855469,1.160552,-2.020785,-2.783646,0.120692
1008.859375,-3.303682,-7.154510,-0.286596,-9.174383
1008.863281,-11.069685,-6.697601,-12.406462,1.192414
1008.867188,-1.558204,-13.087463,-16.975626,-10.552418
1008.871094,-5.200703,-8.571789,-13.749336,-13.841843
1008.875000,-13.068316,-5.474423,-10.323602,-11.842595
1008.878906,-13.740067,-11.112778,-12.889707,-3.800312
1008.882812,-9.046043,-14.431882,-12.275048,-9.314142
1008.886719,-3.232102,-8.920997,-7.438600,-17.730459
1008.890625,-10.518822,-3.535554,-1.593992,-6.088012
1008.894531,-6.413733,-5.024409,-4.768853,-2.176130
1008.898438,-3.168011,1.475117,-7.264169,-0.789962
1008.902344,3.092345,0.806913,3.999860,2.576528
1008.906250,7.066625,3.326263,-0.336464,7.700498
1008.910156,5.537820,9.335157,2.203782,-3.243106
1008.914062,9.419820,1.789063,4.810421,2.793624
1008.917969,7.843301,13.958618,7.784890,6.004027
1008.921875,3.250975,10.540945,9.564630,8.391468
1008.925781,14.823847,11.033903,11.796846,2.861069
1008.929688,11.110835,5.126421,9.817450,11.655654
1008.933594,3.473527,16.753930,1.143795,10.603391
1008.937500,5.208772,5.534582,3.356045,6.411616
1008.941406,0.361885,8.206710,4.920405,3.526081
1008.945312,-1.779392,2.305873,4.941276,3.630823
1008.949219,-0.676007,0.704512,-0.864493,1.861120
1008.953125,4.015760,-1.451765,-5.281350,-2.512120
1008.957031,1.725072,-4.829824,-2.429552,-0.412382
1008.960938,-5.741039,-12.212147,-14.365656,-6.344151
1008.964844,-6.371762,-5.663754,-5.531178,-6.770132
1008.968750,-12.998524,-14.365821,-15.443862,-13.931924
1008.972656,-9.164473,-6.380766,-5.266393,-7.412097
1008.976562,-11.328498,-11.678712,-7.796719,-15.476099
1008.980469,-11.235131,-10.366070,-12.531452,-6.304889
1008.984375,-11.210700,-13.423781,-9.611343,-8.082228
1008.988281,-4.743636,-2.635671,-9.982530,-2.733433
1008.992188,-12.531545,-1.277314,-5.202168,-6.817994
1008.996094,-3.997545,3.266741,-7.339204,-1.956681
1009.000000,-6.974459,7.736616,1.117544,3.983251
1009.003906,3.683639,3.960551,-0.700222,10.459131
1009.007812,0.911369,5.191991,0.190852,0.963128
1009.011719,7.239907,12.057531,2.929053,13.459183
1009.015625,9.482334,7.762282,6.158667,9.079326
1009.019531,7.441695,16.177350,15.520711,10.258165
1009.023438,5.447249,3.791375,8.552000,16.736663
1009.027344,6.732479,10.429909,12.921962,13.460787
1009.031250,8.536618,12.253645,9.909215,6.080190
1009.035156,0.208406,7.263072,18.780302,10.094499
1009.039062,7.525754,-0.261866,2.424991,10.951940
1009.042969,4.601524,-0.296834,2.549420,-3.272835
1009.046875,8.299706,3.273414,2.123426,2.193475
1009.050781,1.986708,7.211569,1.543940,-2.016604
1009.054688,-0.326152,-7.616277,1.816564,-0.605037
1009.058594,-1.604824,-0.190713,-8.519870,-3.597267
1009.062500,-7.374456,-7.766186,-3.160771,-4.768662
1009.066406,-11.049860,-10.489319,-8.853341,-12.299480
1009.070312,-4.499732,-15.107691,-5.561921,-6.546037
1009.074219,-14.198331,-6.661650,-2.102485,-12.335229
1009.078125,-11.223499,-6.184041,-6.218913,-6.640198
1009.082031,-11.460366,-8.223827,-11.918240,-11.075945
1009.085938,-6.874964,-10.170836,-2.502650,-8.222068
1009.089844,-12.770604,-4.551479,-9.595118,-10.601861
1009.093750,2.102542,-8.054973,-8.727565,-8.941822
1009.097656,-0.522321,-3.128933,2.579180,-5.053831
1009.101562,1.941297,2.278431,0.801185,-4.441594
1009.105469,-5.239570,2.878392,2.847854,1.431919
1009.109375,3.485371,6.859888,5.171096,6.324901
1009.113281,7.723847,7.310689,17.208510,9.497739
1009.117188,6.427242,7.248738,12.252628,7.167709
1009.121094,9.908709,8.619224,13.806992,13.800060
1009.125000,10.649585,13.044107,5.604860,4.359898
1009.128906,10.145146,12.283948,7.418274,12.854200
1009.132812,14.365659,10.348155,12.711504,6.992855
1009.136719,5.555139,8.210939,3.561182,-0.955049
1009.140625,10.364474,13.808842,10.304112,8.951880
1009.144531,0.851899,4.318238,5.617590,3.706223
1009.148438,0.642033,2.402046,1.639514,2.739670
1009.152344,-3.491237,-4.390324,-1.827531,-0.412196
1009.156250,0.291987,-9.784218,-3.461463,-10.727156
1009.160156,-7.606248,-6.075226,-3.210576,-2.152218
1009.164062,-8.131310,-8.559979,-6.165525,-8.446838
1009.167969,-8.482127,-8.418606,-6.066911,-9.197623
1009.171875,-9.990287,-7.502675,-7.644567,-13.861974
1009.175781,-10.237944,-8.041684,-5.239042,-7.905101
1009.179688,-11.141973,-11.926737,-5.820656,-7.756425
1009.183594,-9.384417,-14.000639,-7.640675,-6.483348
1009.187500,-10.706467,-7.843797,-8.821542,-8.436720
