timestamp,TP9,AF7,AF8,TP10
1000.000000,9.499407,-3.778746,0.545172,-1.341301
1000.003906,3.009306,-5.079457,6.969255,2.396119
1000.007812,2.339839,2.156488,1.499296,-0.018292
1000.011719,9.377062,6.306398,2.362902,2.413862
1000.015625,10.689633,7.634926,10.433191,2.242350
1000.019531,13.904726,9.811433,10.636842,0.662954
1000.023438,9.730356,13.201882,6.033546,10.001688
1000.027344,9.195993,13.610262,12.516099,1.815216
1000.031250,8.899060,7.463423,12.258991,3.008786
1000.035156,1.420403,5.565896,9.585928,6.403259
1000.039062,4.100604,3.679012,13.083964,0.742884
1000.042969,-2.305826,5.936187,1.112061,1.178322
1000.046875,1.165150,1.573946,3.967140,2.362727
1000.050781,-4.988628,5.910829,-9.964207,-2.576063
1000.054688,-3.388597,-5.183465,-0.796204,-0.360157
1000.058594,-7.835706,-5.320365,2.764656,-4.552543
1000.062500,-6.873386,-8.488113,-6.938500,-2.565282
1000.066406,-11.946547,-5.803100,-9.562690,-12.605304
1000.070312,-6.689475,-8.178600,-9.616184,-14.631845
1000.074219,-6.914200,-1.687563,-11.910020,-10.662854
1000.078125,-2.591720,-13.537420,-17.755376,-10.691139
1000.082031,-4.997369,-9.781690,-12.631441,-7.041643
1000.085938,-9.064639,-9.486428,-11.522558,-3.876120
1000.089844,-4.544302,-1.737443,-3.226829,-3.552908
1000.093750,-2.867168,-5.078264,-3.408517,-3.970396
1000.097656,2.081817,-1.109750,-3.649308,-3.050822
1000.101562,-6.292070,6.265381,7.655062,7.375364
1000.105469,5.564224,-2.004941,1.549920,-0.472503
1000.109375,6.020224,5.462896,3.495155,4.159653
1000.113281,7.319077,-0.362072,11.639724,3.427950
1000.117188,11.328459,7.450671,12.435778,9.821491
1000.121094,8.079985,12.240415,10.828026,5.511721
1000.125000,9.907274,16.457951,16.469856,14.850062
1000.128906,10.946099,11.868661,10.132841,12.414774
1000.132812,11.810267,13.967973,7.716716,8.623792
1000.136719,8.835248,7.930699,11.135197,3.649287
1000.140625,4.148252,7.759211,2.632836,10.492978
1000.144531,5.496291,4.748379,6.440777,0.465097
1000.148438,5.081106,5.617311,-2.128567,-0.350515
1000.152344,-5.344209,1.260491,-0.025494,-2.447736
1000.156250,-9.197751,-4.593504,-2.490847,-6.218037
1000.160156,-11.663102,-2.906192,-9.675854,-2.789589
1000.164062,-4.707378,-8.999285,-9.348949,-10.318335
1000.167969,-17.743879,-11.823781,-13.778043,-7.380816
1000.171875,-11.008931,-9.832186,-12.640974,-7.501560
1000.175781,-12.461331,-13.045221,-8.853334,-11.960477
1000.179688,-7.157577,-9.722351,-13.949061,-1.632609
1000.183594,-4.629170,-4.344766,-14.774347,-3.694426
1000.187500,-3.845717,-7.836404,-1.204235,-9.924154
1000.191406,5.558607,-5.917855,-4.392943,-5.328389
1000.195312,1.692855,2.613427,-7.281160,7.092115
1000.199219,-2.691071,-4.447643,-3.423601,-1.140889
1000.203125,0.940103,0.130461,-1.702241,-0.327409
1000.207031,-4.407985,7.998924,0.290896,10.748676
1000.210938,8.119504,5.237350,9.243736,4.147152
1000.214844,1.954024,4.879321,3.950481,17.178417
1000.218750,10.579327,3.961452,10.199230,7.408986
1000.222656,3.796822,5.382831,11.932918,13.024247
1000.226562,8.805033,10.205892,5.481023,7.673842
1000.230469,6.549038,9.376507,4.900918,6.326857
1000.234375,9.126696,11.447155,7.297092,9.079887
1000.238281,7.860227,7.432422,13.247583,8.323748
1000.242188,2.307131,9.629195,2.862108,5.009591
1000.246094,6.473586,4.115055,8.177239,-3.222943
1000.250000,-1.206187,-1.159136,0.221621,-1.200580
1000.253906,-6.175494,-2.258260,0.530830,-8.618498
1000.257812,-3.589203,2.914019,-4.014467,0.061078
1000.261719,-8.245458,-6.400113,-13.929289,-10.768330
1000.265625,-11.122082,-5.612533,-3.198904,-19.697699
1000.269531,-12.528619,-12.320152,-11.347586,-12.403154
1000.273438,-11.751195,-3.959672,-9.265089,-4.702215
1000.277344,-13.237835,-11.490724,-13.206552,-4.591785
1000.281250,-10.263045,-9.579549,-10.522799,-0.696105
1000.285156,-9.545747,-10.953673,-10.022123,-7.258264
1000.289062,-2.289312,-6.171670,-3.991606,-1.855590
1000.292969,1.832030,-5.809258,-3.468081,-0.559086
1000.296875,3.832288,-2.738587,-2.399782,-10.645098
1000.300781,1.546143,1.988675,-1.139315,-2.281900
1000.304688,7.162983,-5.957778,0.897636,5.791150
1000.308594,5.379387,-2.546315,0.191727,10.337139
1000.312500,13.901944,15.212759,9.284599,8.759491
1000.316406,6.945142,8.063894,8.517317,12.659075
1000.320312,10.354307,14.875678,5.603781,10.425438
1000.324219,8.644930,23.400657,14.289004,15.360977
1000.328125,16.052243,12.701991,10.090907,5.381245
1000.332031,9.360483,8.084505,16.229978,8.288906
1000.335938,15.952487,10.281332,5.542054,4.865843
1000.339844,-0.091468,9.047122,7.484989,8.168721
1000.343750,0.127107,4.630615,3.864516,7.184184
1000.347656,4.323226,2.485972,1.562696,3.001665
1000.351562,-3.407934,3.356891,2.932601,-3.201646
1000.355469,-4.425418,-5.690178,-7.554127,-4.621226
1000.359375,-6.146966,-3.047128,-4.208602,-7.200004
1000.363281,-9.382530,-6.148447,-9.010907,-3.114287
1000.367188,-7.504998,-5.825469,-6.596532,-8.586494
1000.371094,-6.423472,-2.153660,-12.990168,-12.300862
1000.375000,-14.748124,-5.543005,-13.165354,-2.808150
1000.378906,-12.075017,-7.130562,-9.001364,-7.915837
1000.382812,-8.068516,-8.842508,-14.992987,-8.459740
1000.386719,-3.388298,-9.112265,-10.197121,-11.594079
1000.390625,-4.070233,-7.641789,-5.691269,-9.646378
1000.394531,-7.988619,-2.058869,-0.857362,-5.899714
1000.398438,1.942678,-1.249969,0.857122,1.228251
1000.402344,2.068142,-5.749086,5.626311,3.411988
1000.406250,6.672071,12.938357,10.380210,-0.513457
1000.410156,-2.660654,10.481449,1.994977,4.451327
1000.414062,9.230385,7.238735,5.900849,8.233727
1000.417969,9.106291,12.062941,8.475739,15.735513
1000.421875,17.446503,7.995862,8.833820,6.561036
1000.425781,16.083849,13.542978,4.749486,3.711884
1000.429688,13.471896,8.082631,8.543806,3.571990
1000.433594,6.475403,3.758997,6.995066,8.767755
1000.437500,6.458219,10.452685,11.898232,5.384908
1000.441406,5.166047,8.848172,5.348722,5.889620
1000.445312,5.993447,11.245312,4.696751,4.500439
1000.449219,3.612765,0.346268,-1.432056,3.372783
1000.453125,-0.709297,-1.188477,-0.640446,-5.423564
1000.457031,-5.950650,-1.096307,-8.239593,-11.299080
1000.460938,-6.673177,-4.768904,-9.141026,-2.922414
1000.464844,-3.699431,-6.160667,-5.496545,-1.678925
1000.468750,-13.588466,-17.027003,-16.120183,-12.778707
1000.472656,-13.306679,-10.170448,-11.935873,-4.135798
1000.476562,-13.787723,-10.659474,-5.840378,-5.649356
1000.480469,-8.260694,-4.057746,-14.456668,-6.434288
1000.484375,-9.315406,-12.369170,-11.954057,-6.227309
1000.488281,-3.075624,-10.209211,-1.790743,-8.391011
1000.492188,-1.528926,-11.697096,-3.123704,-0.804776
1000.496094,-2.246024,-2.796847,-0.479457,0.332643
1000.500000,-1.350972,2.293703,7.901577,-5.542735
1000.503906,-3.617234,0.207565,-0.878694,6.895785
1000.507812,9.211936,10.904691,2.957740,5.334462
1000.511719,5.250297,9.787260,6.797261,12.805725
1000.515625,6.981701,8.813209,0.231041,5.190329
1000.519531,4.300153,7.943836,7.133200,13.601589
1000.523438,7.974485,4.938819,6.344921,10.798802
1000.527344,13.616810,13.796727,16.689859,5.807357
1000.531250,10.697505,8.407355,10.475906,11.665597
1000.535156,2.990332,8.690915,7.363755,5.891243
1000.539062,8.459584,6.100473,6.786687,9.683234
1000.542969,6.226746,7.381684,5.903086,1.462666
1000.546875,4.201995,3.526948,0.760843,7.086275
1000.550781,-3.507861,-3.831067,-7.677010,2.020967
1000.554688,4.745396,-5.972906,-3.301983,-0.585616
1000.558594,-1.532673,-2.767053,-6.521314,-8.524521
1000.562500,-7.884771,-1.078335,-4.911895,-10.847184
1000.566406,-11.825430,-5.565338,-12.736227,-12.126112
1000.570312,-12.566257,-10.233929,-13.074102,-10.985410
1000.574219,-9.314897,-10.269196,-8.060173,-12.854801
1000.578125,-15.513102,-9.472924,-6.353244,-15.670323
1000.582031,-10.933844,-17.730816,-11.803139,-3.121161
1000.585938,-5.782075,-4.821494,-3.821884,-5.489162
1000.589844,-5.423885,-6.953155,-2.511512,-13.042300
1000.593750,-2.091220,-8.736882,-9.362319,-0.919040
1000.597656,2.309224,-2.636239,2.190729,3.582176
1000.601562,5.365171,-1.460057,-0.221882,1.754006
1000.605469,-0.683131,8.595674,12.538581,7.286807
1000.609375,6.213637,6.951034,3.241009,-0.293574
1000.613281,14.414525,17.490017,3.761780,6.827959
1000.617188,4.966794,5.385959,10.407382,7.284195
1000.621094,8.113923,5.388061,7.096883,3.762933
1000.625000,8.337149,14.483757,7.129916,10.936588
1000.628906,11.285954,10.668679,6.426570,4.794495
1000.632812,10.179322,-1.541701,11.656330,6.031829
1000.636719,4.538878,4.949530,10.940029,14.700020
1000.640625,8.682652,13.977972,8.014373,-0.499531
1000.644531,4.134126,2.613911,11.692375,7.452506
1000.648438,-2.552882,0.888967,-6.008120,3.514441
1000.652344,-2.703415,5.531573,-0.810875,-3.921036
1000.656250,-7.824611,-3.602065,-7.076797,-3.566865
1000.660156,-9.976053,-10.274276,-10.894918,-3.982827
1000.664062,-11.066252,-2.432833,-13.144392,-11.868451
1000.667969,-9.233693,-15.126179,-4.562144,-4.811564
1000.671875,-6.691536,-4.305019,-10.500323,-12.017322
1000.675781,-7.635584,-16.818297,-9.520982,-8.827964
1000.679688,-7.126812,-4.214296,-6.981391,-14.998001
1000.683594,-7.980881,-8.972638,-9.041977,-7.631142
1000.687500,-9.567004,-6.077881,-8.753646,-2.396242
1000.691406,-4.122516,-5.742351,-4.144607,-11.122582
1000.695312,-8.569764,-3.580705,-4.485472,-1.403329
1000.699219,1.448959,5.276339,-6.632781,-4.177780
1000.703125,-2.783431,5.304284,6.464466,6.430755
1000.707031,2.832540,-1.629039,8.586654,-0.826872
1000.710938,3.420923,4.127427,5.378805,5.557825
1000.714844,8.282969,13.999527,5.517013,7.553655
1000.718750,5.373786,8.547943,5.914586,7.336306
1000.722656,13.054564,12.655123,9.855103,10.477108
1000.726562,17.848297,7.635715,8.588378,11.474351
1000.730469,11.713750,13.418281,3.983651,12.027180
1000.734375,7.823739,-2.424019,15.013034,4.568629
1000.738281,9.331588,6.590530,5.535687,2.885045
1000.742188,0.309309,-0.108972,2.277304,3.789770
1000.746094,-0.893237,1.413072,-1.848468,0.953233
1000.750000,0.005816,2.851628,5.618784,-0.091146
1000.753906,-5.975187,-2.595922,-0.787386,-2.384392
1000.757812,-6.969646,-7.384648,-8.187717,-3.772276
1000.761719,-6.364138,-6.400603,-12.823554,-6.007767
1000.765625,-9.994044,-11.014659,-8.923916,-5.703051
1000.769531,-4.386203,-8.408686,-4.832833,-9.734362
1000.773438,-5.918805,-7.516429,-9.884902,-9.296765
1000.777344,-7.867295,-13.387504,-5.898563,-11.278375
1000.781250,-3.339426,-10.161821,-8.851200,-14.177858
1000.785156,-10.050561,-2.607372,-10.014231,-10.372080
1000.789062,-9.488588,-5.340450,-9.320808,-7.060333
1000.792969,-4.299177,-6.444685,-7.974760,-1.207438
1000.796875,-4.738330,-3.616028,-0.691637,-3.187772
1000.800781,5.309554,-0.193753,-1.654544,0.150447
1000.804688,1.434597,-1.674971,-4.136124,3.930454
1000.808594,4.484920,3.868034,2.011853,6.898919
1000.812500,5.655698,9.641619,5.077334,8.192099
1000.816406,8.895772,3.862372,8.344999,10.856174
1000.820312,8.160261,4.841496,2.371743,2.812246
1000.824219,0.849138,10.184811,11.951113,8.072354
1000.828125,13.659525,8.985074,5.194951,6.096709
1000.832031,2.977841,4.268647,12.605643,7.667504
1000.835938,12.104342,6.706410,7.345078,9.987787
1000.839844,6.389764,9.730134,5.478124,6.331483
1000.843750,4.771666,4.216375,0.314805,10.927260
1000.847656,-1.573381,-0.430093,-1.205717,6.383170
1000.851562,-3.425995,-7.857412,-2.355743,3.314579
1000.855469,-10.511669,-5.118756,-0.931191,1.666631
1000.859375,-8.513605,-7.013228,-0.151772,-8.401599
1000.863281,-9.322509,-9.700049,-13.397131,-13.779534
1000.867188,-6.133424,-10.090710,-14.555136,-9.919459
1000.871094,-8.624475,-10.872408,-6.304745,-9.393710
1000.875000,-9.660473,-10.291932,-12.245085,-10.262084
1000.878906,-13.364685,-9.139153,-11.229655,-5.767047
1000.882812,-7.493732,-11.094257,-8.283590,-6.998967
1000.886719,-0.678471,-6.381608,-7.959608,-12.387943
1000.890625,-6.165622,-6.109855,-3.974586,1.560527
1000.894531,-6.354501,0.873017,-2.825844,-8.376139
1000.898438,-1.576340,0.489096,-6.248357,2.866979
1000.902344,10.740043,-0.397879,-0.976818,-3.979723
1000.906250,-0.646810,7.078693,5.020275,2.853369
1000.910156,9.441701,7.933004,7.051315,6.481992
1000.914062,6.543625,13.587195,11.300066,7.299937
1000.917969,10.871907,14.241283,10.256700,13.132252
1000.921875,10.185868,17.194688,5.537300,4.289769
1000.925781,12.843133,8.372993,4.338625,4.091606
1000.929688,12.969909,13.272189,11.572001,9.446876
1000.933594,9.872633,17.180581,7.755395,6.598553
1000.937500,-0.287513,3.023220,4.986556,9.321147
1000.941406,5.659699,2.770701,9.527540,6.636390
1000.945312,-0.155318,-0.911496,4.011905,4.204427
1000.949219,-0.178089,-5.306143,-1.107570,2.782600
1000.953125,-8.684214,-3.214735,-0.821575,-4.552723
1000.957031,-3.155255,-2.324977,-8.764729,-6.028033
1000.960938,-6.418778,-7.482726,-8.853011,-0.575784
1000.964844,-7.554342,-3.340066,-12.579575,-8.555842
1000.968750,-17.775639,-7.381369,-13.467901,-15.059147
1000.972656,-11.702956,-17.470013,-11.422909,-11.524655
1000.976562,-9.679496,-8.850069,-13.030457,-12.656551
1000.980469,-8.438890,-12.358842,-13.296194,-6.159397
1000.984375,-7.762933,-9.901313,-11.466013,-13.260549
1000.988281,-2.658109,-9.407979,-3.302659,1.080560
1000.992188,-7.007767,-3.077992,-2.336130,-6.608736
1000.996094,1.373630,-2.549229,-0.792553,-5.540650
1001.000000,0.210147,-0.699085,-7.157979,4.473435
1001.003906,4.796687,-2.438702,-2.883799,-5.431734
1001.007812,2.623367,7.224181,4.201904,5.876743
1001.011719,-2.921381,2.055420,5.044394,10.819630
1001.015625,7.552906,6.750058,-0.911526,5.005392
1001.019531,11.743862,4.645551,11.199355,14.561795
1001.023438,9.975861,13.094615,11.983205,13.568849
1001.027344,18.238420,5.233094,-1.306873,1.102002
1001.031250,13.122171,6.085850,8.067662,15.224414
1001.035156,3.379598,8.046061,3.928270,11.126250
1001.039062,3.607375,2.475346,4.035627,2.977146
1001.042969,3.716316,2.229184,0.766539,2.482446
1001.046875,1.428147,2.626304,-1.932125,-0.034217
1001.050781,0.967506,11.693167,-2.949986,-1.707675
1001.054688,-4.264921,1.916705,1.425121,6.670165
1001.058594,-2.900619,-4.944004,-4.897834,-4.414605
1001.062500,-4.929472,-6.733807,-12.519855,-8.009890
1001.066406,-4.472333,-13.870989,-5.238046,-8.866136
1001.070312,-15.554558,-6.623312,-12.534693,-9.429613
1001.074219,-9.845629,-7.894719,-7.874384,-11.792641
1001.078125,-10.020369,-11.063429,-15.091825,-12.150938
1001.082031,-13.521711,-9.688538,-18.794208,-6.672244
1001.085938,-1.212348,-10.384938,-7.916769,-7.146704
1001.089844,-13.807619,-1.401510,-4.516520,-4.710544
1001.093750,-9.568523,4.675258,-9.092635,-1.681884
1001.097656,-4.126083,-0.312290,-4.274539,-3.651892
1001.101562,2.014630,-4.996681,-7.016975,-0.444498
1001.105469,1.203706,-1.102236,12.492131,3.801354
1001.109375,9.869329,7.839823,0.733983,3.205725
1001.113281,8.310090,1.173598,8.682448,5.886776
1001.117188,11.987248,12.270384,13.628727,1.964489
1001.121094,8.413721,5.977329,12.748137,7.847389
1001.125000,10.942617,9.855682,6.321462,7.558992
1001.128906,7.405739,11.326065,13.378381,12.498680
1001.132812,8.480216,4.564921,4.613745,8.796434
1001.136719,3.838617,10.129821,2.758414,4.451140
1001.140625,2.961630,7.238963,7.159830,12.173878
1001.144531,8.979090,-2.316278,7.860911,9.266718
1001.148438,-3.421237,4.574594,-3.949431,-4.110974
1001.152344,2.454129,0.059728,-3.546132,-6.047876
1001.156250,-8.807370,-5.626036,0.282494,-1.260875
1001.160156,0.170133,-7.314838,-2.940984,-8.356400
1001.164062,-7.547731,-8.482018,-9.823967,-10.503163
1001.167969,-7.891809,-6.637050,-7.398780,-8.690320
1001.171875,-10.987494,-9.026506,-4.441072,-8.372552
1001.175781,-20.393924,-4.166606,-12.978634,-4.693180
1001.179688,-14.520554,-10.268237,-3.020395,-18.979676
1001.183594,-6.594517,-6.716357,-3.734890,-13.411099
1001.187500,-8.224665,-4.614243,-5.388958,-7.517239
1001.191406,-7.636905,-2.446186,-9.398390,0.098376
1001.195312,-10.775108,7.058032,-3.042033,-2.453294
1001.199219,-0.797102,4.178954,2.996138,1.609562
1001.203125,0.999261,-0.402192,0.390685,4.851353
1001.207031,7.459883,5.632264,12.791063,1.038648
1001.210938,11.651272,10.041989,5.280812,6.851675
1001.214844,6.159743,12.187961,11.084470,13.217513
1001.218750,3.691858,8.451938,9.911493,10.418079
1001.222656,9.287940,9.225107,8.366399,10.229371
1001.226562,8.119811,19.688143,8.573192,3.451814
1001.230469,10.418464,13.981105,-3.162141,6.302735
1001.234375,-0.450713,9.541215,8.635412,3.090687
1001.238281,0.749155,3.627535,4.286218,3.106254
1001.242188,4.062840,2.820836,9.711445,13.489341
1001.246094,2.726369,4.438196,6.633807,-5.416450
1001.250000,-0.380845,-5.204034,0.915036,-1.153648
1001.253906,-3.464446,-0.777063,4.010035,-4.450807
1001.257812,-5.222756,-4.856036,-5.462532,-8.313382
1001.261719,-14.033490,-1.448746,-8.849075,-4.885528
1001.265625,-13.276569,-9.088127,-5.509548,-2.744558
1001.269531,-10.511404,-7.316559,-13.634643,-11.924805
1001.273438,-3.965318,-17.159640,-13.111003,-9.089673
1001.277344,-15.316500,-9.676698,-3.100956,-12.528587
1001.281250,-6.241607,-14.209839,-2.408578,-14.920126
1001.285156,-8.922408,-3.767404,-2.490920,-10.313426
1001.289062,-9.915670,-2.920234,-8.150486,-6.061991
1001.292969,-2.444746,-2.408420,-4.037006,-1.361278
1001.296875,-1.436979,-0.329751,2.765682,-11.289711
1001.300781,1.495349,2.761179,1.675640,5.133231
1001.304688,4.802458,2.346130,8.097907,0.950190
1001.308594,1.680287,2.409109,1.026040,7.206661
1001.312500,4.840439,13.066577,11.669121,12.070042
1001.316406,8.264135,14.230511,4.368395,4.009224
1001.320312,7.381763,3.770333,12.861557,14.779597
1001.324219,10.202819,12.551731,6.100767,9.992606
1001.328125,5.765749,6.139376,14.882447,15.087948
1001.332031,6.775795,7.300938,20.745050,9.434212
1001.335938,-1.663729,2.881250,12.498930,4.515816
1001.339844,7.092757,6.886389,4.409360,-1.093259
1001.343750,-0.355554,5.776308,4.947533,1.431686
1001.347656,-2.590353,2.247849,-1.880318,7.697686
1001.351562,-6.384880,-8.933930,2.382872,-3.877438
1001.355469,-0.506370,-5.500616,-3.823603,-3.875326
1001.359375,-0.271422,-11.467740,-7.184786,-4.681529
1001.363281,-3.653627,-6.697897,-4.471772,-0.845637
1001.367188,-6.363079,-6.834989,-8.847827,-5.815771
1001.371094,-8.505426,-19.573658,-3.919382,-8.697450
1001.375000,-11.881455,-9.650572,-4.416124,-14.086128
1001.378906,-8.356196,-7.442629,-7.950292,-12.243695
1001.382812,-12.607731,-7.502129,-6.775063,-2.126925
1001.386719,-7.536352,-4.882327,-7.495611,-9.919454
1001.390625,-3.386652,-6.611039,-6.758227,1.597612
1001.394531,-11.521642,-0.004903,-4.395721,-5.348656
1001.398438,3.434553,-0.138907,-2.194393,2.541208
1001.402344,-7.229972,0.608133,8.125121,0.152480
1001.406250,3.971294,5.977116,-3.410202,10.037412
1001.410156,7.114212,5.400235,8.709512,0.327635
1001.414062,5.783002,13.238067,-1.775736,11.383814
1001.417969,10.013351,10.462057,-1.500222,5.821070
1001.421875,7.245782,10.800402,9.222500,8.790106
1001.425781,9.851470,7.184582,8.342595,8.933525
1001.429688,16.622403,12.527254,16.267666,17.519947
1001.433594,3.409245,7.169248,7.353765,6.604799
1001.437500,9.360245,9.130559,11.883282,7.953739
1001.441406,5.714816,11.282246,-1.265828,5.896478
1001.445312,2.219148,-0.352291,2.021659,3.903665
1001.449219,2.091560,-3.437200,3.226148,5.456088
1001.453125,-1.315263,-5.150751,-2.004308,-1.538101
1001.457031,-3.774612,-4.927270,-11.379426,-8.155596
1001.460938,-4.456103,-7.274720,-5.101927,-6.737689
1001.464844,-2.206978,-7.751765,-10.071343,-10.649466
1001.468750,-4.318684,-4.089110,-12.407708,-4.290269
1001.472656,-6.413665,-11.642482,-5.065126,-6.925739
1001.476562,-7.810045,-13.640100,-2.844997,-10.112317
1001.480469,-11.009190,-9.294236,-14.152476,-13.494893
1001.484375,-13.835119,-6.109677,-14.842401,-2.288650
1001.488281,-8.191127,-9.777309,-9.809139,-7.841804
1001.492188,-5.683820,2.350632,-12.954721,-7.282322
1001.496094,0.937466,1.082049,6.427564,-1.006393
1001.500000,-4.837422,-2.983701,-3.064672,4.058627
1001.503906,7.747615,-2.291838,8.078607,0.555161
1001.507812,6.691356,7.769352,6.614883,1.159565
1001.511719,6.944538,6.641319,8.575968,7.762419
1001.515625,12.409033,9.459414,5.431589,2.249085
1001.519531,7.172814,9.665675,8.604097,5.294094
1001.523438,13.639885,15.916274,11.425390,10.188512
1001.527344,15.312743,1.890357,13.446734,3.022454
1001.531250,4.591721,9.458635,19.330194,13.740260
1001.535156,15.556505,8.219244,8.353073,7.673356
1001.539062,10.529595,0.600827,6.829822,1.363900
1001.542969,8.307167,4.128827,4.173188,-0.496312
1001.546875,5.419085,-6.102727,4.756041,0.934959
1001.550781,-3.436208,3.476193,-0.502559,-0.017743
1001.554688,-9.101599,-1.221744,-4.263930,-5.172789
1001.558594,-3.496928,-3.729513,7.124668,-4.691546
1001.562500,-1.867196,-11.729382,-4.606499,-12.515787
1001.566406,-9.939652,-8.835978,-3.948763,-10.453815
1001.570312,-13.485823,-7.741047,-9.252002,-18.172266
1001.574219,-17.158757,-9.824586,-12.405570,-7.851827
1001.578125,-6.625223,-17.582115,-12.007774,-4.588285
1001.582031,-5.791984,-11.202373,-6.250771,-8.244457
1001.585938,-5.298949,-0.410686,-3.121909,0.805289
1001.589844,-6.595331,-6.741950,-1.834110,-8.846897
1001.593750,1.709875,-5.930835,-0.579851,-6.808495
1001.597656,1.588038,-2.073684,1.650923,-0.847971
1001.601562,7.799007,2.244236,4.595269,0.580200
1001.605469,-1.106506,-4.744328,5.168098,8.457147
1001.609375,11.448271,6.501405,6.052982,12.830222
1001.613281,4.161927,17.755418,9.764754,7.380330
1001.617188,8.036322,3.580791,4.446515,9.682194
1001.621094,9.827236,6.315660,11.243380,10.717410
1001.625000,2.743334,14.473277,6.320921,11.031844
1001.628906,10.180142,9.336465,11.898000,7.515886
1001.632812,15.595842,13.675892,14.310734,7.675840
1001.636719,6.395435,1.933959,9.516431,10.687898
1001.640625,3.656477,4.040473,6.617617,10.210114
1001.644531,8.767985,8.460956,3.246142,7.166517
1001.648438,0.910369,5.841100,4.858037,0.487839
1001.652344,-1.645305,-3.578002,4.779314,4.554365
1001.656250,-11.175913,-4.162904,-0.625052,0.289988
1001.660156,0.811776,-11.115712,-4.287170,-5.878009
1001.664062,-4.298829,-5.783339,-7.589191,-2.169839
1001.667969,-10.601893,-12.369325,-11.695369,-9.695126
1001.671875,-11.160620,-12.422009,-18.137801,-4.990396
1001.675781,-3.536892,-17.830720,-7.631819,1.032912
1001.679688,-11.303060,-0.892424,-10.391811,-14.522449
1001.683594,-8.764414,-9.176046,-8.949952,-0.293660
1001.687500,-0.958450,-3.848496,-9.995713,-5.738296
1001.691406,-6.700610,-7.344600,-6.786089,-11.229145
1001.695312,-8.690148,6.052910,-0.532676,-2.822857
1001.699219,-6.458272,-6.226134,-0.295499,3.000978
1001.703125,2.333383,4.672577,-1.751632,8.778957
1001.707031,8.393708,4.244224,1.658703,5.063665
1001.710938,7.410875,2.684021,4.701949,5.236551
1001.714844,4.684465,13.380928,8.746312,9.199640
1001.718750,10.063629,6.691930,6.666761,6.144440
1001.722656,13.698169,4.980842,7.847445,12.950856
1001.726562,14.651689,4.566212,2.367325,13.233850
1001.730469,6.420867,11.209804,7.214952,14.141326
1001.734375,10.499189,9.666248,4.352215,11.347402
1001.738281,2.747239,11.082515,4.862387,11.496256
1001.742188,6.254765,3.842138,6.103387,10.212510
1001.746094,-0.819333,5.430135,1.105936,-2.711468
1001.750000,-0.096158,2.066269,3.833743,-1.736024
1001.753906,-9.118039,-5.623862,-6.367809,2.472806
1001.757812,-12.314130,-6.227198,-7.548455,-7.563398
1001.761719,0.203127,-6.606599,-6.083154,-1.708352
1001.765625,-11.483060,-5.752648,-7.106270,-6.275481
1001.769531,-7.026638,-5.216691,-10.720284,-14.344275
1001.773438,-10.221995,-9.478887,-13.475711,-3.960544
1001.777344,-2.493647,-9.076794,-8.809838,-8.813327
1001.781250,-10.914905,-11.109554,-8.297796,-3.957342
1001.785156,-6.584465,-10.528857,-9.248551,-9.817992
1001.789062,-6.605242,-9.497313,-11.464594,-6.639654
1001.792969,-7.700376,-1.775266,-2.945749,-5.220703
1001.796875,0.104792,-1.026565,-0.607195,2.373223
1001.800781,-3.890010,-6.091644,4.133994,-3.311972
1001.804688,2.217769,10.976708,-1.026054,2.094314
1001.808594,0.630873,5.879623,7.170420,3.306983
1001.812500,13.571493,10.029758,2.485630,7.078014
1001.816406,17.285367,5.171273,6.896687,5.423488
1001.820312,7.578181,6.271572,17.059885,6.645743
1001.824219,10.901582,10.511241,14.755219,16.049619
1001.828125,8.667973,5.930770,13.009464,9.840755
1001.832031,2.882387,10.138891,0.434611,14.151340
1001.835938,9.785654,5.037414,6.731586,8.831427
1001.839844,7.228372,-0.157032,0.982450,5.208837
1001.843750,1.146283,13.932441,5.807324,6.833651
1001.847656,4.094004,-10.533415,8.480861,3.263028
1001.851562,-1.952771,0.935980,-4.126983,-1.976788
1001.855469,-1.156948,0.769977,-3.732605,2.734395
1001.859375,-4.991607,-15.583775,4.835775,-1.765221
1001.863281,-5.083546,-10.434548,-2.790617,-4.750445
1001.867188,-13.656691,-8.388919,-10.435941,-13.714490
1001.871094,-10.396608,-3.040489,-10.525390,-14.822986
1001.875000,-9.163131,-10.662994,-11.536697,-11.632116
1001.878906,-9.947031,-12.855915,-7.795872,-12.629882
1001.882812,-10.932277,-8.855444,-10.864701,-12.045771
1001.886719,-6.185070,-10.821598,-7.883849,-13.214870
1001.890625,-4.352000,-1.278763,-7.440519,-6.248222
1001.894531,-8.745692,-3.944300,-10.304134,2.487182
1001.898438,0.372121,2.891007,-4.559214,1.960884
1001.902344,-5.673095,-4.654727,3.009527,-5.339981
1001.906250,7.986723,5.458423,4.581224,4.478022
1001.910156,0.085325,10.156435,2.759739,9.449526
1001.914062,6.672567,4.198802,3.364223,9.098012
1001.917969,7.638964,14.581334,7.461726,6.777407
1001.921875,15.658122,11.806889,9.822907,12.868499
1001.925781,6.307949,10.329593,10.572322,6.698089
1001.929688,7.641058,13.621183,10.656948,9.639172
1001.933594,8.285770,14.949770,-2.242148,5.658859
1001.937500,14.430785,7.743289,10.251160,12.529579
1001.941406,9.442427,2.598357,3.137102,-0.449409
1001.945312,1.018056,4.905540,-4.317616,4.096415
1001.949219,1.170874,-1.984487,-0.098000,-3.192043
1001.953125,-7.091488,1.957925,-0.353007,3.307010
1001.957031,-9.895765,-8.751322,-3.608147,-1.903406
1001.960938,-4.536380,-8.457695,-5.439533,-3.594910
1001.964844,-11.219849,-8.211594,-9.541555,-13.695759
1001.968750,-13.198360,-12.198366,-9.199585,-9.009719
1001.972656,-15.193974,-12.749853,-12.043823,-10.498721
1001.976562,-2.858700,-10.431844,-11.276477,-14.690281
1001.980469,-8.667400,-12.809641,-11.108374,-1.244505
1001.984375,-11.185453,-11.206373,-15.467058,-11.447371
1001.988281,-8.129202,-8.094061,-4.826175,-2.965647
1001.992188,-4.599287,-5.473248,-6.941492,-9.088239
1001.996094,-1.135953,-6.197792,-1.803043,-2.360316
1002.000000,2.843260,1.895371,-4.153676,0.409370
1002.003906,0.686750,1.667100,8.577900,5.839406
1002.007812,3.887045,1.169963,0.279713,4.937318
1002.011719,7.223514,5.194285,4.227663,4.599972
1002.015625,7.226460,5.136835,9.507504,10.586928
1002.019531,11.550133,7.573620,6.866898,3.890421
1002.023438,9.092262,20.384334,15.449389,16.678027
1002.027344,10.137836,14.510177,13.742292,11.051478
1002.031250,8.362409,10.765148,12.923475,10.211521
1002.035156,-3.510276,9.650264,1.826498,10.091410
1002.039062,10.725871,6.167652,1.531087,1.683504
1002.042969,4.965092,3.724854,6.804315,2.929872
1002.046875,-1.119328,5.988006,7.948939,-1.255142
1002.050781,0.618118,5.261757,-2.809950,1.911726
1002.054688,-2.870020,-5.641527,1.461406,1.820320
1002.058594,-7.666504,-4.817970,-7.455490,-10.710127
1002.062500,-4.541661,2.965490,-11.987176,-8.870853
1002.066406,-6.152805,-3.432991,-21.517376,-5.598324
1002.070312,-14.111951,-8.098048,-4.520903,-10.992844
1002.074219,-10.376364,-7.472716,-13.702687,-5.573322
1002.078125,-11.556957,-12.764457,-7.173346,-14.775873
1002.082031,-16.476628,-7.585189,-6.714799,-8.923538
1002.085938,-13.249681,-9.827977,-12.934101,-6.831691
1002.089844,0.972431,0.322774,4.246661,-3.421997
1002.093750,-8.439845,-3.551320,-6.306499,-9.244847
1002.097656,-10.342399,-4.880259,-5.218934,3.517752
1002.101562,-4.503734,-4.307104,-1.775700,-0.201707
1002.105469,3.457386,-4.361861,5.665747,6.374517
1002.109375,6.829555,2.423475,5.366660,-0.773893
1002.113281,2.692445,4.145285,6.806257,9.472497
1002.117188,6.913142,10.143624,13.004404,-3.325068
1002.121094,8.811094,13.439840,3.431131,13.088704
1002.125000,7.340697,7.617827,5.022513,10.130594
1002.128906,12.662317,10.576432,8.838338,11.580608
1002.132812,-1.214724,8.058488,14.285740,5.882359
1002.136719,-4.017920,6.720157,3.449986,11.414958
1002.140625,7.950693,1.690512,8.837045,5.385929
1002.144531,9.838684,0.979480,6.717724,1.004449
1002.148438,1.631220,1.500976,1.948300,1.558543
1002.152344,-4.090033,0.985969,2.136647,-2.606143
1002.156250,-4.476931,0.985421,-6.145462,2.112238
1002.160156,-8.476849,-6.609009,-5.867668,-2.237332
1002.164062,-5.211950,-5.047311,-13.570099,-4.613040
1002.167969,-17.740693,-3.504208,-2.699400,-11.604843
1002.171875,-12.049750,-12.709672,-5.428400,-11.181433
1002.175781,-9.236419,-6.683501,-4.130917,-7.007519
1002.179688,-10.747526,-7.325555,-1.930631,-9.818672
1002.183594,-5.128530,-10.391230,-13.224485,-8.949682
1002.187500,-7.742385,-5.342635,-9.416725,-7.038696
1002.191406,-3.822257,-16.540584,-8.101189,-2.981510
1002.195312,0.978397,-3.858905,4.388447,-0.057556
1002.199219,3.646866,-2.853955,-5.777835,-0.742808
1002.203125,0.030694,3.283090,3.437312,5.084483
1002.207031,9.083377,7.839601,-4.077922,9.128219
1002.210938,-2.012203,7.407188,4.805837,3.386515
1002.214844,14.037111,8.434665,5.115054,7.839863
1002.218750,10.838771,3.009866,12.714066,10.755878
1002.222656,13.506654,7.332460,14.173122,8.978623
1002.226562,13.148104,15.437225,17.304670,6.308817
1002.230469,5.021155,9.989449,15.890617,12.774151
1002.234375,6.697314,7.795765,11.659483,2.757464
1002.238281,16.669187,2.591714,1.233266,6.528556
1002.242188,7.165266,-0.042810,9.516704,2.805768
1002.246094,-0.348342,3.716971,1.953889,-0.374541
1002.250000,5.810282,-2.029695,-0.870728,-3.583680
1002.253906,-8.956033,-7.593275,-1.874499,1.607151
1002.257812,-3.781596,-2.933187,-3.447277,-7.138275
1002.261719,-0.337187,-7.981716,-2.341961,-8.717421
1002.265625,-7.490681,-5.253823,-12.333528,-11.803708
1002.269531,-11.458159,-16.559743,-9.754660,-12.207529
1002.273438,-11.911824,-4.810238,-13.778818,-5.952477
1002.277344,-5.121746,-7.461869,-9.282889,-13.937725
1002.281250,-8.517641,-8.286304,-16.952928,-7.953862
1002.285156,-6.179998,-7.600332,-3.729143,-8.903583
1002.289062,-3.344203,-6.266724,-1.646878,-12.294779
1002.292969,-0.806433,-6.440340,-9.608161,-7.962720
1002.296875,-5.633353,-2.806249,-1.936596,-2.445580
1002.300781,1.801125,0.794653,3.484266,0.275422
1002.304688,2.519202,3.978339,2.319236,5.344193
1002.308594,12.228035,3.048300,1.959570,7.065191
1002.312500,7.207322,4.549061,8.623858,3.598320
1002.316406,7.535217,1.984025,8.531780,14.262615
1002.320312,7.024836,14.758009,0.683755,15.280965
1002.324219,3.009935,11.612262,10.677419,13.019693
1002.328125,13.935771,7.826990,9.511789,9.718203
1002.332031,18.037927,9.982577,2.820980,9.388831
1002.335938,1.988368,5.231745,7.101734,3.291849
1002.339844,2.843854,8.060151,4.694283,-0.250420
1002.343750,-0.394525,3.999000,4.736899,9.745577
1002.347656,-5.520859,2.689927,2.779272,-0.108669
1002.351562,2.266749,0.995770,-0.742829,5.141585
1002.355469,-6.237329,-4.229967,-8.830115,-4.305805
1002.359375,-7.582405,-10.382956,-9.394446,-6.832846
1002.363281,-7.034744,-4.470874,-11.502073,-10.416135
1002.367188,-9.049956,-7.380553,-17.845951,-11.712674
1002.371094,-15.522067,-12.410600,-6.841335,-12.286452
1002.375000,-15.325491,-11.620866,-11.886392,-15.505061
1002.378906,-7.273623,-13.642322,-13.611189,-9.059237
1002.382812,-10.994680,-21.845200,-15.916754,-11.488642
1002.386719,-10.886480,-11.110980,-3.481893,-11.457729
1002.390625,0.266598,-4.608916,-0.695680,-3.146489
1002.394531,1.948186,-1.397017,-5.772590,-6.601043
1002.398438,-0.076079,-2.097199,2.203759,-0.774226
1002.402344,0.824365,1.883659,-0.935737,-5.179432
1002.406250,2.894151,-1.604423,10.969619,-1.045146
1002.410156,6.535304,12.191260,4.726353,-0.724579
1002.414062,17.334228,5.902198,13.123599,1.592288
1002.417969,7.912696,11.417284,14.856158,5.714339
1002.421875,11.556646,11.385667,10.576673,2.261748
1002.425781,13.966946,19.160121,14.721701,15.038197
1002.429688,8.873154,5.209947,7.916027,8.638933
1002.433594,14.838213,8.721832,5.632360,11.503225
1002.437500,5.699032,3.462612,6.872092,7.380427
1002.441406,0.015836,8.183256,-0.925525,5.042856
1002.445312,-1.508645,6.120208,-1.711403,7.381616
1002.449219,4.994160,-0.485237,3.228683,-7.050084
1002.453125,-1.306765,-0.370749,-6.238947,-3.151644
1002.457031,-6.394759,-2.043801,2.400771,-6.760409
1002.460938,-2.330532,-6.175771,-6.324424,-2.752077
1002.464844,-1.868224,-12.793923,-11.751993,-10.798267
1002.468750,-13.392581,-3.638691,-18.936177,-7.718138
1002.472656,-2.701246,-12.923895,-5.077209,-19.536480
1002.476562,-6.780285,-13.710543,-7.798549,-8.684671
1002.480469,-10.183261,-5.776249,-10.693676,-12.819991
1002.484375,-10.713081,-8.673472,-7.205587,-7.243306
1002.488281,-6.889633,-11.637391,-5.045042,-14.112660
1002.492188,-9.686758,-0.171964,0.634102,-4.102599
1002.496094,-2.805336,-7.227550,0.130444,3.357466
1002.500000,-3.456163,-3.087533,-3.693587,-8.026730
1002.503906,3.954300,1.168286,0.625609,1.896624
1002.507812,3.218435,8.239390,5.862009,6.526311
1002.511719,9.569636,9.343632,6.377709,5.636193
1002.515625,1.973031,7.715367,10.544076,10.850502
1002.519531,6.471881,3.479643,5.601578,12.287367
1002.523438,8.878240,7.840436,9.014192,11.783582
1002.527344,7.482900,7.676479,9.410415,4.742433
1002.531250,7.537493,7.192674,9.282888,14.083306
1002.535156,5.404436,6.069562,5.083828,10.111735
1002.539062,9.483717,0.093678,8.706689,8.175417
1002.542969,1.314646,4.397825,2.987760,3.460032
1002.546875,7.140447,0.161954,6.768339,1.710631
1002.550781,2.338024,0.040870,-2.180216,2.336832
1002.554688,-4.798079,-4.577539,-3.570643,-5.009768
1002.558594,1.227009,-10.294141,-1.886630,-0.467893
1002.562500,0.477083,-9.332250,-0.168367,-8.045119
1002.566406,-10.726381,-8.395596,-8.582381,-15.421398
1002.570312,-13.939345,-19.426059,-7.380109,-3.972356
1002.574219,-2.743050,-18.466449,-6.468789,-16.625036
1002.578125,-5.447820,-3.364928,-13.843895,-16.028085
1002.582031,-9.230140,-8.663509,-2.505374,-18.043221
1002.585938,-7.816100,-12.665187,-7.361627,-14.113578
1002.589844,-3.202201,-0.625206,-15.737728,-8.031252
1002.593750,-2.883668,-0.977328,-7.985656,-1.479465
1002.597656,1.433042,-0.674004,-5.447804,-8.658446
1002.601562,2.714392,6.355587,-3.225259,0.718484
1002.605469,7.893829,7.489731,9.288808,2.502597
1002.609375,8.386926,13.314917,5.141078,7.606832
1002.613281,3.867894,5.511266,6.698390,9.229508
1002.617188,12.860848,5.862677,11.012685,19.352083
1002.621094,11.143905,11.153915,8.355755,5.651706
1002.625000,12.330929,9.854409,13.313677,5.877794
1002.628906,6.803601,4.402206,14.987122,7.428097
1002.632812,6.480549,11.257525,6.065609,8.356123
1002.636719,8.536131,8.723908,6.733066,3.369778
1002.640625,5.198093,-3.939409,4.712089,9.935300
1002.644531,3.076325,4.332356,7.834101,6.244588
1002.648438,-3.794939,0.473590,5.686405,2.885567
1002.652344,-2.863271,-5.667101,-2.751228,-0.992436
1002.656250,-3.485378,-4.694638,-8.032378,-10.874500
1002.660156,-0.431727,-8.057723,-8.025613,-1.284816
1002.664062,-7.987740,-3.383095,-9.869704,-11.160544
1002.667969,-7.479568,-10.180962,-5.737581,-5.136325
1002.671875,-4.162225,-11.723752,-7.374208,-15.971805
1002.675781,-17.989404,-6.720060,-9.920680,-10.396796
1002.679688,-7.177507,-17.785744,-12.370690,-6.416832
1002.683594,-7.289689,-13.714529,-9.920756,-13.108589
1002.687500,0.456436,-8.227871,-6.024824,-8.641360
1002.691406,-9.721923,-5.218887,-1.868343,-2.677422
1002.695312,-3.812852,-7.588256,-0.097482,-6.455489
1002.699219,0.471780,5.660227,-4.843603,5.140727
1002.703125,2.629268,0.989042,1.104208,7.825932
1002.707031,-2.237087,5.914835,3.192271,4.711047
1002.710938,6.976542,5.331076,6.437941,9.532828
1002.714844,4.511602,6.940229,-0.453870,12.342997
1002.718750,7.985828,1.217234,14.845571,19.087739
1002.722656,13.716267,11.675561,19.784589,6.892336
1002.726562,4.351055,11.902221,13.101435,3.699672
1002.730469,10.737735,1.849167,8.814055,18.733033
1002.734375,11.886787,9.309880,4.717574,0.765834
1002.738281,3.192156,6.051150,9.282317,7.429613
1002.742188,5.523637,4.043408,5.834743,10.549677
1002.746094,-1.021974,1.003094,3.803028,0.326630
1002.750000,8.763647,-0.423142,-1.379341,0.674670
1002.753906,-10.140597,-3.068593,-2.303431,-0.843481
1002.757812,-2.995590,-3.711587,-9.166639,-4.802047
1002.761719,-5.158637,-8.357476,-11.176404,-3.115982
1002.765625,-5.007132,-5.128014,-7.879360,-10.028654
1002.769531,-6.717023,-17.297895,-10.874910,-7.897294
1002.773438,-14.211274,-6.964262,-14.615083,-8.166475
1002.777344,-11.870693,-4.512218,-10.462698,-8.975192
1002.781250,-4.141663,-7.434317,-8.514406,-13.110899
1002.785156,-6.969623,-11.661201,-3.589064,-10.525467
1002.789062,-1.796917,-3.008960,-2.924804,-0.735868
1002.792969,-2.064871,-6.697799,-2.354081,-8.803680
1002.796875,-2.420728,-5.026050,0.264377,-1.522569
1002.800781,-7.984887,1.726599,3.384775,1.658832
1002.804688,8.371673,4.510947,3.320124,1.729933
1002.808594,0.562614,9.942349,-2.393794,-0.702842
1002.812500,4.858400,6.327666,6.611232,5.488725
1002.816406,5.507029,7.069501,7.031529,9.292402
1002.820312,18.060816,10.276773,6.126906,4.237003
1002.824219,11.563453,5.226328,10.150284,15.049143
1002.828125,8.737877,13.055774,15.453373,10.056858
1002.832031,10.858909,3.054921,7.097585,12.318545
1002.835938,8.815129,11.266898,6.967063,10.113978
1002.839844,13.048900,8.092661,9.896802,9.163371
1002.843750,-1.282559,2.296949,6.610546,3.078968
1002.847656,-6.491294,-0.557726,-1.108637,-6.062106
1002.851562,-1.953392,-0.082440,-4.010328,-3.136106
1002.855469,-3.677448,-1.081911,0.795012,-8.815081
1002.859375,-6.777931,-4.177433,1.440097,-3.227590
1002.863281,-7.892551,-16.218547,-6.301881,-5.975696
1002.867188,-12.141469,-9.586800,-10.660962,-10.981377
1002.871094,-6.792465,-16.151028,-8.924086,-2.325410
1002.875000,-9.934633,-11.142724,-5.262641,-8.732409
1002.878906,-12.785511,-9.819935,-11.525502,-4.368217
1002.882812,-18.269670,-9.377535,-8.362994,-8.511582
1002.886719,-6.918395,-8.379976,-9.395736,-16.192286
1002.890625,-3.193978,-5.982643,-4.283444,-4.502025
1002.894531,-8.482839,-5.039663,8.055936,-11.428220
1002.898438,8.449578,-6.248264,-1.187050,-4.953343
1002.902344,-4.195306,6.641716,4.759476,11.689659
1002.906250,8.533009,6.858938,4.052114,9.421915
1002.910156,7.743199,10.453098,5.632476,10.436185
1002.914062,8.682176,12.549734,10.830211,4.092121
1002.917969,11.355831,14.522703,7.085382,10.178646
1002.921875,9.926594,9.064016,5.255379,12.856700
1002.925781,15.571451,3.592006,11.672190,7.112754
1002.929688,8.673570,13.448527,16.931458,6.275655
1002.933594,9.164640,5.343805,7.728981,7.358226
1002.937500,8.989849,11.426963,2.494090,4.919331
1002.941406,0.187742,6.387539,5.893936,6.316516
1002.945312,4.868999,1.408542,4.031900,3.153990
1002.949219,3.420110,11.129975,-7.297674,-4.422137
1002.953125,7.985050,-5.194681,1.548127,-9.014877
1002.957031,-5.510213,3.035297,-3.764262,-5.166053
1002.960938,-6.684513,-8.319812,-9.173102,-7.110919
1002.964844,-10.678901,-8.446994,-13.705093,0.312234
1002.968750,-6.638972,-7.848445,-9.818983,-7.458568
1002.972656,-8.769379,-8.364031,-6.451562,-12.968205
1002.976562,-17.529105,-11.572224,-10.080370,-6.511413
1002.980469,-5.928488,-7.592158,-9.407718,-4.231752
1002.984375,-11.275629,-2.840857,-9.218409,-4.986378
1002.988281,-4.083874,-2.781211,-12.766078,-9.600065
1002.992188,-7.722361,-14.450349,-1.074008,-9.415573
1002.996094,-2.305024,-5.099268,-10.287293,-0.675149
1003.000000,-3.979609,-2.681183,8.837718,-2.925821
1003.003906,3.656204,5.201802,5.146145,3.250400
1003.007812,3.030523,3.276387,8.289959,10.281115
1003.011719,3.886289,10.033749,3.480614,10.087038
1003.015625,5.847850,4.964443,2.988651,10.425568
1003.019531,0.927194,10.480829,18.766903,7.209375
1003.023438,15.204349,10.079239,8.902780,7.984423
1003.027344,7.808130,12.623240,17.006622,7.448231
1003.031250,6.076986,4.620856,18.760143,10.859242
1003.035156,5.596630,-1.084455,3.950469,12.159148
1003.039062,9.393160,5.821173,2.237325,4.397549
1003.042969,0.808898,3.874925,-0.625615,1.304815
1003.046875,-6.604671,-2.836977,1.958989,-0.587269
1003.050781,0.513743,-2.318457,3.224674,-6.870588
1003.054688,-4.905084,1.837336,4.631038,-0.622008
1003.058594,2.608011,-2.306939,7.236430,-0.400167
1003.062500,-14.396147,-6.978194,-14.084917,-1.130593
1003.066406,-14.143525,-11.091868,-7.491147,-13.618127
1003.070312,-4.415547,-7.774256,-4.175817,-8.044806
1003.074219,-12.265979,-6.784126,-11.914733,-10.745877
1003.078125,-11.781219,-6.848962,-7.051363,-6.089466
1003.082031,-12.835313,-8.842854,-5.251754,-11.946584
1003.085938,-9.771654,-10.678757,-12.503740,-3.390586
1003.089844,-7.081437,-2.617004,-0.609034,-6.252164
1003.093750,-0.759444,-2.505444,-0.002085,-1.935851
1003.097656,-1.545659,0.417246,-4.127016,-6.472111
1003.101562,-2.353735,-4.190944,-5.684679,-7.649091
1003.105469,7.517278,1.878087,6.224806,6.437708
1003.109375,6.818483,3.511998,6.281569,3.557301
1003.113281,14.187156,9.702313,-1.033387,4.630300
1003.117188,13.948396,9.364506,6.785238,6.338768
1003.121094,8.367410,6.246078,3.137116,19.153826
1003.125000,13.285958,5.976204,15.792639,5.942263
1003.128906,8.232690,13.801242,11.640149,3.449774
1003.132812,9.356682,11.471553,9.726046,16.222232
1003.136719,13.270220,11.469751,2.382989,7.425025
1003.140625,4.246069,12.538012,11.119566,8.329096
1003.144531,4.235455,9.769209,2.772002,-3.817646
1003.148438,-8.499154,0.750570,5.088244,-0.933337
1003.152344,-7.014896,-2.583716,-5.801311,-1.708230
1003.156250,-7.664311,-5.806349,-5.126558,-5.162275
1003.160156,-10.061799,-5.238015,-13.092928,-4.185302
1003.164062,-10.547283,-5.912085,-12.203509,-6.677784
1003.167969,-11.168705,-6.599024,-12.246647,-5.326699
1003.171875,-10.185209,-10.703822,-12.040748,-14.289335
1003.175781,-8.570952,-8.401569,-2.337543,-9.218298
1003.179688,-16.091396,-13.437436,-11.073735,-10.691551
1003.183594,-6.492901,-11.566678,-7.126330,-8.754668
1003.187500,4.959556,-2.009041,-10.721143,-0.964372
1003.191406,-3.352315,-4.429946,1.313275,-5.517351
1003.195312,-4.576664,5.032361,-4.940178,-0.040172
1003.199219,-6.846380,-3.671580,-3.442760,2.293187
1003.203125,4.472367,7.928507,1.523393,5.362224
1003.207031,6.451509,6.715984,2.858008,-4.266236
1003.210938,1.262552,5.893746,1.070452,12.902842
1003.214844,-1.842973,10.448143,7.916629,4.158558
1003.218750,9.968339,15.393440,7.831964,7.415046
1003.222656,0.868391,12.226048,12.099499,7.988644
1003.226562,8.707572,11.224451,2.428884,9.587588
1003.230469,7.283735,5.779689,-0.186620,8.096258
1003.234375,5.440387,13.419820,7.740172,6.134774
1003.238281,4.077581,4.262299,7.312305,8.353681
1003.242188,-6.956728,2.086425,-1.530777,4.205722
1003.246094,3.428198,6.627166,-1.479584,4.746239
1003.250000,5.183886,2.315529,-2.990204,-0.893814
1003.253906,-4.830973,-4.159109,-2.576054,-3.588363
1003.257812,-10.251291,-3.735277,-11.262649,-6.627827
1003.261719,0.453937,-6.320093,-10.204048,-9.398064
1003.265625,-5.035415,-6.176857,-7.909500,-8.002341
1003.269531,0.759945,-16.587940,-13.974070,-11.761033
1003.273438,-3.030607,-9.618957,-4.564894,-11.923076
1003.277344,-9.472655,-17.921436,-11.645687,-10.099519
1003.281250,-10.253855,-9.528056,-10.827984,-7.305740
1003.285156,-9.691222,-8.753780,-7.183881,-3.729570
1003.289062,-8.866306,-7.340525,0.540491,-4.602895
1003.292969,-6.467451,-9.809250,-3.869353,-2.126781
1003.296875,1.940154,-4.142474,-1.474580,1.820400
1003.300781,3.421795,-3.671942,-4.366531,2.403406
1003.304688,1.992672,1.027759,4.086842,5.954942
1003.308594,6.492377,-0.258691,10.323943,2.980101
1003.312500,9.544545,1.708760,4.702092,5.739466
1003.316406,7.984540,16.525489,11.958945,14.289842
1003.320312,0.999879,15.282374,7.908103,1.906607
1003.324219,5.477065,9.529810,8.757966,11.912697
1003.328125,3.891521,7.773613,10.170364,9.431175
1003.332031,11.464749,17.860869,15.515151,13.150978
1003.335938,6.920439,6.866560,5.557175,3.246158
1003.339844,10.116115,2.244547,5.369102,8.686975
1003.343750,6.592227,5.507911,1.911236,6.665215
1003.347656,3.268234,-0.736551,1.857024,-2.306128
1003.351562,0.023099,-0.469145,-4.742119,5.671298
1003.355469,-2.745690,0.249017,-4.349004,-3.731951
1003.359375,-0.048070,-4.569715,-0.808915,-5.948449
1003.363281,-9.364674,-3.941238,-17.453450,1.946937
1003.367188,-9.453782,-5.251107,-5.767805,-5.151134
1003.371094,-9.184027,-6.318383,-14.321180,-9.212836
1003.375000,-9.112316,-3.737834,-10.847834,-10.372951
1003.378906,-12.175009,-9.224770,-6.675251,-12.125288
1003.382812,-11.577017,-9.587986,-8.980771,-1.255279
1003.386719,-4.526181,-7.009868,-4.147682,-4.970928
1003.390625,-0.675526,-5.400673,-7.593429,-4.794161
1003.394531,-0.829656,-3.497929,0.929419,-7.519413
1003.398438,6.056065,-1.735949,-3.248090,-12.331130
1003.402344,10.471062,4.519882,7.146967,8.517897
1003.406250,-0.410098,-4.177590,-7.565978,2.474808
1003.410156,6.871776,10.599202,13.064986,1.057097
1003.414062,15.089208,7.976454,10.533867,6.561380
1003.417969,14.003981,10.586780,10.521301,7.900055
1003.421875,9.551340,10.830964,4.368921,10.017115
1003.425781,8.350834,8.675733,13.268769,9.677969
1003.429688,13.671889,10.886358,11.910524,14.021352
1003.433594,8.152259,10.238389,8.738311,10.298275
1003.437500,1.111367,7.798421,12.897314,5.923406
1003.441406,4.005930,8.607210,7.776035,0.852460
1003.445312,6.544011,8.698039,10.069545,10.512467
1003.449219,0.212281,8.339811,2.038599,-7.946993
1003.453125,2.676588,-0.893625,-5.174762,-1.797218
1003.457031,0.016308,-4.182358,-4.242914,-10.051802
1003.460938,-4.975192,-5.092562,-11.549727,-7.342558
1003.464844,-1.689824,-10.577040,-5.267731,-0.589761
1003.468750,-8.799779,-12.698261,-6.522216,-10.414339
1003.472656,-12.812546,-6.728310,-8.660367,-10.938461
1003.476562,-10.174363,-16.848328,-10.204687,-13.848734
1003.480469,-16.166746,-13.405092,-11.822694,-8.636393
1003.484375,-7.178506,-6.825462,-10.831314,-4.931907
1003.488281,-8.740509,-8.168763,-7.897917,-5.426310
1003.492188,-6.303562,-5.410491,-8.401645,-8.770446
1003.496094,-2.916571,-3.756839,-1.986717,-7.917045
1003.500000,-3.052632,5.379877,1.586235,-0.830392
1003.503906,3.270545,-3.385613,0.365975,0.135273
1003.507812,-1.227068,2.165565,6.883121,3.928202
1003.511719,-1.287905,1.321500,12.818509,10.432898
1003.515625,13.935809,2.282079,10.144767,5.307821
1003.519531,13.853546,12.068989,13.634804,8.415804
1003.523438,14.868259,10.121919,16.217684,8.302709
1003.527344,10.121746,8.030720,11.191978,8.704918
1003.531250,10.303948,7.891287,6.076489,11.538561
1003.535156,8.132310,7.806839,9.498957,11.583651
1003.539062,-3.462452,-1.816976,3.413294,8.070237
1003.542969,2.796963,5.070964,11.238100,1.782584
1003.546875,-0.749697,0.799649,2.840789,-0.384076
1003.550781,-4.695387,5.446040,2.203123,-2.208168
1003.554688,1.635894,-5.389733,0.639394,-4.093707
1003.558594,-0.306345,-11.372877,-1.884888,-3.062263
1003.562500,-13.804723,-2.758763,-5.065526,-2.414924
1003.566406,-5.004776,-11.879367,-11.308352,-11.073604
1003.570312,-0.425652,-0.789161,-5.407936,-14.890080
1003.574219,-14.531356,-10.713997,-16.236411,-12.552426
1003.578125,-4.763154,-14.347221,-7.325419,-12.978686
1003.582031,-9.981480,-7.715586,-7.644052,-15.151960
1003.585938,-10.782666,-4.159474,-15.083129,-4.038436
1003.589844,-7.446307,-5.348341,-3.586614,-2.136057
1003.593750,-2.955739,-3.091061,-1.612466,-3.791764
1003.597656,4.342074,-8.420911,3.878928,-6.339598
1003.601562,-5.438972,-3.884305,-1.697274,0.551177
1003.605469,5.123276,0.220974,1.126874,4.013442
1003.609375,9.197567,1.735446,-2.122940,3.455878
1003.613281,11.605504,7.500601,4.629282,8.451694
1003.617188,9.601672,7.818672,6.853016,11.932424
1003.621094,9.995753,8.661685,11.026477,11.356041
1003.625000,14.498902,8.736042,7.502741,18.102485
1003.628906,12.644026,16.382079,9.206719,12.128986
1003.632812,9.504604,7.082172,2.779216,10.852908
1003.636719,4.891706,5.851009,8.201536,11.970922
1003.640625,7.685534,7.073157,11.519889,5.285402
1003.644531,4.533464,2.883942,1.812589,-1.922821
1003.648438,-1.527436,-5.985541,1.481147,1.856588
1003.652344,-2.824017,4.263807,1.406582,3.929518
1003.656250,-12.978887,1.149039,-3.735767,-0.861602
1003.660156,-7.765199,-6.703457,-9.133920,-6.270735
1003.664062,-5.956789,-7.368963,-4.579706,-9.747266
1003.667969,-8.227964,-13.118712,-3.221765,-11.362711
1003.671875,-12.774320,-20.219266,-15.121607,-10.337779
1003.675781,-14.278411,-12.295800,-6.016823,-4.728616
1003.679688,-12.734603,-4.485965,-9.537036,3.983641
1003.683594,-9.836956,-8.708978,-6.806156,-5.770722
1003.687500,-9.150308,-13.872007,-3.822138,-7.174317
1003.691406,-5.808491,-5.225861,-5.253599,-3.555689
1003.695312,1.522821,-5.583430,-6.025233,1.532843
1003.699219,0.466223,-2.459762,-0.492035,8.510856
1003.703125,6.998766,-4.186299,-4.597662,4.111772
1003.707031,9.358629,6.361380,-0.577936,0.619215
1003.710938,9.016741,11.222301,8.524075,5.574562
1003.714844,11.059482,5.066712,10.517457,10.830025
1003.718750,11.687197,14.263492,15.109283,17.082949
1003.722656,9.591384,4.463984,4.780044,5.962681
1003.726562,10.583016,17.435657,10.689737,6.193733
1003.730469,6.781614,10.980126,9.265055,9.381263
1003.734375,7.852066,9.632158,3.859378,12.079580
1003.738281,6.747769,4.001375,8.006201,5.416535
1003.742188,6.165654,8.317023,-3.033878,5.235434
1003.746094,-1.912985,-2.065882,0.680260,5.643314
1003.750000,4.765004,-1.046996,7.845840,-3.785962
1003.753906,0.000319,3.623742,-2.013307,-6.321631
1003.757812,-6.013750,-5.425251,-5.662767,-3.202014
1003.761719,-7.903594,-10.432698,-7.913232,-9.738133
1003.765625,-6.926797,-10.417968,3.514372,-8.190062
1003.769531,-5.886998,-6.923057,-8.615626,-14.927520
1003.773438,-14.574684,-8.637880,-12.442012,-11.688102
1003.777344,-8.368357,-8.833271,-12.434589,-12.796596
1003.781250,0.066349,-13.722919,-6.746258,-11.432846
1003.785156,-4.259845,-9.777415,-8.246958,-9.419454
1003.789062,-5.723751,0.755173,-2.915209,-7.521994
1003.792969,-6.725506,-8.025611,6.299083,-8.918005
1003.796875,-3.273019,-9.796858,-6.526235,-0.307642
1003.800781,1.672681,6.000426,2.752346,-2.439250
1003.804688,-0.179258,1.167897,0.830215,-5.594928
1003.808594,1.718325,5.559697,3.738525,4.622384
1003.812500,1.516528,2.588390,5.470707,4.127198
1003.816406,9.089758,9.618962,6.400422,8.378362
1003.820312,11.140713,4.057837,12.514799,4.212425
1003.824219,14.212703,8.696428,6.899440,15.709535
1003.828125,4.015438,8.374451,14.644663,8.663521
1003.832031,8.704844,8.376877,9.634707,11.700532
1003.835938,13.767008,2.718433,11.410748,7.774174
1003.839844,-1.990296,3.569341,0.804556,12.326758
1003.843750,-1.463573,4.418910,-0.077385,3.561973
1003.847656,4.163019,-2.146000,2.126742,0.426607
1003.851562,0.894289,0.306668,-10.204767,-1.115523
1003.855469,-1.512639,-2.149421,0.912652,1.630499
1003.859375,-3.097116,-0.298323,-4.908419,-7.085283
1003.863281,-14.689434,-7.780497,-1.234158,-8.887034
1003.867188,-10.495250,-18.077972,-5.774754,-6.464174
1003.871094,-6.861822,-14.935718,-17.578607,-8.119841
1003.875000,-12.964993,-7.414479,-7.400651,-8.920826
1003.878906,-13.331021,-11.304106,-10.704159,-10.754238
1003.882812,-6.492992,-6.583128,-11.401301,-7.475816
1003.886719,-5.130612,-2.036385,-16.698835,-7.608277
1003.890625,-2.349794,-0.890945,-11.057228,-9.886603
1003.894531,3.695608,-3.583928,-10.209027,-1.143496
1003.898438,-2.967867,4.884769,6.150169,-4.720243
1003.902344,1.459068,2.272259,3.642732,6.832321
1003.906250,7.527836,4.342357,1.422408,3.820073
1003.910156,10.225936,3.665496,9.401607,12.658473
1003.914062,4.116059,7.315438,13.085332,8.715636
1003.917969,13.377373,5.220672,6.697642,12.159589
1003.921875,11.658569,7.921713,11.823468,8.456554
1003.925781,1.096965,3.118694,6.317238,9.965257
1003.929688,12.072759,3.473384,9.379888,10.518729
1003.933594,6.128956,5.188497,3.754608,12.139073
1003.937500,11.149938,1.853066,14.895588,4.623888
1003.941406,2.096167,6.511342,2.372152,-2.940809
1003.945312,2.443089,5.155108,2.405682,2.920879
1003.949219,-0.928155,0.076936,-11.236008,6.271686
1003.953125,-4.250819,-1.426084,2.007851,-6.097316
1003.957031,-4.962887,0.069642,-5.383260,0.642197
1003.960938,-6.108928,0.565762,-0.798725,-6.485106
1003.964844,-9.740480,-3.318069,-12.741064,-9.487511
1003.968750,-4.069296,-12.115575,-10.145414,-8.088327
1003.972656,-11.998576,-11.429727,-12.174738,-12.635586
1003.976562,-12.580558,-9.594861,-13.888439,-6.478217
1003.980469,-18.317634,-10.919243,-10.122331,-13.411103
1003.984375,-24.853915,-9.912759,-9.955283,-9.053733
1003.988281,-9.485224,-7.912039,-6.854429,-5.030664
1003.992188,-6.904185,-2.382093,-7.511690,-4.101946
1003.996094,1.711758,-4.053360,0.147939,-6.627315
1004.000000,-1.545218,4.413467,-1.125480,-2.404349
1004.003906,-2.395758,3.120491,0.800846,5.148829
1004.007812,10.068971,5.202867,11.007457,7.443206
1004.011719,9.717557,14.237716,1.010212,7.162454
1004.015625,6.985261,9.227462,2.485888,6.316169
1004.019531,7.567565,8.533124,10.591967,5.546980
1004.023438,12.137664,8.697605,12.640501,12.582407
1004.027344,13.784001,14.657861,12.340615,5.578925
1004.031250,6.778534,7.053332,4.325193,10.230901
1004.035156,4.689421,10.786679,13.951678,3.491944
1004.039062,13.931444,3.790508,13.121980,8.742176
1004.042969,2.301633,10.457564,10.557696,-2.206256
1004.046875,1.343171,-4.076141,5.089709,4.450617
1004.050781,4.252457,5.121720,-7.277417,0.799299
1004.054688,-5.752279,-5.354642,-11.528364,-1.791096
1004.058594,0.185061,-0.314981,-7.587218,-9.634166
1004.062500,-15.073817,-4.257556,-8.835034,-13.929407
1004.066406,-7.278570,-9.536240,-5.490426,-7.916474
1004.070312,-9.482712,-11.707584,-13.142885,-9.635824
1004.074219,-8.534766,-5.055933,-17.606234,-8.008842
1004.078125,-13.673179,-9.309407,-4.185184,-16.455985
1004.082031,-4.381277,-4.028332,-5.237403,-10.956675
1004.085938,-13.716597,-5.632661,-4.846311,-6.133504
1004.089844,-5.076503,-4.516312,-5.302331,-9.431039
1004.093750,-8.584916,-6.702984,-9.560387,1.750418
1004.097656,-4.276762,-2.771280,-3.052811,-1.781202
1004.101562,-5.754542,6.701226,6.562020,3.247905
1004.105469,0.032389,3.789109,4.234487,-0.118112
1004.109375,6.060448,6.556517,10.097929,12.941053
1004.113281,9.709957,5.528532,5.325043,17.047209
1004.117188,6.496506,11.339842,7.843008,2.163141
1004.121094,6.606735,12.443735,8.216153,13.350672
1004.125000,0.091551,4.111719,7.631032,9.712474
1004.128906,5.042034,9.329051,11.254750,11.714801
1004.132812,15.615425,12.056892,15.822011,12.161653
1004.136719,7.652182,7.030757,3.685216,1.400413
1004.140625,5.723364,0.028882,7.237798,0.866662
1004.144531,-0.935138,4.333122,-3.453852,5.154026
1004.148438,3.598533,0.483860,6.302315,2.143631
1004.152344,-1.914292,-0.224190,2.898910,0.753324
1004.156250,-8.248160,-2.700838,-3.462096,-5.542493
1004.160156,-6.680815,-0.642411,0.941343,-4.901479
1004.164062,-10.202708,-15.947634,-12.041314,-8.811314
1004.167969,-4.577570,-10.397911,-9.051113,-14.010907
1004.171875,-16.938759,-15.732049,-6.191247,-5.352569
1004.175781,-12.995500,-6.024101,-10.399473,-19.611032
1004.179688,-8.887298,-13.833858,-11.184790,-6.495195
1004.183594,-14.599139,-9.990631,-12.334769,-8.969272
1004.187500,-8.484047,-4.345862,-5.312909,1.503506
1004.191406,-5.404240,-9.409812,0.765798,-5.215691
1004.195312,1.045405,-5.197212,4.427144,-3.785247
1004.199219,4.707342,6.804141,-2.297536,10.040575
1004.203125,6.490104,-3.098771,-5.833254,-0.770926
1004.207031,-3.285475,12.655429,8.383170,10.637582
1004.210938,13.574901,-1.665071,1.041747,4.913831
1004.214844,10.038130,8.129642,5.803259,3.216922
1004.218750,9.603839,9.501533,5.386566,8.685731
1004.222656,8.681786,6.169645,16.840589,16.898549
1004.226562,6.211067,18.176050,10.415304,7.958189
1004.230469,10.430809,4.568131,15.906899,11.171189
1004.234375,9.496737,7.510955,3.195238,8.911355
1004.238281,6.265174,4.467241,14.593701,8.270076
1004.242188,7.246414,4.479577,12.601132,7.189013
1004.246094,4.745105,-5.444259,3.620022,-4.860354
1004.250000,-5.953774,-0.189165,-7.521464,-1.511814
1004.253906,-4.520024,-1.024005,-10.793468,-1.714750
1004.257812,-8.086606,2.222723,-6.248271,-4.851022
1004.261719,-3.152437,-12.807377,-12.494349,-5.756861
1004.265625,-6.388292,-5.604847,-3.613624,-5.053911
1004.269531,-21.863201,-7.023042,-12.768450,-8.176191
1004.273438,-15.819787,-9.220331,-11.582615,-13.254470
1004.277344,-12.458664,-14.786791,-16.223520,-13.729024
1004.281250,-7.401728,-14.937558,-8.417411,-3.700026
1004.285156,-13.024860,-7.648949,-11.460113,-11.475225
1004.289062,-1.253018,-4.791168,0.350573,-10.776749
1004.292969,1.370605,-4.959497,3.000912,0.649567
1004.296875,-7.128833,6.266535,-2.494295,-4.767006
1004.300781,-0.919813,3.821925,-0.932612,1.990209
1004.304688,7.463566,10.271784,3.096612,7.097484
1004.308594,2.624770,1.065979,11.889511,5.059997
1004.312500,3.754612,12.903739,5.766378,6.596236
1004.316406,10.218547,11.370647,1.678024,5.980633
1004.320312,16.146997,14.727560,3.557340,9.632942
1004.324219,13.140175,8.291600,7.761921,9.826121
1004.328125,2.990195,7.810637,12.858243,11.706467
1004.332031,4.639473,10.653060,12.268796,8.566230
1004.335938,10.829226,5.479713,14.217827,6.372779
1004.339844,4.912135,7.040887,8.456085,3.457778
1004.343750,5.014610,4.007575,9.671586,-1.536333
1004.347656,0.862643,3.278331,-5.246784,1.136389
1004.351562,-2.672153,-1.449172,5.048941,-6.844420
1004.355469,0.199008,-7.421796,-4.424640,-3.642251
1004.359375,-4.344546,-7.932707,-5.912388,-10.537497
1004.363281,-8.909894,-5.171573,-3.788953,-7.662020
1004.367188,-8.096548,-9.185268,-6.652050,-10.181893
1004.371094,-8.586172,-16.330509,-7.928030,-10.763873
1004.375000,-12.923567,-9.813348,-17.989005,-7.677953
1004.378906,-12.313225,-10.190934,-10.883603,-9.344567
1004.382812,4.303593,-10.841121,-7.385095,-9.721658
1004.386719,-4.576964,-6.245881,-6.334972,-3.369459
1004.390625,-7.391697,-9.397032,-10.403310,-4.969508
1004.394531,-7.362745,-1.718412,-6.396830,-2.611454
1004.398438,0.507395,-4.011553,-5.388181,3.683857
1004.402344,0.861457,1.426115,-0.025803,2.149065
1004.406250,4.922307,1.192380,-5.457505,6.819386
1004.410156,2.819093,2.136373,4.897715,4.960164
1004.414062,7.953040,10.483822,5.321342,0.749942
1004.417969,9.748486,17.444932,9.571252,9.533017
1004.421875,7.307471,5.443629,9.192001,13.720899
1004.425781,12.604516,7.542878,8.035584,5.752076
1004.429688,10.127400,10.195851,7.739348,15.486462
1004.433594,11.854101,1.246090,8.227960,9.457927
1004.437500,6.572838,9.636968,5.427578,0.959490
1004.441406,4.138158,7.385483,7.727411,7.332601
1004.445312,2.952673,8.019952,-2.729660,7.134004
1004.449219,-0.251366,5.804244,-2.069241,1.984409
1004.453125,10.099396,-0.096172,3.652954,1.883568
1004.457031,-6.039133,-5.175236,-1.072548,-8.629399
1004.460938,-4.569445,-4.505381,-5.709385,-2.238878
1004.464844,-7.035030,-12.342704,-12.830177,-8.998412
1004.468750,-11.949868,-10.792457,-4.011773,-5.408626
1004.472656,-10.694701,-13.926526,-7.496518,-12.966281
1004.476562,-1.442474,-13.017880,-12.770416,-7.579000
1004.480469,-7.004924,-12.364388,-15.684606,-8.463269
1004.484375,-11.103549,-6.941433,-2.686970,-8.595328
1004.488281,-1.852228,-9.416496,-4.648880,-7.472729
1004.492188,2.825624,-3.902614,-6.839165,-10.269068
1004.496094,-3.187359,-1.267877,-7.205599,-4.275226
1004.500000,6.937392,2.115498,5.809055,0.083711
1004.503906,0.251362,-0.159047,8.776217,2.145631
1004.507812,-0.256078,-0.280624,-4.788088,1.950910
1004.511719,-0.000782,10.729974,5.386581,6.174556
1004.515625,8.537754,8.246713,11.685742,10.756857
1004.519531,11.273739,9.907226,11.049515,7.067053
1004.523438,12.280557,10.357302,16.840136,9.547071
1004.527344,3.914294,8.306529,12.283925,12.856277
1004.531250,9.918772,10.014126,8.483463,6.439079
1004.535156,7.073704,9.337524,12.402952,1.451665
1004.539062,10.447986,8.212996,6.831064,3.862373
1004.542969,5.259772,5.232640,1.253980,-1.244737
1004.546875,1.116259,4.248660,-1.840444,1.984715
1004.550781,0.147153,-6.738631,6.099095,-2.797698
1004.554688,-6.027308,-2.417368,-2.920433,-7.480354
1004.558594,-7.935675,-7.150310,-5.462973,-5.023842
1004.562500,-10.051557,-12.300058,-4.036593,-10.846316
1004.566406,-3.640578,-10.357541,-7.796101,-7.880870
1004.570312,-9.159120,-10.762644,-0.824874,-15.346097
1004.574219,-7.401631,-9.425899,-4.009136,-13.961682
1004.578125,-5.712415,-10.057930,-10.840362,-15.344203
1004.582031,-8.784047,-14.661542,-10.048489,-13.256958
1004.585938,-3.136405,-6.369984,-7.455686,-7.401594
1004.589844,-7.425288,-3.405850,-8.758029,-10.170850
1004.593750,-6.809805,6.069803,-6.518636,-5.636597
1004.597656,4.695654,-8.342186,0.998780,-0.453254
1004.601562,10.206699,-0.985936,-1.129317,3.457125
1004.605469,1.322431,-4.463794,8.655914,14.751203
1004.609375,2.166428,12.298828,12.973546,1.334433
1004.613281,10.349381,10.375970,16.282208,7.784358
1004.617188,15.075954,12.214962,9.857423,8.833821
1004.621094,2.668474,10.682532,10.961483,13.947017
1004.625000,11.362286,13.977278,10.372624,6.708299
1004.628906,9.689755,1.441104,12.609154,6.047850
1004.632812,5.517830,10.805873,7.065420,12.221969
1004.636719,3.728385,-0.688379,12.517290,13.519080
1004.640625,2.222530,0.005013,8.246620,5.296248
1004.644531,4.383469,6.240048,0.756203,8.494049
1004.648438,-1.311892,1.576715,-2.019113,3.699241
1004.652344,-7.519684,-1.988912,-1.024691,-1.758942
1004.656250,-2.512538,-5.004721,-9.155748,-3.720873
1004.660156,-9.261191,-8.744426,-6.571098,-3.612666
1004.664062,-9.971121,-10.846201,-12.929233,-8.173382
1004.667969,-10.659491,-10.763171,-10.719489,-8.015622
1004.671875,-11.879027,-7.709279,-9.083644,-11.397678
1004.675781,-8.422367,-3.226226,-13.025635,-13.651448
1004.679688,-6.930586,-11.044725,-10.461290,-8.465027
1004.683594,-3.454881,-14.747483,-4.043795,-10.115696
1004.687500,-9.268096,-6.359912,-7.303932,-1.507289
1004.691406,-6.417508,-6.169870,-4.155897,-0.507296
1004.695312,3.370900,5.794698,-4.500707,3.473063
1004.699219,5.745233,-0.129575,-2.939738,-2.321399
1004.703125,2.333011,4.724443,-2.340185,-1.675067
1004.707031,1.513743,5.274768,0.751418,5.218655
1004.710938,12.030771,2.216276,12.011874,5.287241
1004.714844,6.682613,0.944603,8.486962,13.801195
1004.718750,3.645783,14.212472,14.499946,4.393162
1004.722656,13.191585,6.714356,12.052781,9.642325
1004.726562,8.154251,1.537897,9.447218,12.101188
1004.730469,7.108220,6.611135,7.226603,1.686473
1004.734375,5.884052,11.012683,13.559670,11.197293
1004.738281,-0.554585,-2.597138,6.141440,7.364932
1004.742188,8.576430,0.016047,6.621091,0.703592
1004.746094,-2.430397,9.316464,5.408424,-3.563800
1004.750000,-3.411501,0.742595,-2.490231,-0.794698
1004.753906,2.468371,-5.611507,-5.313141,-3.267650
1004.757812,-1.141139,-3.519263,-6.462654,-5.799568
1004.761719,-7.527301,3.955514,-13.692214,-8.841965
1004.765625,-8.220207,-7.264952,-11.636461,-8.092529
1004.769531,-8.906135,-8.657547,-7.327700,-5.091242
1004.773438,-11.189637,-10.684515,-6.742769,-10.768489
1004.777344,-11.664753,-8.833840,-8.325573,-16.906728
1004.781250,-9.529980,-7.168149,-11.600148,-10.945733
1004.785156,-8.144334,-12.972670,-6.754480,-11.813351
1004.789062,-10.213092,-3.427277,4.047878,-7.150693
1004.792969,-7.829300,-1.709782,-0.003559,3.232253
1004.796875,-4.120828,-4.242459,9.358083,-1.443501
1004.800781,-5.829256,-2.754476,3.738878,-2.596080
1004.804688,7.029245,4.932940,6.345573,-2.470968
1004.808594,0.537616,8.968467,8.579024,6.952616
1004.812500,0.941033,10.595056,3.798108,6.883237
1004.816406,8.090907,7.888727,17.427012,7.182798
1004.820312,11.987178,16.408566,14.084026,9.889927
1004.824219,19.151547,12.270329,2.414250,10.599680
1004.828125,9.586935,13.201747,0.653912,12.155952
1004.832031,8.279930,8.630554,10.745896,8.517714
1004.835938,13.497216,7.958876,3.679580,7.455615
1004.839844,9.884804,1.160281,4.065413,2.999908
1004.843750,9.199625,1.562801,2.501874,2.629771
1004.847656,3.167420,-2.956293,2.253335,-0.229601
1004.851562,2.573262,4.301882,2.017206,-4.968138
1004.855469,-5.807672,-0.254375,-7.728786,-5.888823
1004.859375,-3.488726,-10.215366,-5.929577,-8.568748
1004.863281,-10.711760,-10.114762,-11.020198,-11.643588
1004.867188,-19.863374,-6.376742,-10.070964,-9.873237
1004.871094,-12.894866,-13.284012,-8.721828,-16.869284
1004.875000,-11.536395,-13.788194,-14.062407,-10.718782
1004.878906,-6.767707,-7.654386,-9.781031,-9.486753
1004.882812,-0.774925,-11.749746,-11.972082,-14.057944
1004.886719,-7.956621,-3.742382,-8.785370,-4.863342
1004.890625,-10.051017,-2.097176,-0.346116,-5.317580
1004.894531,0.859141,5.592564,-7.151239,0.389112
1004.898438,-5.864358,-4.257340,1.290009,-3.263637
1004.902344,4.682290,4.970954,-0.612178,2.219128
1004.906250,5.905611,5.010152,8.032069,1.999328
1004.910156,6.989097,5.976651,5.876622,2.126040
1004.914062,7.911408,9.045097,10.254043,7.327338
1004.917969,12.662278,12.398754,0.827318,1.761575
1004.921875,10.486746,14.305508,7.179320,11.494998
1004.925781,5.105772,13.242804,12.685425,4.671826
1004.929688,5.951352,13.917429,4.195077,4.650199
1004.933594,8.947229,9.271203,4.238028,7.710632
1004.937500,8.351089,4.973098,7.896961,9.780082
1004.941406,8.343549,4.177912,2.649628,6.814536
1004.945312,3.073804,8.112585,2.792896,7.199933
1004.949219,1.400938,-4.738715,1.658482,1.916418
1004.953125,-4.058742,1.626407,-4.350487,-9.509367
1004.957031,-3.878968,-1.692227,-7.305975,-5.990907
1004.960938,-7.623620,-5.492404,-12.859215,-3.082365
1004.964844,-10.481223,-6.753128,-9.613691,-10.775182
1004.968750,-9.626254,-5.218940,-9.712108,-10.888753
1004.972656,-6.561184,-15.728926,-13.001820,-7.608480
1004.976562,-7.980434,-8.532616,-6.554155,-10.106358
1004.980469,-14.412520,-7.543193,-9.662790,-9.921959
1004.984375,-9.529766,-8.616198,-3.044852,-11.709022
1004.988281,-4.372631,-2.421682,-6.196949,-6.817489
1004.992188,-9.562259,-4.956711,-6.962238,-10.648328
1004.996094,-7.446086,0.311474,3.792963,-1.756488
1005.000000,-6.811240,-1.834551,2.330449,3.810629
1005.003906,2.296369,-7.741006,-5.424004,3.274349
1005.007812,8.078318,1.983842,-6.634139,1.292324
1005.011719,9.817570,5.615320,4.706442,9.034895
1005.015625,13.316838,4.548612,7.964478,6.759935
1005.019531,12.628243,7.533929,11.616435,4.851746
1005.023438,10.997901,10.251637,17.602341,3.684907
1005.027344,4.969482,11.363045,10.736699,10.074593
1005.031250,19.216966,9.579936,12.856988,5.871817
1005.035156,18.927904,13.394773,7.887660,7.189969
1005.039062,6.153687,7.239465,9.125702,5.759308
1005.042969,8.517508,-0.333622,8.593941,12.309020
1005.046875,2.695376,6.551354,3.080831,2.912821
1005.050781,1.261450,6.085293,-0.221457,0.008861
1005.054688,-6.540870,2.273805,4.757905,-0.035740
1005.058594,-12.088759,2.018478,-15.184298,-5.968959
1005.062500,-4.406419,-2.125428,-10.570099,-10.090228
1005.066406,-1.088278,-14.059854,-9.492890,-4.461309
1005.070312,-10.313729,-3.562086,-2.872230,-5.900824
1005.074219,-8.833936,-13.462264,-7.710818,-8.990824
1005.078125,-11.011008,-6.343127,-8.169581,-11.691167
1005.082031,-5.652971,-12.441202,-12.244834,-10.949800
1005.085938,-1.054616,-8.088266,-8.269606,-6.669502
1005.089844,-2.791308,-1.284544,-3.141054,-9.824828
1005.093750,-2.984772,-3.818803,-7.452999,-3.377075
1005.097656,-6.457255,2.148645,-2.498362,-4.747873
1005.101562,-2.163254,1.791627,1.537094,-0.935575
1005.105469,0.873947,8.253989,3.367547,7.593922
1005.109375,1.568521,8.346234,4.497519,2.886415
1005.113281,10.247805,6.155763,5.873767,8.724094
1005.117188,8.523845,5.907438,6.985689,5.289851
1005.121094,12.929538,10.005500,14.106471,8.940662
1005.125000,4.227027,10.654645,12.075237,12.403320
1005.128906,10.286669,11.316435,4.162442,5.802376
1005.132812,9.731153,6.781361,4.293448,4.140380
1005.136719,5.233775,2.863917,3.734602,7.679903
1005.140625,7.257261,11.666169,5.043216,5.800584
1005.144531,9.284448,7.159034,4.484706,-0.783563
1005.148438,2.527908,-1.713356,6.865478,-0.994172
1005.152344,-13.985918,0.405636,4.355772,-7.709880
1005.156250,-0.340997,0.548692,-3.051143,0.638258
1005.160156,-2.282925,1.916444,-10.148461,-5.705320
1005.164062,-9.233856,-10.814129,-12.984866,-8.596810
1005.167969,-12.538124,-8.881857,-10.709324,-6.238304
1005.171875,-11.893049,-8.184946,-9.856413,-11.428262
1005.175781,-12.460678,-6.131113,-8.474971,-14.756667
1005.179688,-3.338766,-9.657426,-12.603383,-9.464655
1005.183594,-13.001573,-5.521918,-5.908147,-5.272327
1005.187500,-9.187507,-8.762377,-6.633652,-9.840806
1005.191406,-4.734818,-5.250674,-9.970367,-13.278887
1005.195312,-7.191028,-6.401431,3.114206,-0.590090
1005.199219,-4.638105,-7.323283,1.629346,0.097116
1005.203125,2.023541,0.662773,-0.849447,1.549582
1005.207031,4.822776,2.832136,4.548624,0.035628
1005.210938,1.555755,7.764649,2.088250,12.115797
1005.214844,6.870815,10.713500,13.641637,7.952233
1005.218750,8.086609,8.004031,10.732305,3.108938
1005.222656,9.039824,9.179770,7.398457,1.850431
1005.226562,9.350060,5.241538,14.914975,8.730303
1005.230469,12.120316,8.097908,12.413133,8.371546
1005.234375,3.677597,10.580284,6.526536,10.342119
1005.238281,9.563453,5.595502,0.585590,-0.111598
1005.242188,5.091571,1.473352,6.506320,0.382604
1005.246094,9.599970,5.535807,-0.137443,0.025798
1005.250000,-8.448055,-2.421442,-5.111677,-0.901943
1005.253906,-1.998271,-3.853455,-7.283179,-3.612917
1005.257812,5.577324,2.368623,4.175114,-2.851150
1005.261719,-7.136228,-2.034458,-5.278865,-7.083586
1005.265625,-7.246109,-5.885977,-8.152631,-10.802678
1005.269531,-13.894711,-7.753247,-10.458309,-11.775487
1005.273438,-11.129032,-10.138789,-18.450419,-9.508258
1005.277344,-9.539828,-17.043456,-7.117504,-9.266992
1005.281250,-2.910549,-7.641025,-8.993695,-14.927886
1005.285156,-3.031596,-7.132715,-6.842692,-10.787587
1005.289062,-8.635909,1.492238,-6.204470,-4.141168
1005.292969,-10.333681,1.085982,-1.251976,-3.062823
1005.296875,-3.158521,-5.572798,-5.024575,-4.766129
1005.300781,-0.487467,6.462757,-5.913115,-6.514900
1005.304688,0.788304,5.173479,2.908088,-7.610506
1005.308594,1.530441,2.889105,12.473895,6.997593
1005.312500,6.406094,9.351191,9.715908,4.938547
1005.316406,11.495695,9.530740,5.651931,5.018209
1005.320312,7.647238,10.664109,17.031185,11.082229
1005.324219,14.649134,11.437730,9.838421,15.480663
1005.328125,7.660885,9.950170,12.236643,10.979398
1005.332031,2.755237,8.068681,7.907140,14.646660
1005.335938,1.188218,4.034429,2.706567,8.506301
1005.339844,5.767804,3.526913,-1.008760,4.228858
1005.343750,7.108519,3.625548,5.884208,1.141452
1005.347656,4.243206,7.771029,-1.671852,-1.560325
1005.351562,-0.446630,0.575714,3.552375,-5.323061
1005.355469,-1.046782,-4.169530,-3.922477,-2.955235
1005.359375,-13.850327,-2.311348,4.244060,-9.737882
1005.363281,-5.776586,-8.301389,-12.299566,-8.853171
1005.367188,-7.450150,-5.399245,-12.805687,-8.751403
1005.371094,-5.724045,-7.168307,-6.081231,-2.912643
1005.375000,-10.696084,-9.296005,-5.944604,-11.624659
1005.378906,-5.650013,-8.794447,-11.557308,-6.243932
1005.382812,-10.250543,-9.541514,-12.966010,-11.659267
1005.386719,-2.002483,-4.304300,-6.271405,-5.573538
1005.390625,-6.164293,-3.868137,-5.840960,-10.865276
1005.394531,-0.432119,-2.471891,0.588938,-10.723572
1005.398438,-3.487923,-0.530918,-11.424884,-1.983248
1005.402344,7.486117,-1.085645,5.700674,2.197406
1005.406250,4.923183,8.292061,3.569765,-0.861594
1005.410156,-2.951029,2.080667,8.380033,12.455345
1005.414062,-1.355116,14.913001,6.245153,6.298724
1005.417969,1.242960,13.698694,8.841571,14.323549
1005.421875,5.434239,4.443398,11.896000,11.865346
1005.425781,9.725983,5.759260,9.274054,12.663459
1005.429688,8.461239,7.789379,8.885726,6.248640
1005.433594,11.650384,8.250545,6.085955,8.349048
1005.437500,-0.374561,6.933591,11.363330,3.359290
1005.441406,4.715929,5.374515,5.749721,4.794799
1005.445312,3.257659,5.380493,7.780285,0.149127
1005.449219,-2.820446,1.900332,-0.355184,1.522836
1005.453125,-1.415261,-6.210005,-10.655473,-8.272856
1005.457031,-1.252341,-7.653771,-10.845021,3.039773
1005.460938,-14.101097,-11.803504,-7.636324,-1.659733
1005.464844,-10.529110,-14.980647,-7.469544,-7.400742
1005.468750,-8.170698,-9.224046,-6.682645,-6.848187
1005.472656,-10.782991,-11.154083,-13.567745,-11.624100
1005.476562,-10.896398,-6.180405,-6.957498,-12.135164
1005.480469,-7.211184,-8.834130,-10.583661,-10.053705
1005.484375,-6.294610,-12.380457,-14.682641,-11.992065
1005.488281,-7.933492,-1.507083,-6.763036,0.018950
1005.492188,-7.989888,-2.445357,-4.825285,-4.569285
1005.496094,-13.179325,-4.467233,0.132946,-5.955056
1005.500000,0.633050,0.597492,-2.406836,-3.411280
1005.503906,-0.314840,5.719750,4.028937,0.088775
1005.507812,5.384698,3.804180,4.816745,9.162772
1005.511719,8.805803,8.580650,9.264721,5.549871
1005.515625,9.425171,9.257978,17.235713,13.125805
1005.519531,15.861785,11.569495,6.766999,6.941972
1005.523438,9.607976,8.909198,14.695731,7.782392
1005.527344,8.622625,12.213620,3.984972,11.399057
1005.531250,18.291407,10.374259,10.288235,6.507538
1005.535156,5.079912,14.842155,3.190366,-2.006641
1005.539062,2.726922,6.703316,5.197092,3.983743
1005.542969,5.090922,5.731604,4.826128,3.768819
1005.546875,3.346137,4.609975,-0.533917,2.638624
1005.550781,-3.636148,4.417914,-3.708831,-1.964338
1005.554688,-5.281175,-9.917728,4.938034,-1.745930
1005.558594,-4.679032,-8.057942,-5.053394,-7.647882
1005.562500,-6.634215,-7.943282,-11.840214,-9.987131
1005.566406,-5.280059,-11.396216,-14.982761,-6.768800
1005.570312,-9.514518,-4.980237,-13.221943,-12.198813
1005.574219,-1.802630,-16.713996,-8.510253,-17.626466
1005.578125,-9.103378,-13.123428,-11.711662,-6.061627
1005.582031,-6.659241,-5.918906,-5.013582,-13.087880
1005.585938,-8.606781,-5.028658,-8.372398,-5.728475
1005.589844,-9.362227,-6.273365,-4.231582,-9.307667
1005.593750,-4.403112,-7.140069,-0.133659,-6.106244
1005.597656,-0.040249,-3.677031,2.310356,-0.016215
1005.601562,5.715875,1.499024,0.389170,8.210087
1005.605469,7.952624,3.551250,8.329208,-2.987010
1005.609375,4.832677,10.622771,5.609360,-6.437203
1005.613281,14.456050,10.529419,4.244501,9.438760
1005.617188,17.095599,10.127763,8.948750,2.724006
1005.621094,14.118565,9.287466,7.628604,-0.602461
1005.625000,10.965571,8.592598,12.718654,4.384104
1005.628906,7.747617,15.103570,9.606046,10.625904
1005.632812,3.162568,3.548304,4.638191,11.928589
1005.636719,7.681083,8.118485,3.526120,9.926717
1005.640625,7.969239,5.665456,7.779266,2.807378
1005.644531,3.215619,-2.549427,5.956291,3.140661
1005.648438,-1.563344,1.047509,9.340982,4.950755
1005.652344,-3.558504,0.424556,-1.126071,3.556985
1005.656250,-4.405836,-6.632273,0.359643,-2.504143
1005.660156,-1.962164,-9.595122,3.901837,-3.566835
1005.664062,-2.688275,-6.821578,-10.298619,-13.346203
1005.667969,-10.142989,-7.700366,-3.989942,-8.962425
1005.671875,-12.377473,-6.859961,-11.028397,-9.708270
1005.675781,-5.748826,-8.342641,-11.689961,-16.841022
1005.679688,-9.013019,-10.312610,-3.014909,-4.894765
1005.683594,-11.775290,-1.336954,-10.199136,-13.929596
1005.687500,-6.115115,-2.331221,-9.223203,-9.626982
1005.691406,-10.244783,-5.963408,8.158172,-3.114659
1005.695312,2.579996,-6.478962,0.832655,-7.749939
1005.699219,-3.956105,-4.729788,-4.072818,1.721782
1005.703125,-2.200350,-0.777764,-0.381656,-0.404730
1005.707031,6.634896,8.933851,1.046330,3.274661
1005.710938,10.968735,11.178386,7.760850,2.979883
1005.714844,10.830677,-0.943062,9.847405,6.150555
1005.718750,10.618538,11.462964,8.638347,15.326344
1005.722656,12.968538,8.379745,11.504639,7.445078
1005.726562,7.661558,6.560313,11.912734,5.251424
1005.730469,10.687009,10.172111,11.919835,3.364887
1005.734375,6.987901,8.341352,2.259080,1.969037
1005.738281,6.988667,-1.957321,13.671820,3.863438
1005.742188,3.031760,4.474820,4.997487,4.862094
1005.746094,3.933546,6.759393,8.869349,5.139196
1005.750000,-7.811193,-0.552069,10.511649,-4.662048
1005.753906,-5.657909,-1.730988,-0.818619,-7.854357
1005.757812,-8.248446,-2.103557,-3.694161,-4.611787
1005.761719,-5.396323,-2.573855,-3.755410,-6.537813
1005.765625,-0.857092,-2.550493,-5.909809,-16.925375
1005.769531,-12.997528,-0.897650,-7.627477,-5.299568
1005.773438,-3.890352,-7.024530,-10.537034,-12.488890
1005.777344,-12.407346,-7.903769,-8.949085,-6.084188
1005.781250,-12.304093,-11.125110,-2.611576,-9.012600
1005.785156,-7.680195,-3.913897,-10.416676,-0.051787
1005.789062,-2.413523,-10.693316,-7.528448,-9.651547
1005.792969,2.236925,-1.522979,1.934401,-7.052436
1005.796875,-5.088785,-4.851744,2.625105,-0.886359
1005.800781,3.904616,0.827851,-1.013898,8.201263
1005.804688,2.203964,3.103326,-0.620889,1.168288
1005.808594,-0.257326,2.024442,0.572552,8.972817
1005.812500,6.569129,2.162291,0.167005,11.185247
1005.816406,11.020044,9.056075,8.947410,14.442286
1005.820312,9.146228,7.010481,11.081222,4.470706
1005.824219,15.557745,13.049517,10.466780,10.516890
1005.828125,17.739029,4.223614,8.246491,6.232473
1005.832031,9.513232,9.333796,4.238275,10.173094
1005.835938,8.385360,3.390416,15.356128,2.947053
1005.839844,7.067702,0.683521,-0.368135,2.649786
1005.843750,5.387750,5.284876,0.760550,1.809796
1005.847656,4.547688,2.062078,-1.842170,2.179067
1005.851562,3.101702,-2.834352,-8.023919,-1.986005
1005.855469,-5.474453,-1.391370,-0.980941,-6.451357
1005.859375,-1.144475,-12.560061,-15.262023,-2.033227
1005.863281,-8.908934,-1.279015,-8.644947,-10.430808
1005.867188,-2.201824,-12.155948,-2.958767,-1.606038
1005.871094,-10.158563,-5.492652,-8.048228,-7.649866
1005.875000,-5.934178,-2.816396,-9.494146,-10.948800
1005.878906,-4.177351,-9.310903,-8.478212,-3.267738
1005.882812,-2.411041,-5.568198,-1.670948,-7.640793
1005.886719,-9.019247,-8.887544,-6.954904,-8.716702
1005.890625,-10.044924,-4.687528,1.806742,-4.360932
1005.894531,-1.663171,-0.043084,-13.126865,-2.899721
1005.898438,1.976867,-0.168330,-0.970576,2.568257
1005.902344,0.477213,2.034087,-1.697047,-6.040534
1005.906250,-4.319931,9.108817,6.361689,0.904764
1005.910156,8.280012,1.925801,7.614264,7.779358
1005.914062,8.352366,14.118289,8.950749,2.157781
1005.917969,12.140080,7.934249,13.031683,4.474752
1005.921875,6.082274,8.169505,11.507190,6.798167
1005.925781,16.482218,5.781768,18.229499,9.444283
1005.929688,13.805068,10.115623,8.434615,6.249145
1005.933594,16.609597,10.080074,16.191685,15.191285
1005.937500,8.592435,14.696978,10.803079,3.115217
1005.941406,12.898876,-2.765070,3.899747,1.971373
1005.945312,0.811547,10.586121,3.958892,1.254402
1005.949219,4.451751,0.880158,1.196454,-5.599329
1005.953125,-2.264797,-1.981324,3.947250,-1.071688
1005.957031,-7.106776,1.803865,0.429308,-6.187601
1005.960938,-13.996255,-4.533764,-4.332957,-13.896100
1005.964844,-5.121189,-9.968698,-6.431043,-7.099257
1005.968750,-11.873359,-11.098545,-5.371279,-3.851778
1005.972656,-10.380125,-14.399384,-11.234292,0.836118
1005.976562,-6.838037,-7.475640,-16.240068,-11.528812
1005.980469,-6.074218,-10.697086,-10.421927,-6.949225
1005.984375,-10.696063,-8.706284,-12.189573,-8.980595
1005.988281,-7.362605,-11.193006,-5.256590,-2.768542
1005.992188,-9.259006,-4.956038,-9.580759,-5.001955
1005.996094,-8.116752,-1.494227,0.229536,-2.464131
1006.000000,-1.442133,8.996127,-1.303918,-1.863516
1006.003906,0.598666,-0.609932,2.646110,-4.256836
1006.007812,-0.098568,2.115573,7.282484,2.660032
1006.011719,-1.727419,3.437875,-1.091935,2.664805
1006.015625,11.473457,7.542963,6.168048,2.629824
1006.019531,7.453195,7.214361,9.358958,8.221012
1006.023438,8.873524,3.901258,11.532158,9.475491
1006.027344,14.921301,4.607580,6.833197,6.911790
1006.031250,8.898930,6.084075,13.744452,3.722623
1006.035156,10.949192,9.052328,6.924348,15.098974
1006.039062,8.559784,5.880666,2.964470,1.376355
1006.042969,5.900733,4.750327,-5.739192,5.614682
1006.046875,2.566505,1.858814,-1.919998,-5.800644
1006.050781,0.932016,9.170278,0.242370,-0.813715
1006.054688,1.685457,-3.617325,0.611764,0.864012
1006.058594,-6.568535,-9.605090,-5.008931,-3.409108
1006.062500,-5.677877,-10.419551,-7.159870,-7.610359
1006.066406,-10.243981,-12.224174,-5.387704,-6.933854
1006.070312,-5.628680,-6.930332,-12.036741,-9.956545
1006.074219,-11.339243,-10.240109,1.425405,-7.863051
1006.078125,-17.270032,-6.429267,-8.562657,-12.919353
1006.082031,-10.163449,-20.006857,-11.881871,-12.275957
1006.085938,-8.850957,-5.152327,-8.206141,-6.342493
1006.089844,-4.282035,-5.831433,-7.052171,-7.184430
1006.093750,-4.961985,-1.965617,-0.773348,-9.714904
1006.097656,-1.793131,-3.804950,-1.772068,-0.917756
1006.101562,-0.881530,0.696401,-0.528707,0.737070
1006.105469,-0.490674,-1.560239,6.564383,-1.644476
1006.109375,11.300276,6.440459,9.491151,2.965972
1006.113281,7.611862,8.771411,-1.578770,9.499085
1006.117188,3.214320,10.852915,5.905725,15.235876
1006.121094,9.431586,9.992353,11.517201,15.025187
1006.125000,15.433624,8.340688,7.576077,12.478612
1006.128906,15.733638,4.824643,10.606542,3.604659
1006.132812,10.041892,15.819492,1.944869,7.603093
1006.136719,11.252312,1.968612,5.843717,8.215567
1006.140625,9.161077,1.641413,7.126098,11.686131
1006.144531,-0.223810,-1.562269,0.192527,9.678556
1006.148438,4.025355,2.139686,5.625918,4.276771
1006.152344,-5.824000,3.034562,-3.940059,0.388283
1006.156250,-4.297955,-1.264804,-3.559001,-3.407197
1006.160156,-6.117340,-8.434948,-3.743243,-8.144185
1006.164062,-6.854389,-7.824898,-9.189814,-5.847822
1006.167969,-6.874236,-9.325854,-4.385103,-1.713176
1006.171875,-7.501927,-15.253001,-7.787905,-18.441650
1006.175781,-12.678061,-8.984572,-7.140704,-10.461589
1006.179688,-7.858086,-14.932321,-16.625538,-10.684129
1006.183594,-10.763890,-8.550202,-11.120819,-11.181598
1006.187500,-9.477002,-13.366597,-10.968916,-11.741522
1006.191406,0.949265,-5.948740,-4.467311,-10.653816
1006.195312,0.635450,-1.428069,-3.711672,2.797768
1006.199219,-5.697632,2.130509,-3.391890,3.316627
1006.203125,-0.635270,-2.041940,-1.537493,2.366240
1006.207031,7.706700,10.040412,5.946624,-0.545180
1006.210938,4.868152,6.756688,1.456605,10.972944
1006.214844,7.511210,12.796866,1.952530,4.317785
1006.218750,6.450489,5.152985,6.731994,7.758833
1006.222656,14.085337,9.490824,13.415661,8.866301
1006.226562,12.959189,8.452115,11.422057,14.635474
1006.230469,10.504626,9.716890,4.210363,5.380787
1006.234375,10.993444,15.115523,12.880816,6.703615
1006.238281,8.890766,9.271481,10.894018,0.095993
1006.242188,3.702920,8.352413,3.957696,-3.298843
1006.246094,2.093189,-6.248232,5.756072,0.282241
1006.250000,1.818797,6.811607,-2.425797,-2.907957
1006.253906,0.393927,-1.999248,-0.689161,3.818956
1006.257812,1.136604,-6.430615,-2.389277,-3.251143
1006.261719,2.177044,-3.154426,-6.850598,-2.961660
1006.265625,-11.410387,-13.386519,-5.847286,-3.970054
1006.269531,-8.457196,-7.479339,-11.402954,-2.106894
1006.273438,-9.160012,-7.504947,-12.255925,-10.266398
1006.277344,-3.316379,-10.226627,-14.067856,-4.694847
1006.281250,-12.173128,-0.416845,-4.394893,-16.035627
1006.285156,-17.845580,-9.108283,-10.333792,-0.345563
1006.289062,-7.995908,-9.843972,-1.023874,-11.394098
1006.292969,3.154315,-8.411440,-5.530934,-8.574610
1006.296875,-5.489980,-0.384271,-2.021885,-4.708833
1006.300781,11.900589,-2.994750,-1.767092,-5.428960
1006.304688,-0.367843,9.804410,1.972792,1.477223
1006.308594,6.376946,7.681632,11.203256,3.835999
1006.312500,4.663887,6.068776,5.532462,2.152220
1006.316406,6.718172,9.296319,5.591635,9.232320
1006.320312,11.738495,6.572678,10.162636,12.180756
1006.324219,5.231214,7.879855,11.569369,10.674586
1006.328125,2.836599,14.067411,4.203217,13.725837
1006.332031,9.822174,7.755051,9.435553,9.739920
1006.335938,13.959416,13.186941,6.501574,4.753778
1006.339844,9.717194,13.701103,7.413395,10.028887
1006.343750,-4.564844,5.313575,6.705859,-4.427045
1006.347656,0.429327,-0.357112,-3.352825,-1.482942
1006.351562,-0.987777,-1.167874,8.793404,-3.396687
1006.355469,-5.274066,-3.062076,-3.594540,-2.447946
1006.359375,-10.674908,-7.979529,-3.783494,-10.843032
1006.363281,-11.247750,-5.967265,-11.105816,-13.129710
1006.367188,-1.791428,-6.367260,-6.812786,-4.601564
1006.371094,-4.008411,-12.858848,-17.900530,-7.228627
1006.375000,-8.186501,-17.228956,-4.217950,-10.290747
1006.378906,-14.354160,-11.708033,-14.933736,-15.663041
1006.382812,-5.459897,-5.009178,-6.615384,-9.889825
1006.386719,-8.841361,-5.164191,-13.044605,-8.240115
1006.390625,-8.525717,-5.917783,-7.828297,-6.874112
1006.394531,0.287471,-4.317653,-4.192056,-1.865583
1006.398438,-5.725929,-1.098114,-8.955244,-6.459437
1006.402344,-4.848322,1.171888,0.353373,3.466771
1006.406250,4.168873,12.714875,9.051366,5.262888
1006.410156,7.008465,10.980385,5.087517,-1.874657
1006.414062,17.169320,6.079704,6.395908,6.835747
1006.417969,10.753363,9.247823,12.132818,16.550217
1006.421875,12.632748,3.077417,11.824905,7.775734
1006.425781,10.653071,13.914371,17.938574,14.913865
1006.429688,8.496121,11.508700,9.123235,7.582746
1006.433594,14.890292,10.634389,4.378527,4.386003
1006.437500,14.201060,1.104551,9.199772,5.000432
1006.441406,-1.324920,3.422138,3.260296,9.353970
1006.445312,0.016860,5.590150,3.373068,-0.536044
1006.449219,7.922098,5.492772,-8.693781,-3.127968
1006.453125,5.393420,-1.956645,-3.364120,-5.907110
1006.457031,-2.385283,-8.277874,1.573431,-3.488965
1006.460938,-3.671247,-7.654831,-1.788899,-1.839944
1006.464844,-18.875848,-7.792736,-1.940231,-4.200345
1006.468750,-14.664170,-15.397185,-4.509994,-16.158527
1006.472656,-11.727425,-3.196055,-4.475099,-3.239226
1006.476562,-7.935302,-8.170539,-15.274756,-8.378270
1006.480469,-12.739365,-14.330555,-9.554852,-6.055695
1006.484375,-7.854173,-2.424167,-9.583152,-3.850940
1006.488281,-11.672777,-4.419694,-13.135245,-4.061720
1006.492188,-6.290109,-9.421235,-11.399506,-3.685834
1006.496094,0.922516,-6.601766,-5.295468,-7.749979
1006.500000,1.922852,-2.337635,-8.468633,4.008917
1006.503906,-4.297945,6.819624,-2.901898,6.877203
1006.507812,10.021721,5.860171,-4.740541,9.615695
1006.511719,6.210964,7.239940,7.397693,7.840915
1006.515625,10.173145,7.576527,7.706989,11.421889
1006.519531,9.335290,10.394183,19.191312,1.039747
1006.523438,6.867535,10.295707,10.750829,5.523771
1006.527344,5.338719,9.494128,13.901001,5.470585
1006.531250,14.064637,1.971564,15.439790,17.347455
1006.535156,15.160174,10.647282,6.311551,6.922009
1006.539062,6.640520,8.286587,7.501365,20.009393
1006.542969,2.879186,3.842022,5.635476,4.442590
1006.546875,0.825309,3.148193,0.588446,5.568566
1006.550781,0.372342,-0.991602,-1.588371,0.892472
1006.554688,4.621324,-8.670776,-7.708855,-2.551662
1006.558594,-2.923366,-3.652942,-6.672000,-4.228668
1006.562500,-8.550720,-9.268438,-2.919670,-3.326777
1006.566406,-9.160535,-5.892366,-8.079762,-7.379637
1006.570312,-10.745236,-14.839652,-15.054029,-13.977664
1006.574219,-8.258032,-5.646319,-6.750107,-13.492089
1006.578125,-13.670617,-9.329902,-9.810735,-19.348120
1006.582031,-11.699915,-7.225056,-9.399553,-10.066525
1006.585938,-5.640813,2.275378,-10.036409,-11.716895
1006.589844,-0.461567,-7.420218,-1.340823,-10.725105
1006.593750,-4.749189,0.412647,2.847328,-1.887438
1006.597656,0.462950,-0.964235,0.638675,-7.693257
1006.601562,1.000064,-5.383206,3.760738,2.755516
1006.605469,2.739439,3.882367,1.634610,2.336513
1006.609375,11.310672,5.543324,0.286754,10.652324
1006.613281,8.317053,14.937588,7.176100,3.228665
1006.617188,9.518843,11.899739,15.735149,6.149090
1006.621094,5.274493,11.473938,7.977674,10.134376
1006.625000,8.807324,8.129157,12.776471,2.105866
1006.628906,14.340626,3.481284,16.026874,10.426889
1006.632812,12.621610,15.484284,13.444370,9.796564
1006.636719,6.890813,12.116382,2.182649,4.462773
1006.640625,6.437224,4.859104,11.957338,4.690069
1006.644531,12.021632,-2.126934,-0.242806,1.027990
1006.648438,0.509176,-5.236754,0.734424,-6.338369
1006.652344,-6.239448,1.105116,-5.566997,5.422121
1006.656250,-7.458115,-2.930905,-0.417122,-10.535813
1006.660156,-6.545435,-8.454885,-0.790817,-5.163878
1006.664062,-1.805358,-8.074840,-6.402720,-9.679646
1006.667969,-2.490917,-3.825222,-8.100611,-2.950287
1006.671875,-17.992005,-7.773659,-7.485688,-13.476585
1006.675781,-13.499396,-10.224001,-0.738631,-3.678468
1006.679688,-12.207499,-10.515624,-3.408409,-1.807963
1006.683594,-3.050556,-2.996567,-14.620082,-13.832899
1006.687500,-3.025891,-14.573085,-6.961374,-2.439306
1006.691406,-3.953637,-4.673606,-11.647910,1.376579
1006.695312,-8.989935,-3.390688,-9.972593,-2.819130
1006.699219,-5.461365,-0.835316,6.098466,-3.355074
1006.703125,1.962352,3.038929,-2.449353,-5.508867
1006.707031,11.380619,5.312300,-1.877819,6.485369
1006.710938,8.442037,4.649290,7.929148,6.232968
1006.714844,10.762399,5.409094,9.067510,10.310233
1006.718750,8.927535,14.597337,12.939501,14.428557
1006.722656,18.515917,9.926116,20.272876,7.029744
1006.726562,10.581297,7.801823,12.969123,8.982746
1006.730469,14.935247,12.766199,12.333716,11.307947
1006.734375,10.918247,13.890168,9.553365,7.660210
1006.738281,2.364667,2.797792,4.631462,5.973132
1006.742188,3.186745,6.267026,8.595652,-0.538391
1006.746094,2.274261,2.607024,4.465378,0.538101
1006.750000,0.968746,0.654025,3.453864,-7.419887
1006.753906,6.857894,-0.044256,0.200630,1.888618
1006.757812,-0.165212,-6.113801,-2.813762,-9.841457
1006.761719,-7.004305,-4.974019,-10.360546,-1.409101
1006.765625,-8.256038,-5.055891,-12.417562,-12.550123
1006.769531,-14.881809,-11.538522,-11.947918,-13.237549
1006.773438,-18.558551,-8.330817,-11.661074,-14.058156
1006.777344,-14.735567,-4.922745,-10.556406,-9.854991
1006.781250,-4.824747,-17.523691,-13.271772,-13.061103
1006.785156,-15.804045,-10.010434,-6.502561,-11.346424
1006.789062,-10.590219,1.158260,-4.626495,-0.421179
1006.792969,1.477133,-4.976841,-4.291150,-2.551380
1006.796875,-7.126824,6.172682,-2.631485,-3.172056
1006.800781,3.899599,1.325049,1.902822,3.821668
1006.804688,-0.566504,0.274274,2.574437,1.343636
1006.808594,12.191640,5.004701,6.417362,-1.025186
1006.812500,9.261931,2.961512,7.941256,8.953933
1006.816406,16.493723,9.253322,5.391017,6.436776
1006.820312,1.237346,16.495722,5.516606,6.768438
1006.824219,8.393441,1.590566,7.803956,10.696707
1006.828125,5.029921,-0.307455,9.256076,12.008985
1006.832031,8.220975,-0.865342,20.453395,5.885704
1006.835938,2.006966,9.087098,9.706814,1.839375
1006.839844,6.716252,-0.963946,11.239759,4.787131
1006.843750,0.233641,6.689287,5.608631,2.352907
1006.847656,2.027369,-3.379390,2.998648,1.195700
1006.851562,0.511505,-0.007162,1.148022,-0.934236
1006.855469,-1.218577,4.432772,-1.102117,-6.645893
1006.859375,-5.011960,-6.234811,-3.647696,-11.557596
1006.863281,-7.308796,-12.097606,-4.899840,-3.913468
1006.867188,-7.028470,-7.067471,-13.370974,-11.581763
1006.871094,-12.635651,-13.167103,-12.484974,-5.536163
1006.875000,-15.807501,-8.872100,-16.333693,-8.968835
1006.878906,-9.842743,-3.314945,-8.114377,-11.880770
1006.882812,-11.477222,-8.443887,-11.231969,-14.377885
1006.886719,-1.005583,-16.486882,-2.209723,-11.809785
1006.890625,-4.781608,-3.103161,0.102145,-4.036089
1006.894531,-5.030832,1.364762,-6.223567,-8.179507
1006.898438,-4.331951,0.851514,-1.353834,7.247018
1006.902344,0.336122,4.929087,-1.019719,-7.749565
1006.906250,8.694526,0.998122,6.688972,-0.218756
1006.910156,5.133595,4.949540,-4.511001,6.846733
1006.914062,8.318166,8.383169,9.205039,7.957555
1006.917969,14.092696,17.910386,14.698846,-0.420735
1006.921875,6.457182,6.413379,5.040135,5.276056
1006.925781,11.771147,6.088889,15.467876,9.061155
1006.929688,4.738998,13.670810,6.562001,10.481781
1006.933594,11.363048,1.400476,7.260213,7.581713
1006.937500,2.993458,4.585850,6.340988,12.811685
1006.941406,1.282928,7.244926,6.237339,0.443953
1006.945312,5.040699,1.258041,-0.520846,5.459314
1006.949219,11.375222,3.584793,-4.357767,2.290170
1006.953125,-2.316708,-4.540015,-2.594195,-5.137769
1006.957031,-3.562050,-1.427075,-1.524019,1.034627
1006.960938,-5.048145,-5.348981,-5.592286,-7.275445
1006.964844,-12.332560,-6.009851,-12.273950,-7.082717
1006.968750,-4.112424,-4.068780,-8.268421,-17.416292
1006.972656,-11.247218,-5.667601,-7.103746,-12.017321
1006.976562,-16.232843,-14.312694,-16.573387,-4.930026
1006.980469,-11.035833,-8.768726,-6.979595,-10.441784
1006.984375,-12.410369,-9.068349,-3.656909,-0.117145
1006.988281,-13.042393,-5.670738,-3.595555,-9.963543
1006.992188,-5.161589,2.917986,1.556372,-6.806110
1006.996094,-1.123119,-1.212572,-1.342925,0.180252
1007.000000,-1.910775,1.223895,0.756272,-2.463301
1007.003906,5.793381,6.338146,0.446447,5.272040
1007.007812,7.795410,1.944895,0.999492,10.472684
1007.011719,5.689422,4.391989,6.633134,10.998516
1007.015625,6.886130,12.612104,5.496319,5.561669
1007.019531,4.842831,13.729792,11.827279,13.933738
1007.023438,8.954048,7.348728,7.035926,16.218794
1007.027344,3.297051,6.510744,6.459988,8.509162
1007.031250,9.283805,-0.337682,10.581851,7.329892
1007.035156,7.163050,14.998313,4.103543,10.904150
1007.039062,-0.552644,9.454560,1.899018,5.655410
1007.042969,1.450836,5.296384,7.886707,3.495162
1007.046875,-0.007016,-2.737291,5.098885,-2.211379
1007.050781,0.990178,-9.296345,-8.909401,1.176577
1007.054688,-1.894765,0.710497,-1.836896,3.374781
1007.058594,-10.349883,2.276366,-7.199584,-3.438968
1007.062500,-7.747282,-11.212734,-13.385398,-5.729580
1007.066406,-9.656596,-10.776479,-10.694855,-2.194534
1007.070312,-8.250908,-13.840799,-8.427232,-8.415640
1007.074219,-5.730697,-9.946835,-9.262889,-11.248022
1007.078125,-1.266439,-7.134424,-13.261104,-6.074345
1007.082031,-4.319088,-8.784441,-14.562968,-6.453041
1007.085938,-9.013889,-9.413725,-1.193116,-1.132222
1007.089844,-6.065889,-6.778885,-2.868037,-9.908698
1007.093750,1.670925,-4.890993,-9.418968,-0.674861
1007.097656,-10.223892,-0.275591,5.830186,-0.961917
1007.101562,5.186429,5.772119,-12.631953,6.362500
1007.105469,4.562714,-1.150509,0.997140,-2.832031
1007.109375,8.587990,0.654269,8.823787,0.327872
1007.113281,5.306855,7.241955,14.845325,14.247739
1007.117188,10.664056,10.558427,14.395752,7.561007
1007.121094,5.438085,10.735174,7.016019,7.569433
1007.125000,9.644898,16.543389,12.437858,12.566507
1007.128906,5.027890,4.233340,6.384992,6.427612
1007.132812,12.060102,4.388546,2.526824,4.401164
1007.136719,9.228053,7.478971,8.292140,0.132531
1007.140625,-0.331809,3.646020,4.393677,8.385926
1007.144531,4.407268,0.372418,-3.854654,1.762301
1007.148438,7.833918,-5.455141,-2.451660,-0.015765
1007.152344,-5.169408,-0.039800,1.709659,-6.154642
1007.156250,-6.651500,-1.849503,-4.029561,-0.037084
1007.160156,-4.990000,-7.823204,-6.275950,-7.277848
1007.164062,-9.050091,-1.643011,-8.961822,-1.232201
1007.167969,-15.542761,-9.945718,-13.065701,-8.518951
1007.171875,-7.840583,-0.119557,-10.640617,-9.786412
1007.175781,-15.478970,0.260892,-11.052794,-9.378186
1007.179688,-6.757323,-4.463292,-13.532508,-8.571553
1007.183594,-1.549806,-5.945187,-7.182590,-2.835167
1007.187500,-10.587284,-8.721081,-10.956295,-2.191498
1007.191406,-3.779907,-6.354624,-4.150559,-3.300064
1007.195312,-0.131652,-2.201225,-7.208278,-2.951645
1007.199219,-9.053056,-6.181169,3.091283,7.824581
1007.203125,2.771141,-6.271655,4.592016,3.500735
1007.207031,8.625305,4.615994,-0.007282,7.244463
1007.210938,7.526478,7.185982,9.660124,4.839375
1007.214844,6.984509,8.782320,3.873306,12.939065
1007.218750,12.450467,7.326642,0.616103,13.096220
1007.222656,14.009289,15.415429,9.786812,18.858043
1007.226562,4.909606,10.168274,10.633475,18.638102
1007.230469,6.977910,13.034173,8.558453,4.362785
1007.234375,14.220767,10.490409,12.225656,9.755394
1007.238281,11.810146,7.915625,13.178275,4.768061
1007.242188,-1.222674,10.325948,7.423559,9.818652
1007.246094,4.028131,-0.459505,-1.361483,5.731818
1007.250000,7.284033,-0.153406,-5.254535,-7.018630
1007.253906,-6.610981,-6.112742,0.689332,-3.666527
1007.257812,-0.779403,-5.108877,-4.562514,-8.847228
1007.261719,-13.353388,-12.672765,-10.633440,-3.201035
1007.265625,-12.087625,-10.667567,-4.747089,-8.950787
1007.269531,-13.762016,-10.367819,-13.056667,-12.488252
1007.273438,-12.022671,-11.067714,-9.218370,-5.559242
1007.277344,-7.230643,-12.163561,-10.988837,-5.579401
1007.281250,-7.359630,-7.348962,-4.801657,-8.539327
1007.285156,-4.452823,-7.597256,2.207329,-12.394928
1007.289062,-12.408613,-16.087347,-3.117268,-5.247425
1007.292969,-10.193428,2.066934,-3.027695,1.529800
1007.296875,0.008830,-1.866989,1.354877,7.883226
1007.300781,3.680014,3.790225,1.251702,4.644937
1007.304688,2.109786,0.410036,-2.822689,3.627179
1007.308594,9.398844,6.820041,7.163950,10.069147
1007.312500,6.755996,0.984159,4.623493,1.838821
1007.316406,3.197714,15.730964,7.136266,2.977034
1007.320312,2.050730,10.002815,11.724874,11.873630
1007.324219,10.081842,3.704525,12.212080,11.987210
1007.328125,4.909642,7.176282,9.344659,9.767785
1007.332031,9.533496,10.749860,17.309008,13.370987
1007.335938,-1.110323,5.403380,9.924277,14.499432
1007.339844,-0.118526,-0.898699,11.853817,-0.093344
1007.343750,4.792051,6.351054,2.354314,6.545344
1007.347656,-2.738713,4.529973,4.933084,-1.762591
1007.351562,1.730704,0.035962,-0.834168,-4.767561
1007.355469,-2.324268,-7.765818,-6.800833,-0.295414
1007.359375,-8.427966,-1.662723,-10.066159,-8.554018
1007.363281,-9.235050,-13.908398,-12.178833,-6.091701
1007.367188,-7.382285,-6.479078,-7.298117,-10.372127
1007.371094,-8.315349,-4.020972,-8.103103,-14.755078
1007.375000,-8.541159,-7.459434,-6.534137,-10.871456
1007.378906,-5.441773,-8.962432,-8.619168,-9.436861
1007.382812,-2.833785,-12.652618,-2.809227,-9.652232
1007.386719,-4.137600,-18.147920,-4.755146,-8.088958
1007.390625,-6.226528,-12.828309,-3.080295,-6.373420
1007.394531,-12.100691,-9.014679,-3.742372,-3.596842
1007.398438,-2.896696,-1.757531,-0.867022,6.179135
1007.402344,3.075157,3.833273,3.609764,4.846021
1007.406250,6.469991,0.661944,8.195897,6.153833
1007.410156,5.280607,3.876753,0.449819,2.912480
1007.414062,8.496692,4.983512,3.535752,1.557361
1007.417969,16.500891,12.891480,14.027879,7.988958
1007.421875,13.202981,8.107513,15.888701,8.196031
1007.425781,10.390222,14.729388,11.736397,15.174992
1007.429688,6.507178,9.925560,6.140570,14.875126
1007.433594,8.100481,7.877327,7.800622,2.858949
1007.437500,11.182784,12.294881,6.627039,-1.037667
1007.441406,2.573775,5.120043,5.487563,-1.960591
1007.445312,2.507253,-3.884636,5.197408,3.131223
1007.449219,4.123559,2.636915,-4.419029,-2.205575
1007.453125,-0.138119,-8.801383,-0.135883,6.874841
1007.457031,-2.933838,-6.498453,-1.361730,-8.446930
1007.460938,-5.755357,-10.504444,-6.920949,-5.096223
1007.464844,-11.791529,-5.947963,-1.832679,-11.774372
1007.468750,-9.372966,-7.982439,-10.185925,3.367336
1007.472656,-13.321360,-10.102769,-5.160924,-10.541833
1007.476562,-17.008826,-7.632908,-12.447756,-10.668760
1007.480469,-3.657189,-15.162714,-4.966562,-10.755467
1007.484375,-6.969101,-8.547294,-7.181330,-6.062400
1007.488281,-6.826147,1.368259,-11.490921,-14.364704
1007.492188,-3.421806,0.614392,-7.920709,-8.299422
1007.496094,-2.366558,-4.099261,4.038474,-8.684906
1007.500000,-6.017350,-1.243236,-1.728546,-3.204302
1007.503906,1.400144,3.041077,-1.511015,5.812967
1007.507812,7.939695,0.819836,13.671366,-1.590493
1007.511719,5.730767,5.226109,8.924893,3.637972
1007.515625,5.882800,3.264779,13.864233,9.789229
1007.519531,11.092725,11.109219,13.561360,8.814869
1007.523438,13.255540,7.317189,9.161356,11.639069
1007.527344,10.074894,9.239766,8.064586,10.588787
1007.531250,11.414710,5.152275,7.958397,12.350106
1007.535156,10.039703,5.093862,7.029433,8.621154
1007.539062,6.465026,6.284190,11.727451,7.746127
1007.542969,10.182351,11.128192,6.381975,1.664410
1007.546875,0.458445,3.030024,2.431017,-1.347657
1007.550781,0.804435,1.799805,2.507552,0.473773
1007.554688,-2.487592,-1.599320,0.113593,-7.104151
1007.558594,0.039462,-7.341917,2.193109,-6.379144
1007.562500,-5.837423,-9.412347,-5.034306,-10.647087
1007.566406,-5.424334,-1.409287,-9.936449,-14.548371
1007.570312,-8.165341,-11.540811,-12.426058,-7.855784
1007.574219,-8.300462,-2.211964,-11.047336,-11.584253
1007.578125,-12.702976,-9.144383,-10.712943,-7.967199
1007.582031,-3.051787,-6.408171,-10.973587,-10.126574
1007.585938,-6.631975,-4.937205,-8.471910,-6.511713
1007.589844,-7.136465,-5.936873,-5.410056,-4.404022
1007.593750,-4.398314,-2.834602,-7.356617,0.474433
1007.597656,-3.467070,3.905423,-1.395134,9.114865
1007.601562,-2.559310,-2.058079,3.065131,7.695400
1007.605469,5.439207,1.753371,-5.631142,-1.047585
1007.609375,4.750578,3.204353,7.526104,2.146866
1007.613281,9.308197,3.388359,7.970334,8.971103
1007.617188,6.514179,8.924542,15.328055,2.849054
1007.621094,12.824079,7.753178,7.720841,3.495795
1007.625000,4.973880,7.994925,15.887363,12.422800
1007.628906,12.801908,3.045348,8.208919,12.049182
1007.632812,10.860099,1.275098,14.199663,7.992732
1007.636719,3.280085,4.787626,1.204260,1.461415
1007.640625,8.835849,4.337995,12.235384,2.767922
1007.644531,6.782385,-1.010550,4.072807,5.594293
1007.648438,2.280955,-4.778147,-2.041595,2.025796
1007.652344,5.128577,1.496566,-0.419765,0.440851
1007.656250,-4.472325,-5.339828,-4.243662,-7.821685
1007.660156,-0.598896,-5.755299,-11.197760,-12.383618
1007.664062,-10.382759,-15.062970,-11.645936,-8.011388
1007.667969,-15.545179,-18.477083,-13.181190,-17.498388
1007.671875,-10.137806,-11.173615,-13.738049,-12.524036
1007.675781,-11.601844,-14.911726,-10.915202,-17.778655
1007.679688,-9.419840,-16.543825,-6.256567,1.207987
1007.683594,-9.717161,-8.963677,-12.591687,-7.474728
1007.687500,-2.409576,-10.762647,-8.661716,1.370887
1007.691406,-6.863134,-6.246792,-5.906635,-2.222047
1007.695312,-0.741918,5.267809,-1.665473,-3.083344
1007.699219,1.694614,-3.628783,-5.424691,-1.335746
1007.703125,-3.464388,4.593696,3.896778,1.939760
1007.707031,4.276985,4.152828,3.049521,7.761848
1007.710938,9.527910,9.467313,4.219185,13.483858
1007.714844,-0.865347,6.001719,6.098381,10.009690
1007.718750,11.278120,5.714083,12.752220,13.236432
1007.722656,10.078672,2.661506,9.490978,12.109701
1007.726562,12.380682,8.850840,14.278949,11.163150
1007.730469,15.377355,11.967161,10.234944,5.230510
1007.734375,9.473290,4.904300,8.391352,11.961108
1007.738281,7.869565,5.800736,6.763476,5.253291
1007.742188,12.309560,9.107931,2.234082,1.683962
1007.746094,2.692491,-0.983599,9.867698,-3.179653
1007.750000,3.462301,-2.230232,-0.145560,11.036867
1007.753906,2.471974,-1.430494,-8.594857,-6.044864
1007.757812,-9.457449,-0.981764,-6.414529,0.042828
1007.761719,-10.181723,-13.675373,-10.777422,-6.399700
1007.765625,-12.665568,0.339989,-15.482871,-10.759700
1007.769531,-9.639996,-11.520276,-11.256324,-4.723614
1007.773438,-14.641822,-8.584276,-3.345678,2.393344
1007.777344,-7.633897,-6.031139,-5.887647,-13.262929
1007.781250,-8.162339,-6.115296,-3.222610,-15.062941
1007.785156,-9.571879,-7.022533,-11.303045,-7.020558
1007.789062,-5.709469,-7.039007,-6.067407,-3.796621
1007.792969,-2.041590,-5.927387,0.507587,-5.390064
1007.796875,-3.884588,2.463804,0.260583,0.132925
1007.800781,-3.688438,2.833182,-1.594272,0.205377
1007.804688,-2.120731,1.551203,-1.288388,-7.011732
1007.808594,1.428833,3.608460,12.863536,6.583974
1007.812500,12.702460,10.470026,10.903790,3.388032
1007.816406,6.140497,10.868930,19.822891,11.941045
1007.820312,7.791889,6.615294,5.077422,5.715869
1007.824219,10.364565,16.550604,13.279643,6.646722
1007.828125,10.530809,9.547024,16.837958,9.378261
1007.832031,9.398839,7.851676,10.365666,6.092547
1007.835938,14.791672,6.541378,2.288447,2.926974
1007.839844,6.197516,8.364891,5.193340,0.863953
1007.843750,10.478274,6.967438,15.870590,1.775727
1007.847656,-0.240357,-4.366693,-1.337970,-8.205072
1007.851562,-8.982171,-1.762821,-0.740598,2.595256
1007.855469,-1.890459,-8.753409,-3.769511,-2.944458
1007.859375,-3.639869,-9.730459,-7.069175,3.710568
1007.863281,-7.066935,-5.732139,-9.759692,-4.520466
1007.867188,-2.174730,-8.001807,-12.947239,-7.248991
1007.871094,-0.296475,-5.635451,-14.090390,-11.134597
1007.875000,-14.081875,-12.872244,-8.354928,-12.118646
1007.878906,-8.934840,-7.093363,-7.601909,-11.098152
1007.882812,-6.596428,-9.189720,-7.895938,-16.744054
1007.886719,-5.525297,-11.787738,-4.343885,-4.016831
1007.890625,-1.219028,-6.256149,1.067508,-2.326285
1007.894531,-6.254721,-2.140383,-6.564659,-5.253327
1007.898438,-3.293115,-5.749352,-6.921775,0.638456
1007.902344,7.310882,-4.324200,2.505741,2.032557
1007.906250,-1.389713,0.785466,-0.446142,2.702834
1007.910156,9.785084,8.640773,10.607513,11.090080
1007.914062,7.065730,9.518009,2.466755,2.994736
1007.917969,2.789493,8.353589,4.926552,5.269255
1007.921875,12.289459,11.096013,13.053512,15.481447
1007.925781,10.959720,12.184972,13.551254,6.042171
1007.929688,7.923679,8.672547,8.269362,8.248062
1007.933594,12.378906,5.430548,8.860380,7.340629
1007.937500,1.268087,5.871429,1.929534,5.546578
1007.941406,4.791673,7.039154,4.883377,-1.619753
1007.945312,5.250939,6.594219,-2.185772,-0.034339
1007.949219,3.280645,1.482402,-2.279955,-0.126628
1007.953125,-0.385336,3.968443,-3.183478,1.871247
1007.957031,0.809286,-2.310211,-0.259598,-5.714188
1007.960938,-3.547371,-1.142277,-1.553137,6.537532
1007.964844,-15.482202,-16.737933,-3.985815,-3.067010
1007.968750,-13.364806,-10.746346,-9.022135,-6.269111
1007.972656,-13.460847,-7.883645,-13.231743,-10.204637
1007.976562,-9.879063,-10.688818,-4.504806,-6.919726
1007.980469,-7.180543,-14.004798,-9.365035,-3.669093
1007.984375,-5.120124,-3.353070,-8.545092,-9.674121
1007.988281,-4.108021,-13.256894,-16.234085,-6.525247
1007.992188,-1.495176,-7.857768,-8.389350,-1.245340
1007.996094,1.596791,3.263735,0.926227,-6.177883
1008.000000,0.734005,2.882299,-4.889084,-2.346381
1008.003906,1.203815,3.316788,1.833282,3.113492
1008.007812,1.936518,5.401954,1.606451,3.510172
1008.011719,7.735126,6.706052,7.075962,2.178619
1008.015625,9.037855,5.596420,8.996167,7.002616
1008.019531,8.787349,11.489422,8.831019,11.472687
1008.023438,14.863800,13.985884,7.634275,7.684792
1008.027344,14.024653,3.062890,7.434330,20.098873
1008.031250,16.262180,8.203048,10.323147,8.940381
1008.035156,5.743719,6.150816,9.469817,2.825294
1008.039062,3.645623,6.633634,12.095906,2.426734
1008.042969,-2.989779,8.711607,3.799124,-1.271731
1008.046875,7.046987,0.626456,2.571659,-2.663703
1008.050781,-6.418704,6.715799,-1.925030,-0.925802
1008.054688,-3.779823,-1.353884,-7.134525,0.339346
1008.058594,-6.634478,-1.442448,-10.099215,-3.134208
1008.062500,-8.351297,-2.870293,-3.054106,-4.888902
1008.066406,-6.001642,-5.217045,-1.186070,-9.867613
1008.070312,-14.015187,-1.713781,-10.085541,-7.457227
1008.074219,-14.502795,-13.351755,-10.762792,-11.301929
1008.078125,-8.870894,-13.996359,-3.520131,-15.253030
1008.082031,-13.715800,-5.932731,-9.062404,-3.428022
1008.085938,-8.027826,-12.276683,-4.605292,-4.601382
1008.089844,-9.804859,-1.135332,-4.338697,-4.798008
1008.093750,-6.178608,-3.619116,-4.042395,-2.405042
1008.097656,1.680943,-0.257892,-5.076126,2.757443
1008.101562,2.913221,3.320693,-1.407643,-1.486560
1008.105469,4.250258,4.178130,1.188161,2.215156
1008.109375,7.656290,3.137647,10.669497,6.291580
1008.113281,6.603236,7.356712,4.356832,7.007351
1008.117188,14.826857,6.438769,1.753964,6.286375
1008.121094,10.102937,14.110657,13.860144,12.326976
1008.125000,2.713036,13.837434,8.201578,10.750789
1008.128906,14.086574,9.805817,10.187863,9.691392
1008.132812,9.712499,11.783234,3.555498,5.653069
1008.136719,10.133544,8.738573,3.724170,8.383079
1008.140625,2.737515,6.640707,4.936174,4.075419
1008.144531,-3.441057,0.874602,7.500357,-2.299227
1008.148438,-2.853080,-3.610015,6.908159,4.891668
1008.152344,-2.230929,-1.949369,-0.653131,-8.538615
1008.156250,-8.562916,1.627618,-4.735648,3.822099
1008.160156,-1.570116,3.287897,-7.677650,-4.939836
1008.164062,-13.779184,-10.223347,-1.307766,-10.536807
1008.167969,-6.971300,-7.924869,-9.421621,-7.624755
1008.171875,-14.175305,-10.183713,-9.126500,-12.596449
1008.175781,-5.075668,-11.195021,-10.468422,-7.710371
1008.179688,-11.119006,-8.099619,-12.887022,-6.598073
1008.183594,-3.821981,-2.330705,-5.286907,-10.600788
1008.187500,-10.943629,-9.192725,-8.863302,-4.456106
1008.191406,-8.009517,-0.511606,-9.602410,-2.099991
1008.195312,-4.608244,1.965318,-7.596045,-0.486219
1008.199219,-0.582938,4.131578,2.366261,0.539266
1008.203125,0.175132,-1.676626,-0.869416,-1.855776
1008.207031,3.623043,13.759883,3.024713,5.351795
1008.210938,10.358741,7.977949,11.311507,6.018099
1008.214844,2.038659,5.029364,14.459998,4.660359
1008.218750,0.072930,14.038613,6.973927,6.827569
1008.222656,4.296510,4.711597,7.645134,10.407005
1008.226562,13.295151,13.221878,11.775462,11.379421
1008.230469,5.863487,12.349661,5.884122,11.528851
1008.234375,4.776140,5.082817,6.564686,9.590128
1008.238281,1.621468,-0.125976,8.347463,11.548948
1008.242188,-0.213627,4.173345,0.522181,11.575074
1008.246094,10.387428,-6.184462,-5.073380,5.021437
1008.250000,-1.137082,-1.339218,2.104836,-1.074760
1008.253906,0.601143,-9.516130,2.116835,-0.568364
1008.257812,-5.843867,-3.359700,0.740845,-3.515840
1008.261719,-6.841690,-13.205091,-10.307545,-10.625126
1008.265625,-8.225585,-4.256855,-4.812138,-6.461157
1008.269531,-15.063195,-10.950018,-9.865127,-10.021318
1008.273438,-9.392645,-8.785325,-14.025649,-7.850435
1008.277344,-10.264986,-3.628825,-7.147437,-7.965549
1008.281250,-3.963642,-14.222654,-8.113286,-13.034227
1008.285156,-11.015860,-15.087667,-13.742579,-4.869511
1008.289062,-7.797906,-11.977043,-7.477407,-5.289759
1008.292969,-11.130383,-5.393211,-9.902038,-9.325270
1008.296875,-2.788159,-7.166285,-1.788363,-4.118047
1008.300781,3.216363,-1.622027,-3.340712,3.067977
1008.304688,1.590862,0.126729,-0.865828,5.827189
1008.308594,0.738823,3.716763,0.232183,0.509044
1008.312500,0.679554,1.059468,-2.318184,7.649641
1008.316406,4.010035,5.953519,6.143829,11.074252
1008.320312,7.414273,10.751306,6.328605,13.918910
1008.324219,11.604624,6.612990,3.515469,17.194719
1008.328125,10.331385,6.252152,17.776328,9.339634
1008.332031,10.900670,7.911006,8.674022,1.756427
1008.335938,6.317212,1.089993,6.665184,11.859036
1008.339844,3.410637,10.877017,5.645240,3.162379
1008.343750,0.443629,5.914694,4.463261,1.532184
1008.347656,3.073857,4.105040,-0.111876,-0.241153
1008.351562,-1.856102,0.257781,-1.147970,-2.147062
1008.355469,-8.482317,-3.486046,1.203079,0.131940
1008.359375,5.278241,-6.028615,-1.463644,-2.156704
1008.363281,-7.590242,-3.790536,-4.716613,-5.254544
1008.367188,-10.981425,-12.986030,-12.368730,-14.072258
1008.371094,-9.736016,-11.059898,-11.816633,-9.558019
1008.375000,-5.491695,-19.296795,-10.219130,-14.358301
1008.378906,-5.819554,-8.721007,-16.675845,-10.452741
1008.382812,-5.726590,-10.705240,-8.820547,-9.773604
1008.386719,-8.385517,-9.657140,-7.046983,-11.869768
1008.390625,0.682485,-1.025424,-5.714917,-7.115326
1008.394531,-6.864081,-2.317607,-4.723998,-5.563415
1008.398438,4.649103,3.390682,0.035129,-6.521622
1008.402344,-6.053149,2.645894,8.468145,5.138418
1008.406250,3.590645,0.059029,3.816202,-0.027095
1008.410156,7.314512,4.362556,4.523411,-0.365874
1008.414062,7.575742,10.037819,6.077363,2.067618
1008.417969,10.960166,10.915363,8.349025,8.454114
1008.421875,10.594078,13.106018,10.461934,4.718593
1008.425781,8.813908,8.668390,14.789522,7.459607
1008.429688,11.868483,12.373781,6.735036,11.703145
1008.433594,14.688024,7.995462,10.835711,4.347110
1008.437500,9.963487,7.519802,1.298414,12.905457
1008.441406,7.726046,5.782051,8.929228,3.936604
1008.445312,3.595855,8.111970,6.729327,7.934316
1008.449219,-5.113450,5.254501,-1.730218,-1.140988
1008.453125,1.975782,-2.038453,-2.938307,-6.586496
1008.457031,-9.727543,-0.491722,-7.206098,-1.235893
1008.460938,-10.004711,-5.571602,-10.013761,-2.389902
1008.464844,-4.782081,-13.297554,-4.278452,-7.813395
1008.468750,-5.897438,-7.118120,-11.442337,-12.235552
1008.472656,-11.966577,-14.957072,-11.051573,-1.464945
1008.476562,-5.131635,-4.866505,-12.710201,-11.914904
1008.480469,-2.224688,-9.126071,-10.486233,-5.069064
1008.484375,-6.048976,-13.111171,-5.306367,-7.027249
1008.488281,-6.204461,-2.051878,-15.613563,0.421936
1008.492188,-6.065129,-6.473219,-7.423238,2.188086
1008.496094,-6.704605,-10.380046,1.352125,0.379761
1008.500000,0.914366,-6.190643,-0.018348,-0.168725
1008.503906,1.844001,-0.202025,0.573733,6.953813
1008.507812,2.835971,4.092887,-2.880401,2.082822
1008.511719,12.210592,0.376525,13.921366,1.799547
1008.515625,6.569823,7.681386,9.617740,8.475654
1008.519531,10.892910,13.519015,6.438318,8.740983
1008.523438,11.963145,8.207654,9.621372,10.874457
1008.527344,7.015761,9.891525,13.069116,15.226224
1008.531250,11.880397,8.764244,4.720087,13.352367
1008.535156,7.738366,6.836482,4.106443,7.670585
1008.539062,2.050709,5.745390,1.069555,12.546563
1008.542969,-5.209357,5.350621,1.797622,14.932431
1008.546875,1.501742,1.634104,6.196665,2.140894
1008.550781,1.847880,0.892556,-2.139845,-1.492182
1008.554688,-2.967844,3.489883,-2.013907,-8.639759
1008.558594,-4.949752,-5.959245,-5.004298,-7.079293
1008.562500,-12.990368,-8.669491,-11.747225,-8.675205
1008.566406,-11.245994,-8.834166,-10.880456,-4.911854
1008.570312,-6.799170,-11.713779,-4.848399,-8.763674
1008.574219,-19.303911,-15.914216,-9.268221,-6.910615
1008.578125,-8.597419,-9.046579,-8.129245,-15.042073
1008.582031,-6.455630,-7.403245,-14.865851,-13.491490
1008.585938,-8.054135,-11.345453,4.381953,-12.150900
1008.589844,-7.825801,0.171721,-6.067033,-3.084857
1008.593750,-0.651200,-5.824619,-2.269401,-1.490089
1008.597656,1.020461,-2.294184,-7.013174,3.145486
1008.601562,0.282630,5.146281,-1.586272,1.641260
1008.605469,6.330863,8.122479,3.049248,8.820694
1008.609375,3.753797,9.023461,5.312563,5.672111
1008.613281,9.420786,2.196875,9.122110,5.692757
1008.617188,9.787632,8.775663,11.850006,10.627444
1008.621094,9.590271,13.364541,4.496993,9.540989
1008.625000,10.189464,9.693619,2.539640,4.739343
1008.628906,7.785835,6.206221,14.085816,14.452905
1008.632812,3.819178,9.047272,13.612679,10.509165
1008.636719,7.183285,11.639154,10.759842,14.509033
1008.640625,5.784125,5.802668,4.813300,-5.608998
1008.644531,7.493122,10.729118,8.823488,0.589129
1008.648438,3.519188,0.113973,0.057870,-3.491389
1008.652344,4.168510,-4.124114,-1.707930,-0.143332
1008.656250,-11.268295,-2.991797,-2.434439,-3.584461
1008.660156,-3.778264,-4.396099,-5.345481,-7.755862
1008.664062,-6.344326,-3.398733,-12.279788,-7.464485
1008.667969,-8.939035,-9.109926,-7.241283,-18.830719
1008.671875,-7.413835,-18.536954,-6.021053,-12.502813
1008.675781,-17.811384,-8.119184,-14.590955,-5.420855
1008.679688,-13.714425,-17.808123,-5.791398,-4.065728
1008.683594,-17.645508,-8.738462,-9.932294,-5.661712
1008.687500,-13.575168,-8.678977,0.808459,-5.851836
1008.691406,-1.799460,0.118440,1.144137,-7.203037
1008.695312,-3.913845,0.225287,-2.982997,-2.847158
1008.699219,2.818802,-11.672052,0.585138,6.599114
1008.703125,-0.762335,6.948428,3.765078,1.342286
1008.707031,6.479689,0.168585,4.296970,3.093576
1008.710938,6.881261,5.497313,6.442188,1.228074
1008.714844,3.415338,-1.905830,1.745649,8.698032
1008.718750,9.640032,7.285001,8.991804,2.871951
1008.722656,6.832578,4.438977,8.890889,8.472074
1008.726562,11.053592,6.373291,10.460721,12.241670
1008.730469,4.462407,8.562937,3.037921,7.570968
1008.734375,18.389799,4.473516,13.373638,20.023213
1008.738281,2.995189,4.354631,18.444001,10.996921
1008.742188,5.469809,-4.776825,10.732211,1.092724
1008.746094,-1.747215,6.884522,-4.449575,-2.905067
1008.750000,-3.496859,-1.540307,-0.382175,-0.389606
1008.753906,-1.042233,-1.310865,-0.777085,-1.214999
1008.757812,-2.771593,-5.163512,-3.982193,-8.199623
1008.761719,-2.605863,-4.354759,-7.266970,0.639792
1008.765625,-17.634217,-7.906508,-11.077464,-13.651974
1008.769531,-10.922322,-5.166987,-13.833111,-9.028070
1008.773438,-14.256045,-12.753277,-13.216425,-5.792427
1008.777344,-7.358210,-9.414905,-13.515619,-15.355644
1008.781250,-4.090230,-6.795366,-8.540125,-6.144005
1008.785156,-11.998156,-10.382077,-4.375708,-8.346108
1008.789062,0.624532,-4.732103,-8.272135,-7.031400
1008.792969,-3.858067,-7.922492,1.580029,1.634466
1008.796875,-1.624899,2.304028,1.438270,-10.525257
1008.800781,-1.426510,1.463124,0.201152,-1.940028
1008.804688,-0.164423,1.915160,-0.102994,2.584458
1008.808594,2.413199,8.018436,2.759845,2.338128
1008.812500,10.161649,5.967102,2.959234,9.749400
1008.816406,18.891882,8.299826,10.428171,3.125622
1008.820312,15.685402,13.873983,4.275968,4.523474
1008.824219,13.230454,14.240218,12.946500,7.445389
1008.828125,18.354300,11.955931,8.403504,2.542469
1008.832031,6.738413,7.959517,7.052029,13.042322
1008.835938,10.726651,13.144887,3.874185,3.989282
1008.839844,3.305160,5.497704,9.103778,11.938740
1008.843750,4.444478,4.662124,5.790607,5.465536
1008.847656,7.857421,-3.247878,-7.716851,6.531011
1008.851562,-8.180573,-3.320017,7.353672,-3.451393
1008.855469,-2.776428,-8.221074,-0.337572,-14.819959
1008.859375,-1.762659,-12.548268,-1.574455,-6.103546
1008.863281,-4.343299,-10.233787,-7.388719,-8.411599
1008.867188,-9.166061,-7.421391,-0.503842,-5.760931
1008.871094,-8.819619,-11.875869,-11.127026,-10.346104
1008.875000,-9.885422,-7.630790,-1.872339,-9.408441
1008.878906,-8.246554,-6.900008,-8.199766,-9.784475
1008.882812,-16.858615,-8.673797,-8.540050,-8.173636
1008.886719,-4.020125,-5.825494,-7.505391,-6.170704
1008.890625,-12.130131,1.959161,-8.863298,-2.440289
1008.894531,-3.637912,-10.084185,-7.638593,-3.711879
1008.898438,-6.216979,-0.546328,0.410369,2.667088
1008.902344,-5.466213,-2.091082,10.224864,0.982943
1008.906250,5.822848,0.729633,3.858048,3.140582
1008.910156,3.766569,5.425918,3.580424,1.286954
1008.914062,5.142832,7.099625,4.101469,6.261054
1008.917969,3.772928,1.281464,9.325854,13.317943
1008.921875,11.863335,7.144185,14.455883,13.409511
1008.925781,7.656118,10.780283,10.179179,5.815124
1008.929688,9.334702,5.436666,10.404798,11.000760
1008.933594,11.142544,5.724975,6.644170,3.600016
1008.937500,11.392315,6.867069,14.195360,2.541037
1008.941406,4.797698,4.197768,-0.377330,3.986716
1008.945312,-0.155069,-0.216296,1.973242,5.999352
1008.949219,3.323641,-8.267518,4.990591,0.177888
1008.953125,-0.888219,-7.012573,-1.709375,2.130616
1008.957031,-8.241208,-8.555972,-3.804905,-5.748079
1008.960938,-3.765893,-6.328351,-13.606383,-9.102717
1008.964844,-4.348325,-2.888421,-3.548615,-7.677542
1008.968750,-11.716181,-5.833456,-13.061092,-14.346169
1008.972656,-10.331286,-12.816671,-7.509037,-11.183346
1008.976562,-10.117875,-3.164806,-4.935522,-11.449679
1008.980469,-13.749888,-10.574555,-11.282157,-6.500970
1008.984375,-11.606153,-3.621061,-2.509676,-7.357223
1008.988281,3.383109,-12.241143,-8.497188,-11.439413
1008.992188,-0.012590,-3.967648,-13.189163,-5.930166
1008.996094,-8.191334,2.544473,2.642470,-0.378017
1009.000000,-1.110726,-0.224324,2.266957,6.409530
1009.003906,-1.570981,0.748559,2.103380,4.933014
1009.007812,0.071485,3.028340,6.620715,7.519941
1009.011719,11.264607,8.152602,7.584967,7.258637
1009.015625,0.784435,12.075502,4.703839,8.490717
1009.019531,10.389047,11.798281,10.070339,8.422824
1009.023438,15.690272,7.794355,16.886346,13.076123
1009.027344,7.314009,9.957447,17.668662,7.195749
1009.031250,9.514627,6.645229,11.529057,13.222236
1009.035156,12.402059,11.118384,11.795454,8.948387
1009.039062,6.119053,3.065925,7.420650,5.231839
1009.042969,5.480971,7.607491,2.839509,1.142505
1009.046875,0.755318,5.760240,3.131110,2.015888
1009.050781,-2.733092,6.597340,-2.066425,-0.835086
1009.054688,-2.054269,-3.571736,-12.750370,-4.425690
1009.058594,-5.362932,-0.750111,-9.233494,-5.503984
1009.062500,-12.256182,0.828389,-10.168878,-7.594648
1009.066406,-8.608718,-6.382069,-9.366305,-2.766849
1009.070312,-12.758010,-9.420856,-7.590290,-15.161854
1009.074219,-4.805243,-6.863880,-11.906809,-13.190259
1009.078125,-17.490441,-9.512603,-10.372121,-10.336348
1009.082031,-8.986316,-14.656465,-7.748458,-6.830366
1009.085938,-10.165238,-10.362356,-13.549373,-10.708276
1009.089844,-2.240169,-8.436323,-4.687343,-7.936338
1009.093750,0.095679,-2.922386,2.094733,-5.055389
1009.097656,0.935752,1.679202,-8.385668,-5.606488
1009.101562,-7.201344,-1.882445,-1.702097,5.401325
1009.105469,5.908007,-1.994388,2.143734,8.619449
1009.109375,10.740191,9.923120,-0.017646,7.014909
1009.113281,10.969399,7.580164,17.842684,6.153242
1009.117188,13.300936,-1.846346,7.586412,5.329217
1009.121094,8.315214,15.091525,10.900317,10.292217
1009.125000,10.984265,11.472995,15.560020,4.647800
1009.128906,11.713589,11.739029,9.565574,8.652676
1009.132812,5.388909,9.937098,7.226641,10.584889
1009.136719,10.919832,5.922527,0.952600,7.298678
1009.140625,6.330837,1.232938,7.787266,7.750477
1009.144531,8.710070,9.322638,7.012054,2.702382
1009.148438,0.655744,3.223617,0.162413,6.245182
1009.152344,-8.094059,3.559154,-1.432573,2.754726
1009.156250,-6.179682,-5.211149,-2.630922,3.553915
1009.160156,-2.934892,-1.356746,-10.207971,-6.430947
1009.164062,-6.089460,-3.865181,-12.255006,-14.146155
1009.167969,-10.498763,-9.961298,-5.432913,-5.090245
1009.171875,-13.327147,-3.574449,-17.611420,-15.195245
1009.175781,-8.111388,-5.393123,-5.549116,-12.399757
1009.179688,-13.896447,-7.520991,-3.784155,-10.561420
1009.183594,-8.024477,-8.924373,-1.428400,-3.498131
