timestamp,TP9,AF7,AF8,TP10
1000.000000,-5.929329,2.076520,-1.155759,8.786855
1000.003906,-6.701150,2.389606,0.420812,-0.657778
1000.007812,9.540062,4.370743,4.717381,11.769389
1000.011719,7.751383,5.450082,7.649547,5.077588
1000.015625,5.064351,1.456281,6.211495,7.816156
1000.019531,11.723247,3.686066,11.908060,2.612347
1000.023438,8.788316,5.587533,18.873301,19.824463
1000.027344,11.645811,6.305148,18.123767,13.549959
1000.031250,4.502068,12.703458,11.629446,3.219152
1000.035156,-1.119466,9.864203,4.498193,14.618697
1000.039062,9.702734,6.397505,11.035698,6.684021
1000.042969,-1.577051,3.607511,6.248016,1.013497
1000.046875,7.069533,2.647625,2.822357,-2.644558
1000.050781,-2.235526,-4.987545,-2.441848,-2.976859
1000.054688,3.144591,-1.116737,-3.761721,-3.729489
1000.058594,-3.043944,-6.637661,-5.020018,-3.597314
1000.062500,-9.578081,-3.825040,-3.330589,-11.615009
1000.066406,-5.318147,-3.681340,-7.812699,-8.900521
1000.070312,-9.354358,-7.827745,-18.500462,-7.667957
1000.074219,-8.814237,-3.638186,-17.314140,-14.719360
1000.078125,-14.114830,-8.900447,-11.700203,-4.783683
1000.082031,-5.184186,-14.398513,-9.118248,-15.153292
1000.085938,-5.612433,-8.715664,-6.342406,-10.046024
1000.089844,-5.043300,-6.694660,-4.224210,-9.877711
1000.093750,-2.217925,-9.691289,-9.118530,1.162493
1000.097656,0.403510,-4.083316,-3.058524,2.802754
1000.101562,-3.786539,5.778620,-1.929461,0.339446
1000.105469,-2.512832,6.219990,4.942025,5.536069
1000.109375,6.370195,8.963219,0.691739,6.495449
1000.113281,9.615376,5.053418,0.137176,10.147174
1000.117188,9.762154,4.551880,14.804171,7.171271
1000.121094,14.338283,4.236858,8.950187,5.938002
1000.125000,9.607820,8.088602,8.365438,8.446388
1000.128906,11.795236,12.229906,8.479317,10.186688
1000.132812,9.609316,1.378388,12.664944,9.225053
1000.136719,7.255680,5.017113,9.802815,6.697980
1000.140625,7.068449,10.750644,1.360686,9.440470
1000.144531,10.456791,7.929847,-4.796834,6.939994
1000.148438,4.398076,-0.125345,-0.491499,0.957618
1000.152344,-5.256118,2.445234,1.982310,-3.952133
1000.156250,-7.118166,-2.833161,-3.121166,-2.758528
1000.160156,-2.058466,-4.684314,-3.435568,-3.372655
1000.164062,-7.679566,-4.714612,-12.743552,-9.048165
1000.167969,-11.585478,-12.824024,0.668894,-3.266283
1000.171875,-9.194387,-8.266559,-8.929868,-7.777182
1000.175781,-8.683817,-5.785768,-8.778901,-10.004097
1000.179688,-1.439482,-5.391233,-7.831935,-14.327053
1000.183594,-16.320822,-8.738394,-9.186089,-13.372215
1000.187500,-2.704974,-6.099117,2.415115,-7.203625
1000.191406,0.252926,0.153866,-7.167113,-0.533436
1000.195312,-1.934765,-5.378113,-4.780294,-5.671907
1000.199219,-2.504231,1.676687,1.842710,4.424884
1000.203125,0.929468,6.747132,5.540690,1.449796
1000.207031,6.649500,5.109024,3.024280,1.247606
1000.210938,4.224665,9.820346,-2.567349,7.786188
1000.214844,4.114437,9.132475,5.438867,5.622594
1000.218750,0.775186,11.274919,11.227272,12.846546
1000.222656,5.810476,8.692883,15.604945,13.856024
1000.226562,8.277892,7.808904,9.517885,8.873891
1000.230469,10.688749,11.128434,10.032806,10.725849
1000.234375,10.241681,6.278760,9.478294,0.088795
1000.238281,12.468401,12.416690,1.091475,9.474607
1000.242188,3.475016,6.995144,2.393564,6.302538
1000.246094,5.025271,4.402802,5.449530,2.184192
1000.250000,2.818805,-3.180125,2.779722,-3.293555
1000.253906,3.231716,-2.551334,-0.673848,-1.308606
1000.257812,-0.926153,-3.246566,-12.463368,-6.567034
1000.261719,-4.164352,-7.439877,-5.629071,-11.240404
1000.265625,-7.644964,-6.545610,-9.704678,-2.836527
1000.269531,-11.099895,-9.345359,-14.602916,-9.711516
1000.273438,-8.041029,-13.936733,-12.958324,-10.559138
1000.277344,-11.512149,-7.137865,-12.173584,-11.432247
1000.281250,-1.023095,-10.697498,-15.440532,-14.577485
1000.285156,-7.485931,-14.103110,-7.792595,-5.906029
1000.289062,-7.083801,-9.040131,-3.581293,-3.736491
1000.292969,-2.381812,-2.095260,-5.369021,-8.414546
1000.296875,3.000207,-0.635126,-2.000409,1.726591
1000.300781,-0.766690,-4.378480,-0.578778,0.269761
1000.304688,6.783853,5.973367,10.047146,-9.450711
1000.308594,15.373733,5.748188,-0.482293,-3.997835
1000.312500,10.300989,6.960564,9.483527,3.698208
1000.316406,1.239608,7.694542,8.875187,6.702030
1000.320312,5.325421,13.834090,7.912900,8.563504
1000.324219,11.089102,9.311072,12.503042,11.921708
1000.328125,3.914623,15.075533,5.054209,6.746163
1000.332031,8.303456,14.761186,9.059000,15.251646
1000.335938,10.577967,10.795138,10.740774,2.568245
1000.339844,8.779420,6.871144,2.629214,10.833804
1000.343750,4.915163,1.812618,-0.812062,-2.291035
1000.347656,5.630342,1.723673,-0.843552,0.135952
1000.351562,0.235682,-9.918307,1.962988,0.133893
1000.355469,-5.628493,-6.844897,-3.624475,-6.358851
1000.359375,-4.218263,-7.664681,-11.868604,-9.861167
1000.363281,-9.249003,-3.680425,-8.271912,-7.895052
1000.367188,-3.253508,-8.526613,-9.860681,-11.288573
1000.371094,-13.754731,-2.749532,-8.157629,-11.915621
1000.375000,-9.936874,-18.697849,-7.666431,-8.032119
1000.378906,-9.459878,-8.794268,-8.356737,-11.419148
1000.382812,-11.860244,-8.222155,-4.980252,-11.739786
1000.386719,-8.598579,-9.462592,-12.008186,-4.397934
1000.390625,-11.410656,-1.825533,-3.886524,-5.698289
1000.394531,1.716287,-3.636398,10.679235,1.873574
1000.398438,1.734014,2.259037,-2.954438,1.876328
1000.402344,2.459517,0.315011,2.349244,7.970686
1000.406250,3.188054,5.152953,7.059839,5.548268
1000.410156,6.763116,9.349035,1.168208,5.329673
1000.414062,8.889550,6.273087,5.628024,9.203630
1000.417969,4.387536,2.932195,5.937638,7.949402
1000.421875,15.091607,8.372374,3.123323,10.586128
1000.425781,7.612006,11.941534,19.665214,12.114113
1000.429688,9.109425,9.218365,8.154068,8.908075
1000.433594,8.880228,13.079288,8.266499,9.529224
1000.437500,2.346826,3.724730,10.510575,11.532394
1000.441406,3.183604,4.174121,2.255211,2.321516
1000.445312,2.640262,0.969950,1.987220,4.937614
1000.449219,-2.885045,-4.216866,4.080578,1.494138
1000.453125,-6.009926,-1.222996,-0.962416,-8.468146
1000.457031,-5.345316,-11.666406,-5.054417,-12.002037
1000.460938,-5.489796,-5.105828,-10.106986,0.296542
1000.464844,-6.970150,-13.080427,-5.870654,-14.147449
1000.468750,-14.621670,-7.749277,-8.268502,-9.471490
1000.472656,-12.407036,-10.146009,-13.972802,-9.953087
1000.476562,-11.654501,-12.020477,-13.491130,-19.567863
1000.480469,-5.914656,-18.746693,-12.557501,-9.339390
1000.484375,-3.472096,-13.171393,-7.957161,-5.752571
1000.488281,-10.952743,-3.685938,-12.292562,-1.645356
1000.492188,-5.251100,-0.657355,0.545953,-9.458566
1000.496094,-1.361222,-0.409368,-1.880691,-2.156462
1000.500000,2.128770,0.302158,-9.017929,2.146064
1000.503906,8.898936,-3.786605,6.658737,6.577539
1000.507812,3.296548,3.795459,7.114003,10.340926
1000.511719,4.591039,7.320791,2.586542,7.019148
1000.515625,6.666967,4.101226,-0.544966,13.632577
1000.519531,8.473276,8.601331,9.134322,9.036468
1000.523438,9.347953,10.152324,12.822563,8.457051
1000.527344,8.373614,11.158306,12.359252,3.542000
1000.531250,10.052252,8.605291,10.219331,5.105834
1000.535156,5.306206,10.837751,6.761296,13.813350
1000.539062,7.944444,7.676124,2.636424,6.909994
1000.542969,9.193838,6.280116,6.724767,6.210142
1000.546875,8.618252,7.819780,2.186518,4.160288
1000.550781,2.294943,0.549667,8.761209,5.983217
1000.554688,-5.965976,-2.461773,-5.932552,-1.078650
1000.558594,-4.797819,-6.853350,-3.347405,-8.169651
1000.562500,-5.751383,-4.207383,-7.140977,-8.480758
1000.566406,-3.810075,-18.217073,-15.115486,-5.919896
1000.570312,-7.717779,-6.390053,-8.912896,-10.454582
1000.574219,-5.820262,-11.733155,-8.847324,-15.353610
1000.578125,-6.412774,-8.971690,-11.705755,-9.724927
1000.582031,-9.583323,-9.378247,-6.784955,-4.048534
1000.585938,-7.251071,-9.580328,-7.133156,-15.436719
1000.589844,-3.365716,-11.313470,-9.019260,-7.472477
1000.593750,-3.011370,-5.877085,-4.762663,-3.170582
1000.597656,-4.132149,-7.677245,0.585186,-6.227264
1000.601562,-0.551979,-4.339554,-4.484453,5.474183
1000.605469,6.810123,-3.651078,-2.602343,0.179764
1000.609375,11.486373,1.721621,10.661199,-1.004780
1000.613281,1.809378,6.523022,4.058255,15.626121
1000.617188,8.031790,1.876305,10.512127,14.910730
1000.621094,11.287589,4.676723,1.218145,8.688141
1000.625000,4.793135,10.298802,11.594353,13.327532
1000.628906,12.300986,16.762453,9.085868,10.662426
1000.632812,9.869016,11.563138,13.096218,11.779636
1000.636719,11.580994,11.066654,8.817404,2.915922
1000.640625,10.910647,9.406079,2.965862,-1.498714
1000.644531,2.024069,9.564792,4.098368,3.960584
1000.648438,4.424410,3.033171,1.310192,2.599648
1000.652344,0.808512,2.729425,1.270961,-1.587734
1000.656250,-2.854629,-3.176107,-0.387152,-4.429579
1000.660156,-8.116894,-7.270056,-6.105773,-5.878566
1000.664062,-5.664262,-5.340481,-15.062145,-5.767739
1000.667969,-8.695422,-4.112524,-12.648830,-8.860327
1000.671875,-2.747029,-12.854168,-4.973321,-13.692750
1000.675781,-15.985408,-6.676039,-4.380824,-6.799791
1000.679688,-12.880346,-3.722677,-14.632292,-8.342900
1000.683594,-11.243175,-14.079502,-8.488401,-2.625072
1000.687500,-8.117800,-7.815468,-10.773713,-1.391304
1000.691406,-5.620981,-10.142454,-3.141365,-5.960877
1000.695312,3.362812,-9.555667,2.135324,0.112742
1000.699219,-5.710631,-5.411262,2.120513,-3.509908
1000.703125,0.935475,-0.401749,3.644183,0.497478
1000.707031,3.343458,1.962866,2.661313,-1.351656
1000.710938,14.102153,0.498875,9.877401,12.051859
1000.714844,10.095929,9.368745,10.276106,15.354047
1000.718750,15.539222,6.578598,4.429485,4.926356
1000.722656,16.808598,14.543275,16.393454,14.393823
1000.726562,3.865791,12.470006,0.211400,8.753416
1000.730469,15.549037,11.282142,7.741780,7.796276
1000.734375,5.623694,15.206748,14.482678,13.090540
1000.738281,9.633075,0.499157,11.029621,6.196088
1000.742188,1.794690,7.390301,0.999924,3.892711
1000.746094,5.422666,-6.629891,8.401714,2.929294
1000.750000,-5.025630,6.727524,3.387594,1.231018
1000.753906,6.875290,-2.965537,-2.545670,3.026863
1000.757812,-1.573395,-0.579274,-0.943759,-6.022679
1000.761719,-12.206048,-4.168157,-4.669167,-5.957903
1000.765625,-5.125178,-7.992720,-8.819640,-6.664684
1000.769531,-11.795541,-9.481172,-14.266690,-9.198317
1000.773438,-9.493923,-14.141673,-6.025462,-17.274229
1000.777344,-14.714360,-13.918929,-6.193261,-1.827588
1000.781250,-10.798602,-11.360310,-6.975999,-14.225704
1000.785156,-10.656318,-12.461852,-5.385274,-7.250507
1000.789062,-4.094326,-3.430367,-5.973023,-6.097910
1000.792969,-1.752639,-5.581703,-3.410121,-1.270809
1000.796875,-0.742435,-6.694417,-0.720314,-1.527911
1000.800781,2.607303,3.966096,-1.026391,-11.050464
1000.804688,0.534909,4.381810,1.502131,3.768495
1000.808594,3.398116,5.283974,6.183579,4.135430
1000.812500,5.490564,9.086306,1.014532,1.871023
1000.816406,7.837317,15.335989,14.106330,5.999449
1000.820312,6.104509,13.045927,10.856974,14.172678
1000.824219,12.107791,6.028835,12.174270,10.128080
1000.828125,5.466721,4.145488,11.218857,13.957372
1000.832031,9.717168,5.021719,15.061152,9.353372
1000.835938,6.130493,17.302345,5.092154,7.317073
1000.839844,0.628018,2.728863,3.758811,9.435736
1000.843750,8.563344,9.873891,0.085050,8.150477
1000.847656,5.044191,2.531891,3.192614,-1.699515
1000.851562,1.335173,-3.017384,3.707208,0.062892
1000.855469,-4.389865,1.597721,-6.399390,-6.059571
1000.859375,-9.525149,-4.692148,-8.759190,-2.178095
1000.863281,-11.495496,-1.887503,-7.449093,-6.908359
1000.867188,-2.990841,-11.120230,-9.068211,-8.539435
1000.871094,-11.520938,-1.700075,-11.845789,-10.020917
1000.875000,-12.405424,-11.647931,-9.860943,-4.514832
1000.878906,1.703118,-2.803585,-12.571872,-14.336802
1000.882812,-3.914474,-12.504061,-7.990702,-12.960526
1000.886719,1.639075,-4.566111,-5.664698,-3.192474
1000.890625,-11.263505,-8.401359,-4.396502,-3.432374
1000.894531,0.421214,-5.088659,-2.506757,-5.019384
1000.898438,-10.923389,-7.113132,-8.801230,1.130723
1000.902344,-3.877796,4.602238,-0.214585,5.766378
1000.906250,-0.811964,3.691758,0.664343,0.282637
1000.910156,4.957998,13.120161,2.304040,11.287853
1000.914062,4.957654,8.383614,1.583543,2.289546
1000.917969,4.970044,4.129047,15.333537,8.329032
1000.921875,3.635533,9.632028,14.714532,11.435107
1000.925781,11.273031,8.411006,6.410531,11.415975
1000.929688,15.642680,14.435574,7.155883,4.867868
1000.933594,4.456770,9.253142,13.561236,4.264276
1000.937500,1.418923,3.509866,8.735444,8.752187
1000.941406,5.183564,-0.213719,2.708164,-2.307107
1000.945312,0.727429,-4.338239,3.857903,6.081940
1000.949219,-0.344062,1.384062,-1.979815,-2.350810
1000.953125,-2.453677,-7.703179,6.587176,0.243193
1000.957031,-4.394979,-4.339978,-7.264681,-5.272858
1000.960938,2.464814,-2.959487,-6.880591,-5.563904
1000.964844,-7.006784,-3.319860,-2.320543,-8.551613
1000.968750,-10.571624,-7.671124,-2.205486,-6.905203
1000.972656,-14.068656,-11.209688,-11.878686,-7.188776
1000.976562,-11.156854,-8.679849,1.877230,-10.750792
1000.980469,-10.965914,-10.944255,-10.985650,-8.866487
1000.984375,-1.979665,-7.225985,-9.107858,-10.396196
1000.988281,-6.991665,-13.698001,-1.670632,-7.215585
1000.992188,-5.288386,-2.930157,-7.096223,-8.646400
1000.996094,0.776666,3.477734,-2.941966,-1.552078
1001.000000,-6.872987,-2.532038,-0.633829,0.049659
1001.003906,3.263995,-5.393803,-4.574508,-2.573012
1001.007812,10.898076,-0.348773,4.099214,4.182524
1001.011719,9.629049,6.888825,9.667143,10.141385
1001.015625,4.959650,4.137966,14.308622,6.380274
1001.019531,11.550847,7.619418,5.361726,10.833980
1001.023438,6.138419,4.531296,9.352793,9.857114
1001.027344,6.818569,15.866678,16.780860,10.004033
1001.031250,12.780429,9.185892,10.113893,12.951916
1001.035156,9.641907,9.581294,12.868319,10.413454
1001.039062,11.755190,9.796070,1.247382,2.034060
1001.042969,4.944094,6.056271,3.990704,11.304042
1001.046875,1.829378,1.638525,1.248086,4.716777
1001.050781,-2.488827,2.287059,0.566228,-0.804661
1001.054688,-3.356870,-3.296435,-2.134815,1.826000
1001.058594,-2.125277,-14.236325,-0.241550,-12.437955
1001.062500,-2.169779,-3.117081,-11.007134,-8.786001
1001.066406,-10.555968,-9.585652,-6.463463,-4.789852
1001.070312,-9.984179,-6.230182,-15.864346,-7.840780
1001.074219,-8.875411,-7.435169,-14.105044,-11.098264
1001.078125,-11.657220,-5.992168,-5.046485,-16.675462
1001.082031,-4.752570,-13.099904,-9.482399,-8.584341
1001.085938,-6.573415,-6.939782,-6.450215,-13.311849
1001.089844,-6.545422,-9.045106,-5.748360,-1.084667
1001.093750,-6.260321,-5.317376,-6.370857,-2.441634
1001.097656,0.605869,-0.381778,-11.847950,-2.587483
1001.101562,-2.196876,-2.075340,5.853151,0.484284
1001.105469,7.765106,4.947950,-2.071581,-1.360148
1001.109375,4.229951,0.873178,5.933590,5.531714
1001.113281,8.748349,7.991928,3.886797,4.594999
1001.117188,14.515517,5.823429,5.018968,5.548335
1001.121094,13.457793,9.270120,8.974834,10.465268
1001.125000,8.791274,8.464830,10.679817,10.215887
1001.128906,8.889037,9.904189,18.321894,12.104616
1001.132812,7.323092,13.097369,4.481997,10.969493
1001.136719,7.100089,13.335233,9.254741,4.280901
1001.140625,7.773339,8.024060,8.426105,9.466558
1001.144531,2.910706,8.454037,0.918092,-1.139722
1001.148438,-2.290735,1.135455,-6.007728,3.029234
1001.152344,3.670816,0.916358,-1.789177,-2.925588
1001.156250,-12.026433,-11.067804,0.763632,-1.035687
1001.160156,-10.355803,-7.747645,-3.290848,-6.168983
1001.164062,-7.741774,-9.277337,-5.218231,-8.221561
1001.167969,-6.781237,-12.915484,-15.822789,-10.443960
1001.171875,-8.113717,-8.814074,-11.754844,-8.618932
1001.175781,-12.008894,-2.115652,-7.683979,-8.713929
1001.179688,-7.202671,-6.584578,-10.394935,-6.086018
1001.183594,-9.081953,-5.304906,-9.323352,-16.205727
1001.187500,-5.974488,-7.604425,-11.585051,-10.285212
1001.191406,-6.324822,-6.474465,-4.168708,-1.838351
1001.195312,-5.550927,-0.154585,-2.368655,-3.111190
1001.199219,-1.875485,-5.205083,1.909852,-1.962751
1001.203125,-0.851606,5.211066,5.578421,6.589470
1001.207031,8.101725,1.656886,-0.431590,4.013275
1001.210938,6.313507,-0.663039,7.076931,6.163381
1001.214844,8.535273,14.850251,9.735341,7.142035
1001.218750,8.910495,11.613902,9.099382,9.049059
1001.222656,9.361779,12.093946,20.194648,15.055247
1001.226562,6.585006,13.973378,10.206820,11.072182
1001.230469,7.084477,6.710692,2.169298,15.177517
1001.234375,13.277820,15.053942,5.765789,7.716193
1001.238281,-1.210359,18.741938,3.477699,5.811450
1001.242188,7.393755,7.541027,10.114507,5.604433
1001.246094,0.384514,3.682634,1.728113,-1.957503
1001.250000,6.186855,2.526000,-0.762787,1.758227
1001.253906,-1.380256,-2.770632,-0.345337,-5.485750
1001.257812,-3.010346,0.308606,-2.015025,-3.314765
1001.261719,-5.370508,-3.942941,-5.432109,-2.496382
1001.265625,-1.829767,-7.872853,-4.818128,-4.351713
1001.269531,-13.943121,-9.758575,-16.201163,-11.774033
1001.273438,-6.567616,-12.199013,-4.059119,-14.216661
1001.277344,-11.463696,-8.161591,-16.172003,-8.697937
1001.281250,-9.406815,-10.636720,-11.026899,-6.861491
1001.285156,-4.421589,-6.341136,-10.488888,-15.129986
1001.289062,-2.452687,-1.422280,-0.015258,-10.364665
1001.292969,2.025599,-9.870702,1.905196,-2.790520
1001.296875,-5.924370,6.208722,-3.235576,-8.246446
1001.300781,-5.154027,2.499685,-3.088008,0.950799
1001.304688,6.665181,3.369757,5.731483,-2.979391
1001.308594,3.146699,2.551127,7.330938,3.492065
1001.312500,9.071661,9.234799,12.932920,1.819000
1001.316406,6.332351,-3.016936,11.732906,10.205513
1001.320312,10.802861,17.224756,11.290636,0.813014
1001.324219,15.387338,11.276905,11.884920,16.274645
1001.328125,13.282222,10.984113,6.820196,12.508804
1001.332031,6.948120,5.430051,12.754183,1.947070
1001.335938,7.642527,13.389174,6.621413,8.152481
1001.339844,7.161015,4.490398,7.310152,8.685788
1001.343750,2.228475,4.485926,3.290272,4.555617
1001.347656,5.206346,4.412735,1.932653,-0.274781
1001.351562,-7.008578,-1.852220,-1.054015,-4.106653
1001.355469,-4.498547,-4.550718,3.435008,-1.440326
1001.359375,-8.639658,-7.526879,-18.551472,-8.787649
1001.363281,-1.159072,-13.664199,-11.564006,-6.011344
1001.367188,-8.310382,-13.992739,-13.668415,-2.452348
1001.371094,-8.204536,-3.725335,-11.790012,-5.332400
1001.375000,-19.780298,-12.514982,-8.121098,-16.039951
1001.378906,-6.029698,-14.207601,-13.258095,-8.538063
1001.382812,-2.409941,-5.714723,-15.697147,-10.800843
1001.386719,-9.558035,-11.032322,-4.697744,-4.240818
1001.390625,-5.831027,-10.190790,-3.792531,-3.492565
1001.394531,1.145487,4.577772,-1.078339,-6.595943
1001.398438,-11.592230,-4.106877,-3.669711,7.245382
1001.402344,2.950234,5.134100,-2.623522,-2.553943
1001.406250,0.261390,8.747454,-2.490544,1.325570
1001.410156,6.701830,1.219747,3.336056,1.599589
1001.414062,5.321637,7.922030,9.974104,5.960100
1001.417969,8.773515,12.626978,7.934239,8.175113
1001.421875,5.509843,5.795419,9.315203,10.186970
1001.425781,10.902425,7.385383,12.591797,11.586713
1001.429688,8.804051,12.992416,15.973149,4.579812
1001.433594,7.749989,10.258253,6.343960,6.810826
1001.437500,9.358782,0.827878,5.536450,4.120940
1001.441406,11.699185,7.538671,6.675304,5.606367
1001.445312,-2.334677,-3.152344,2.949226,1.894380
1001.449219,3.735889,2.340519,2.641222,-0.141730
1001.453125,-7.593248,-4.273222,-4.665300,-2.142823
1001.457031,-3.979847,-9.698716,-2.747886,-2.343781
1001.460938,-6.719706,-8.862087,-3.219011,-8.609060
1001.464844,-10.219106,-7.319641,-4.959029,-1.812172
1001.468750,-13.047818,-7.764410,-6.570270,-9.235074
1001.472656,-8.808483,-12.722040,-11.516537,-5.772197
1001.476562,-11.659141,-9.002928,-12.238882,-10.514027
1001.480469,-11.614278,-6.426599,-15.685463,-8.849935
1001.484375,-2.649763,-6.354128,-4.744670,-5.227646
1001.488281,-6.269215,-2.198778,-10.400474,-8.081499
1001.492188,0.491207,-2.950587,0.948478,-3.236973
1001.496094,-4.011084,-0.985983,-4.531447,-1.751326
1001.500000,0.460039,0.666678,-3.110603,3.595106
1001.503906,0.893616,8.341534,4.611822,0.250526
1001.507812,2.656764,5.283247,9.341198,6.102322
1001.511719,5.908886,10.644720,10.005210,9.184225
1001.515625,5.716686,13.493898,7.621057,8.655860
1001.519531,10.156276,13.908022,8.059808,13.297282
1001.523438,5.846065,5.685930,4.579733,9.802133
1001.527344,3.304228,6.815483,6.141567,10.171809
1001.531250,12.039411,15.289596,5.198229,-2.271506
1001.535156,13.270863,10.919849,11.197825,6.776639
1001.539062,12.516706,5.766114,5.040540,13.046763
1001.542969,0.753656,0.884801,8.561771,7.892790
1001.546875,3.103271,1.773095,3.694351,6.760601
1001.550781,-4.519904,-5.776836,0.948256,-1.509998
1001.554688,-3.082622,-5.562851,-0.258160,-3.881363
1001.558594,-1.747775,-5.624990,-3.161349,0.770921
1001.562500,-9.441688,-5.441254,-8.259220,-16.291684
1001.566406,-13.406252,-6.878769,-12.154842,-19.596658
1001.570312,-6.616493,-7.599724,-19.805167,-10.451095
1001.574219,-13.594632,-15.116688,-16.659797,-12.134523
1001.578125,-13.890209,-12.417696,-13.883781,-2.583776
1001.582031,-9.115824,-12.001276,-6.822467,-9.669552
1001.585938,-17.628336,-12.225524,-16.458171,-4.577504
1001.589844,-16.289723,-4.452848,-6.512275,-2.502166
1001.593750,-2.394509,-6.725189,-4.905945,-9.423992
1001.597656,0.108688,1.393457,1.723278,-0.638990
1001.601562,3.527134,1.235428,1.317794,2.330645
1001.605469,0.601534,1.782977,5.243843,2.881685
1001.609375,9.441488,8.815593,-0.296026,-0.823613
1001.613281,12.948354,7.515261,3.050130,9.688103
1001.617188,13.551065,7.281786,16.433228,17.682523
1001.621094,1.487138,10.205932,3.237125,6.413737
1001.625000,8.470389,9.987016,3.115769,7.142114
1001.628906,10.186666,7.669203,12.898468,4.916589
1001.632812,12.906672,19.717218,14.064403,8.291171
1001.636719,3.079743,6.339658,6.089283,4.883669
1001.640625,-1.384136,2.452380,5.626520,-2.778163
1001.644531,3.690138,6.785312,0.790891,0.699317
1001.648438,-2.064684,8.150441,3.277162,1.450135
1001.652344,-4.364400,-6.315507,4.474443,-8.894944
1001.656250,-1.238854,-5.316450,-8.685949,-9.469727
1001.660156,-5.750072,-10.163100,-2.511602,-4.211848
1001.664062,-7.458789,-9.230775,-3.418182,-11.677549
1001.667969,-5.317984,-11.343622,-9.405220,-4.370484
1001.671875,-16.199843,-14.017653,-3.424486,-10.838059
1001.675781,-5.071131,-5.351613,-12.694005,-13.632744
1001.679688,-5.435719,-6.454682,-7.154153,-5.723251
1001.683594,-10.362302,-11.127123,-16.003729,-7.466902
1001.687500,-2.893012,-1.344611,-7.516149,-8.166665
1001.691406,-1.353036,-5.824147,-8.526195,-5.264464
1001.695312,-4.836166,-8.654931,-9.196778,0.863355
1001.699219,3.403598,1.274461,3.101905,0.778347
1001.703125,5.474657,4.574942,4.699418,4.310891
1001.707031,5.170894,7.795104,13.218724,4.741164
1001.710938,10.337026,8.629742,7.655409,4.549823
1001.714844,12.272464,11.527821,9.223983,3.954753
1001.718750,11.533714,2.740770,5.218107,8.723244
1001.722656,14.365987,8.363783,15.549884,-0.171557
1001.726562,15.183314,4.285235,10.357553,6.554506
1001.730469,5.374783,14.851970,10.640767,8.243105
1001.734375,9.287965,15.103601,10.025510,3.437020
1001.738281,8.935879,3.272025,8.222853,12.740186
1001.742188,-5.409074,6.242519,-0.009216,4.666280
1001.746094,5.196028,3.858512,-3.078086,3.720453
1001.750000,1.581294,-2.287435,-1.713126,-2.993397
1001.753906,-1.942313,-12.367153,-2.304046,-11.333493
1001.757812,-7.757173,-5.727951,-0.198256,-13.274456
1001.761719,-8.472705,-7.045107,4.107508,-11.312250
1001.765625,-10.855203,-18.253068,-10.370387,-12.921639
1001.769531,-10.214637,-8.779551,-15.215451,-10.535243
1001.773438,-4.031208,-10.165141,-16.596275,-8.142015
1001.777344,-10.576920,-12.828181,-12.859899,-10.633458
1001.781250,-6.785101,-8.543001,-10.089841,-14.335600
1001.785156,-10.756702,-5.837978,-1.157613,-0.980350
1001.789062,-4.693328,4.468016,-9.577584,-4.778767
1001.792969,-5.630440,-3.402584,-10.981267,-2.752029
1001.796875,3.267570,-4.308575,0.697214,3.388873
1001.800781,-5.976427,8.973282,-2.829720,6.183822
1001.804688,7.820049,0.560132,5.173852,4.102773
1001.808594,7.798190,2.468000,6.254001,6.994531
1001.812500,3.956472,8.211821,5.229362,9.122960
1001.816406,8.140892,4.667223,10.125381,6.589558
1001.820312,5.132915,8.228694,5.535676,4.514861
1001.824219,12.510380,8.205890,15.069753,13.787093
1001.828125,12.956164,12.571198,5.505994,9.100199
1001.832031,4.906350,11.332132,8.973685,10.622147
1001.835938,5.596665,4.964736,2.025254,11.145018
1001.839844,7.069840,5.461117,2.418728,12.873714
1001.843750,4.272956,8.252224,0.422109,6.071024
1001.847656,6.083155,-1.532882,-3.202182,6.145334
1001.851562,-0.658713,5.928016,1.663216,-10.363054
1001.855469,-4.939197,-9.920784,-4.230301,-0.828355
1001.859375,-8.087824,-11.302783,-11.058815,-4.691286
1001.863281,-12.201167,-9.050680,-9.563966,-11.344386
1001.867188,-11.356242,-6.165094,-3.444893,-10.262010
1001.871094,-10.941014,-12.867622,-7.778276,-11.775611
1001.875000,-9.848378,-16.223270,-7.910498,-5.637780
1001.878906,-14.730548,-5.655823,-8.338308,-3.995313
1001.882812,-6.703405,-13.499435,-4.567586,-6.365969
1001.886719,-10.493017,-1.939499,-8.182571,-10.757310
1001.890625,-7.265894,-6.467042,-6.673738,-1.559947
1001.894531,-4.359113,-6.795828,-0.512330,-7.213709
1001.898438,-2.926293,-2.842308,-1.157074,0.420783
1001.902344,4.248669,-0.230186,5.041005,0.565135
1001.906250,-1.880293,6.862852,4.397837,-0.581013
1001.910156,6.251479,8.204940,11.520944,9.849723
1001.914062,10.508970,8.932476,2.324196,13.740686
1001.917969,8.263886,14.171385,13.051710,3.956060
1001.921875,8.587814,8.169401,4.032617,5.166900
1001.925781,11.136924,13.951802,11.670538,8.658259
1001.929688,10.729544,9.393860,2.566826,10.628122
1001.933594,14.405520,9.931926,9.933040,10.319114
1001.937500,5.253712,4.078837,13.605268,8.563337
1001.941406,9.604661,7.309341,3.843645,9.739696
1001.945312,-2.949961,4.138132,0.386603,7.378770
1001.949219,-3.701380,4.959466,-3.012159,-4.022556
1001.953125,2.900903,-7.631643,-4.802789,4.270878
1001.957031,3.484801,-8.590307,-6.816183,-1.486959
1001.960938,-11.311435,-11.304595,-3.618521,-4.351312
1001.964844,-9.321137,-7.228893,-5.720356,-12.140844
1001.968750,-4.580514,-9.916015,-9.459268,-9.922735
1001.972656,-9.122378,-3.330615,-6.993184,-3.748094
1001.976562,-4.986626,-14.910517,-6.341609,-7.575917
1001.980469,-11.583782,-10.694703,-10.639078,-8.721564
1001.984375,-6.623916,-11.439411,-7.046528,-10.956136
1001.988281,-7.911004,-13.361201,-5.967890,-3.744128
1001.992188,-1.587676,-6.386563,-6.499683,-4.468970
1001.996094,3.564457,-4.326839,-1.764670,-1.139301
1002.000000,-7.587045,2.856191,2.035948,-3.739496
1002.003906,0.013909,1.072383,8.741328,-1.410571
1002.007812,6.022191,7.472363,7.928521,5.068366
1002.011719,7.719850,11.719289,7.590400,6.620564
1002.015625,9.811366,7.616065,6.028043,3.101203
1002.019531,8.931565,4.490505,13.762206,11.715527
1002.023438,9.156646,12.740270,7.709158,6.589669
1002.027344,11.248668,11.344285,0.720328,14.406800
1002.031250,16.480653,13.742296,8.849885,13.710865
1002.035156,11.453905,7.203431,8.359865,10.181590
1002.039062,9.599376,13.374864,8.206170,6.145060
1002.042969,5.857888,8.435936,4.499217,6.495193
1002.046875,6.364202,9.292607,1.386191,-2.447276
1002.050781,-5.184142,3.855584,0.136117,-0.478983
1002.054688,0.810090,0.232622,0.126719,3.753699
1002.058594,-6.415278,-7.810147,-6.388907,-3.958644
1002.062500,-9.330433,1.155425,-8.903912,-7.919097
1002.066406,-12.117843,-14.242357,-3.492587,-14.258942
1002.070312,-18.700233,-8.053758,-13.390603,-19.097609
1002.074219,-16.468571,-6.176251,-9.648511,-13.937525
1002.078125,-12.002049,-2.510994,-15.208224,-14.586049
1002.082031,-12.089075,-6.695735,-5.600842,-5.923645
1002.085938,-2.736629,-3.953374,-2.427256,-10.332175
1002.089844,-9.147645,-12.835057,-9.442630,-0.219155
1002.093750,-12.931442,-0.449843,-7.346526,-1.313972
1002.097656,-4.509733,4.799567,1.689220,0.997668
1002.101562,7.458283,-9.672758,-0.281886,8.766978
1002.105469,7.267784,5.340621,-4.240254,6.289043
1002.109375,4.733429,7.524048,4.864077,10.591016
1002.113281,4.475634,4.696738,6.971527,10.197862
1002.117188,10.329491,14.698036,8.308561,6.429302
1002.121094,11.210772,15.691631,0.731487,6.995081
1002.125000,13.333216,9.082466,13.025747,5.900505
1002.128906,12.352519,13.594234,8.393312,8.176828
1002.132812,7.890730,5.367533,2.010303,7.996646
1002.136719,10.109442,14.604886,7.865558,14.629692
1002.140625,3.773978,3.954343,5.859557,3.458148
1002.144531,7.411662,2.842807,-0.298646,-0.358751
1002.148438,4.004105,-3.485996,6.686383,4.556307
1002.152344,1.375853,0.839440,-1.582622,0.908571
1002.156250,-4.107887,-5.908067,-7.174235,-4.627592
1002.160156,-15.375495,-0.872332,-9.432782,-2.338371
1002.164062,-6.770378,-1.286691,-15.307593,-12.216125
1002.167969,-5.699264,-8.532225,-12.706711,-13.103984
1002.171875,-10.596122,-15.677136,-5.733482,-10.386166
1002.175781,-10.737792,-4.098737,-13.123532,-7.819741
1002.179688,-7.344918,-6.177416,-11.990951,-14.884112
1002.183594,-14.331253,-8.938143,-13.686741,-9.623312
1002.187500,-8.759033,-8.345106,-4.665489,-7.151690
1002.191406,-5.933791,-6.120186,-2.996417,-10.329941
1002.195312,-6.201612,0.740626,-10.768951,-3.323741
1002.199219,-11.398155,-2.325531,-3.396888,2.229579
1002.203125,2.860722,8.608980,-0.622807,0.981378
1002.207031,2.499149,8.393661,4.440803,2.389924
1002.210938,4.709204,3.435219,4.680524,11.374920
1002.214844,5.852250,1.401741,11.545985,11.371630
1002.218750,4.834567,8.061675,11.065154,13.005117
1002.222656,4.118171,15.948420,9.412822,12.985421
1002.226562,5.703030,8.936086,12.942223,10.301962
1002.230469,10.440853,9.154026,10.134026,4.753353
1002.234375,11.509793,7.792032,13.493103,7.455774
1002.238281,3.412324,2.538479,11.877902,5.711529
1002.242188,-0.935291,4.975579,3.362982,4.185169
1002.246094,2.169660,-4.031887,-1.423539,2.859651
1002.250000,0.131972,8.547075,3.447705,-0.926684
1002.253906,2.325360,-10.714528,-6.995720,-3.205449
1002.257812,-6.017987,-6.140458,-4.928851,0.045697
1002.261719,-5.645743,-4.545073,-11.481826,-6.396681
1002.265625,-9.092944,-7.477189,-16.283781,-12.921575
1002.269531,-8.934408,-7.217928,-9.169839,-18.912309
1002.273438,-10.181786,-5.566585,-12.173627,-0.940269
1002.277344,-5.700384,-8.250054,-5.317705,-12.522079
1002.281250,-10.874607,-2.331995,-2.197620,-0.482929
1002.285156,-3.130597,-6.648896,-10.859957,-10.884814
1002.289062,-4.014041,-6.430242,-8.950058,-9.534406
1002.292969,-3.101612,-4.041311,-9.396868,-12.646096
1002.296875,-1.398073,-0.967427,3.381936,-5.988414
1002.300781,2.297057,2.435289,-0.333613,-3.755824
1002.304688,-3.718470,6.164378,6.504736,-2.407019
1002.308594,7.647081,9.392567,5.383670,10.020509
1002.312500,3.555648,14.133209,3.467480,10.472689
1002.316406,11.704020,3.257801,17.175458,11.371605
1002.320312,10.830868,5.663241,6.009733,13.416457
1002.324219,6.267421,10.692019,8.370491,6.291316
1002.328125,9.835251,10.778962,8.879271,11.455222
1002.332031,9.991212,2.633423,11.882898,4.757042
1002.335938,5.825388,10.852420,4.395303,6.106663
1002.339844,4.826888,7.186111,0.315115,12.429387
1002.343750,1.493319,4.150685,3.355325,4.345884
1002.347656,0.364123,0.677295,1.376566,-3.196712
1002.351562,0.503536,-8.119301,-1.443778,-1.273473
1002.355469,0.399696,-0.560856,-0.228126,0.053041
1002.359375,-9.397864,2.954049,-4.036318,-6.254249
1002.363281,-5.693506,-2.789795,-5.149385,-3.321032
1002.367188,-17.251335,-0.929270,-19.032158,-9.353968
1002.371094,-8.439219,-19.409108,-9.195445,-8.068425
1002.375000,-8.876103,-9.290845,-9.503209,-5.554273
1002.378906,-8.698317,-11.082623,-9.071335,-10.521705
1002.382812,-14.800202,-6.713325,-16.703629,-7.280675
1002.386719,-1.537135,-7.705776,-12.383258,-10.494857
1002.390625,-6.646135,-8.171980,-9.279621,-7.957910
1002.394531,-11.024602,-10.348591,-3.143291,-12.836260
1002.398438,-5.749941,0.524713,1.046684,-6.559587
1002.402344,-2.414870,-3.306324,4.797386,4.978017
1002.406250,3.296986,4.874410,8.984913,7.455696
1002.410156,5.270669,10.926944,4.802162,6.193069
1002.414062,7.169793,13.864873,6.562975,14.131452
1002.417969,9.759036,11.769154,5.188980,8.329920
1002.421875,7.182647,11.994648,15.511024,11.198892
1002.425781,9.610160,10.412828,6.449799,10.189195
1002.429688,13.311844,13.212707,7.709146,4.886119
1002.433594,2.182183,7.765894,7.393473,8.594098
1002.437500,5.268092,2.768555,0.369311,12.051044
1002.441406,3.485710,-0.700282,6.768983,2.668583
1002.445312,2.015023,-0.747783,1.195939,9.989091
1002.449219,-0.538571,6.772605,0.092012,-0.016493
1002.453125,5.589755,-0.411824,2.522594,-3.910097
1002.457031,-3.986964,-1.759304,-2.674103,-5.683175
1002.460938,-12.413481,-4.703089,-0.443863,-0.311307
1002.464844,-9.562741,-8.236186,-11.789062,-11.459856
1002.468750,-13.227416,-13.250825,-15.060183,-8.409811
1002.472656,-16.907013,-12.256580,-8.470823,-8.646296
1002.476562,-4.581546,-8.824722,-15.350880,-0.531099
1002.480469,-11.792548,-6.913580,-6.361776,-8.790286
1002.484375,-11.284767,-1.406809,-9.483303,-8.676667
1002.488281,-1.938324,-3.735995,-0.485204,-11.141511
1002.492188,-1.221721,1.207174,-7.139257,-6.995335
1002.496094,-0.394336,-2.152240,-8.713322,0.627353
1002.500000,-5.884370,1.511843,-1.630004,6.165527
1002.503906,6.802500,7.195441,6.227301,1.646525
1002.507812,10.076018,5.497408,5.085352,1.730264
1002.511719,2.210439,7.864982,5.533887,2.634605
1002.515625,5.994659,4.511041,7.913723,11.727324
1002.519531,15.639541,14.757015,2.426773,19.283680
1002.523438,11.344246,7.227560,5.075422,15.591051
1002.527344,10.120781,14.292813,9.658088,7.676956
1002.531250,10.449261,4.708768,13.755664,10.924820
1002.535156,1.635659,6.748362,3.669596,8.180673
1002.539062,4.731136,8.597637,2.142520,5.692018
1002.542969,0.781547,0.683851,-2.917965,8.694182
1002.546875,3.514592,-7.396568,6.045707,-2.317678
1002.550781,1.375045,-1.238386,7.405167,-5.641727
1002.554688,-3.895154,-6.530839,-1.172010,-12.385890
1002.558594,-12.086232,1.221464,-6.336972,-9.345880
1002.562500,-2.265838,-11.299485,-8.981624,-6.815319
1002.566406,-2.877162,-5.125979,-8.625277,-2.230237
1002.570312,-18.153500,-9.561355,-8.990135,-9.246375
1002.574219,-7.169219,-10.696335,-9.753706,-9.967715
1002.578125,-11.048941,-7.012148,-7.461555,-4.409562
1002.582031,-11.114095,-4.509094,-8.781926,-10.448875
1002.585938,-11.227905,-9.865397,-8.540063,-6.567943
1002.589844,-6.262987,-4.898823,-5.604379,-7.907265
1002.593750,-4.318880,-1.261867,-2.525887,0.694303
1002.597656,-3.227668,2.218518,-1.254165,2.838152
1002.601562,2.433592,0.124901,4.060925,5.398084
1002.605469,-2.803500,5.097665,1.196385,8.191581
1002.609375,9.420595,10.294880,5.497720,7.171300
1002.613281,7.473250,5.325158,5.103301,7.831930
1002.617188,7.734508,11.803979,17.360471,14.962510
1002.621094,6.818515,5.463703,9.749482,15.384692
1002.625000,8.396531,7.201359,16.667484,7.081884
1002.628906,13.609918,12.549332,11.551200,15.560683
1002.632812,6.992786,12.758935,6.089619,6.272977
1002.636719,8.210951,3.881681,8.414333,1.486734
1002.640625,7.859582,6.825442,6.967290,1.135973
1002.644531,5.374230,1.339080,2.229442,3.395065
1002.648438,1.574481,1.397034,0.341200,1.542138
1002.652344,-1.267966,-7.241696,6.646796,-0.451911
1002.656250,-2.577579,-6.090835,-9.188505,-2.551366
1002.660156,-8.064835,-7.535059,-6.573537,-3.746130
1002.664062,-10.510137,-9.318714,-4.510806,-12.699747
1002.667969,-12.910808,-7.698778,-7.574121,-5.054639
1002.671875,-6.596821,-8.062037,-11.808680,-6.502666
1002.675781,-13.574141,-15.091186,-0.884943,-3.333725
1002.679688,-8.349075,-9.191243,-10.931795,-8.755571
1002.683594,-17.483675,-5.627480,-9.460052,-2.391262
1002.687500,-8.831131,-10.288241,-3.121296,-11.143880
1002.691406,-3.846078,-6.576622,-7.151370,-5.270272
1002.695312,-5.661703,-6.066237,-3.132806,-3.905160
1002.699219,-4.959756,-6.402628,1.493235,2.329138
1002.703125,2.858729,0.204784,4.039639,8.454219
1002.707031,-0.384319,10.101531,5.764008,6.731564
1002.710938,8.378382,7.788615,-0.823046,8.712990
1002.714844,9.889711,4.331013,4.701118,5.128784
1002.718750,9.130974,11.387322,7.508283,4.614826
1002.722656,12.799981,9.076316,8.654128,6.894406
1002.726562,6.871167,10.939886,8.211064,12.652927
1002.730469,9.832331,6.821663,5.888193,14.429466
1002.734375,8.824586,14.888800,3.165882,6.567545
1002.738281,4.261245,3.185144,11.322959,-1.956379
1002.742188,-3.328551,8.020386,0.985518,3.019493
1002.746094,-2.324684,3.835278,6.176845,-1.393657
1002.750000,0.356323,-2.742576,2.816070,2.603396
1002.753906,-2.950612,-5.401346,1.440188,-3.408155
1002.757812,1.462730,-11.313297,-7.512057,0.978709
1002.761719,-8.394825,0.376271,-11.213460,0.558833
1002.765625,1.031687,-5.218484,-9.650588,-7.502543
1002.769531,-10.965841,-5.483154,-10.168070,-12.693099
1002.773438,-8.987824,-9.801051,-8.263392,-5.117825
1002.777344,-14.812132,-14.372945,-14.104514,-0.206514
1002.781250,-5.310486,-11.336898,-13.875032,-7.729025
1002.785156,-14.539418,-1.132628,-5.290744,-4.556436
1002.789062,-18.366931,-10.055657,-1.279896,-10.752893
1002.792969,-12.984901,-16.700122,1.779122,-4.073727
1002.796875,3.722850,-3.614660,-2.707879,-1.054145
1002.800781,3.441936,-2.001457,2.551970,-6.788733
1002.804688,2.082036,9.808801,6.960646,1.841675
1002.808594,-5.513482,11.013992,9.062158,3.588868
1002.812500,3.443211,3.841792,5.801716,5.996006
1002.816406,3.163007,3.344456,7.579064,8.183975
1002.820312,8.216606,6.610360,5.539430,11.005355
1002.824219,10.304593,11.540304,15.823394,2.004260
1002.828125,11.402825,11.006265,9.643699,8.958529
1002.832031,9.033741,16.249376,2.780850,14.894689
1002.835938,2.532969,9.834461,-3.167434,6.815895
1002.839844,5.460532,8.827486,8.175360,9.274300
1002.843750,1.605824,3.610249,8.373950,1.348186
1002.847656,-1.968024,0.621345,3.768751,0.216620
1002.851562,-0.966262,5.844328,-4.465169,-5.460520
1002.855469,-5.710591,-11.295106,-0.409039,-4.009755
1002.859375,-3.150491,-0.846467,-1.746752,-2.438202
1002.863281,-5.781679,-11.207308,-3.187448,-8.194478
1002.867188,-9.888322,-6.874202,-10.781650,-12.760190
1002.871094,-6.183756,-11.023864,-11.346993,-9.058887
1002.875000,-7.985745,-7.857101,-9.297766,-10.572711
1002.878906,-10.310997,-11.467939,-4.824663,-0.601297
1002.882812,-7.386080,-12.617310,-5.239620,-11.806314
1002.886719,-0.135073,-12.980179,-13.395606,-6.954979
1002.890625,-8.125841,-1.065395,-4.179361,-12.005645
1002.894531,-2.665324,-8.256113,-7.339005,-5.866145
1002.898438,-0.409415,-3.930151,-1.301024,1.686709
1002.902344,8.075645,-2.073873,-0.967515,-2.101968
1002.906250,7.504553,8.680520,7.381721,5.171816
1002.910156,7.013714,8.257166,14.690780,4.308028
1002.914062,8.667233,5.253476,8.357292,14.152046
1002.917969,11.373390,4.702077,13.780685,9.088384
1002.921875,5.513863,7.052019,10.892293,10.245677
1002.925781,15.259215,-0.538924,6.884975,8.536123
1002.929688,9.932716,15.295040,14.544022,1.969560
1002.933594,7.076634,6.066256,9.789995,5.621581
1002.937500,11.356525,11.067837,3.317318,1.395677
1002.941406,4.039887,7.425235,7.876565,9.194483
1002.945312,5.360254,2.500034,3.540259,6.094324
1002.949219,0.360257,2.688340,-0.566072,1.934344
1002.953125,6.717718,-5.915735,2.732486,-0.766608
1002.957031,-3.358320,-4.540842,-4.414404,-6.667991
1002.960938,-5.781749,-2.973995,3.438996,-9.561914
1002.964844,-6.879168,-9.041943,-14.203159,-3.319667
1002.968750,-6.299781,-11.315325,-12.943392,-18.238737
1002.972656,-6.366885,-13.718574,-11.062179,-12.182473
1002.976562,-11.168015,-10.480600,-15.313726,-3.557553
1002.980469,-8.855315,-9.836607,-9.079480,-7.571445
1002.984375,-16.346066,-7.191186,-13.322927,-1.196431
1002.988281,1.097119,-7.671149,-4.092060,-7.555712
1002.992188,0.364531,-7.619806,-6.895969,-9.616240
1002.996094,0.998077,1.734347,-7.035952,-6.092073
1003.000000,3.698100,-0.512156,-0.337776,5.669997
1003.003906,2.508325,-2.768984,0.149446,0.087143
1003.007812,4.681583,8.625130,-0.177536,9.477125
1003.011719,10.040940,3.475294,6.259655,0.590632
1003.015625,5.895076,5.175244,7.746204,7.662714
1003.019531,7.798312,10.997785,1.442483,11.418650
1003.023438,14.000774,11.585007,15.364090,9.681133
1003.027344,8.247635,9.899430,11.836669,8.665078
1003.031250,4.613369,8.141522,14.621591,8.350564
1003.035156,4.194563,3.140481,4.747798,2.428290
1003.039062,9.090983,-0.452543,12.768009,0.989189
1003.042969,1.804096,10.540229,1.585608,2.183759
1003.046875,0.543439,1.645708,5.730930,0.717361
1003.050781,1.006360,3.491105,-2.162733,-0.928567
1003.054688,-11.188139,-3.838498,-9.736538,5.677183
1003.058594,-2.498647,-4.511745,2.467303,-6.955896
1003.062500,-4.494354,-2.280854,-11.819610,-8.186566
1003.066406,-11.463762,-12.313381,-14.609330,-3.138232
1003.070312,-11.023468,-3.593919,-7.369388,-7.903957
1003.074219,-12.600768,-7.169451,-12.013122,-14.309593
1003.078125,-18.639247,-8.179923,-6.719912,-6.157424
1003.082031,-3.869235,-12.650481,-7.641774,-5.666627
1003.085938,-8.921014,-13.050479,-9.004791,-4.876015
1003.089844,-13.884088,0.017969,-13.481687,-8.278893
1003.093750,-6.117953,-1.766583,2.471799,-4.139453
1003.097656,-3.013066,-3.474969,-2.908913,-5.731181
1003.101562,-2.516165,-1.564996,-0.279958,1.575096
1003.105469,1.875755,3.485598,0.712875,6.179385
1003.109375,3.193864,-10.259270,4.021317,1.658984
1003.113281,6.262431,11.566108,4.390997,6.183455
1003.117188,5.128522,7.005447,10.370067,9.731277
1003.121094,16.491591,9.506183,15.213234,16.942134
1003.125000,12.359783,15.741735,12.577681,8.935487
1003.128906,4.410817,12.392356,8.673658,8.516482
1003.132812,13.438490,2.851129,11.358336,7.102888
1003.136719,6.501083,11.767046,2.545932,8.478480
1003.140625,8.060772,10.272402,4.453080,8.965475
1003.144531,-3.651119,5.855360,-4.598103,3.177330
1003.148438,1.054653,2.697219,7.699394,6.134611
1003.152344,0.863786,-2.264129,1.009978,-0.483764
1003.156250,-4.372318,-9.199890,-0.082613,-6.882121
1003.160156,-6.300518,-6.802420,-2.784850,-5.744952
1003.164062,-2.363798,-4.129315,-9.646679,-5.505718
1003.167969,2.405540,-2.514525,-10.739124,-10.380635
1003.171875,-8.331760,-4.452580,-15.852435,-13.043039
1003.175781,-7.110954,-18.368520,-12.567673,-7.786173
1003.179688,-9.097584,-5.485604,-6.860212,-9.487986
1003.183594,-6.973026,-8.894257,-9.444101,-10.586221
1003.187500,-8.464938,-5.835875,-5.945619,-13.059750
1003.191406,-3.256062,1.817655,-3.261855,-10.439245
1003.195312,-5.378057,2.141906,-6.744873,2.745316
1003.199219,-2.913288,-5.213848,6.418566,-1.123487
1003.203125,7.492791,4.697574,-1.106066,-2.166933
1003.207031,5.797427,2.619126,4.884186,-0.280896
1003.210938,12.306867,-0.281245,2.117552,-1.847145
1003.214844,14.134004,11.415580,10.161245,5.193299
1003.218750,8.177812,14.463073,6.857390,4.745093
1003.222656,13.031064,11.748015,15.114152,10.946635
1003.226562,10.823252,9.808201,3.315862,7.664905
1003.230469,18.432710,5.011329,4.336497,15.936465
1003.234375,5.164638,-1.432315,15.316669,7.739576
1003.238281,2.109326,10.366080,10.891940,8.039268
1003.242188,6.769486,-3.128130,4.155427,1.735664
1003.246094,5.150260,9.024574,2.308932,4.803515
1003.250000,-0.649588,-3.853385,2.560032,-4.148304
1003.253906,2.921245,-6.016094,-4.211849,-2.996093
1003.257812,-4.108840,-0.393239,-10.265467,-9.791579
1003.261719,-12.367888,-1.258878,-3.451627,-9.720421
1003.265625,-1.368902,-6.139317,-8.904731,-12.062679
1003.269531,-8.109939,-4.692046,-12.030697,-10.090590
1003.273438,-9.560500,-12.007620,-3.815173,-11.118927
1003.277344,-8.605214,-12.241592,-14.227246,-12.568562
1003.281250,-6.464567,-4.784634,-6.433971,-6.027334
1003.285156,-4.801243,-3.202944,-9.887268,-11.717768
1003.289062,-5.331611,-12.967534,-1.240273,-4.586474
1003.292969,-2.021585,-5.026712,-4.195342,-1.712750
1003.296875,-7.305152,-0.707318,-6.315831,0.187541
1003.300781,0.867198,-7.852358,5.990327,1.816141
1003.304688,3.085980,4.972934,4.641526,-5.303212
1003.308594,7.336315,3.288341,5.077165,5.623986
1003.312500,1.998175,2.375564,-0.866434,6.785957
1003.316406,12.542658,5.873606,7.923516,9.889426
1003.320312,8.234874,10.325602,6.709400,9.791487
1003.324219,18.237836,6.829212,16.373074,15.579425
1003.328125,5.218157,2.621963,8.746766,7.213834
1003.332031,7.442998,9.125028,7.216374,8.390966
1003.335938,1.700465,3.695902,6.507396,12.722560
1003.339844,1.855849,3.430377,11.775911,8.096751
1003.343750,3.715075,0.822153,10.594245,6.646038
1003.347656,-3.505063,-0.431472,5.534589,5.040359
1003.351562,3.950817,-0.574470,-8.168638,-3.680196
1003.355469,-8.885449,4.894121,-2.334201,-4.844574
1003.359375,-8.170309,6.706386,-9.994517,-4.114197
1003.363281,-17.034658,-4.929157,-14.868262,-7.507390
1003.367188,-9.777905,-8.698046,-8.451090,-9.678206
1003.371094,-8.733162,-7.216383,-10.398715,-6.689306
1003.375000,-3.508025,-13.773474,-17.639474,-6.763868
1003.378906,-11.308773,-9.891757,-7.692514,-6.073998
1003.382812,-10.838806,-12.959444,-14.141502,-16.902436
1003.386719,-13.118553,-8.711736,-3.929683,-5.906368
1003.390625,-6.379301,-7.012363,-8.778496,-10.029394
1003.394531,-7.696577,1.598646,0.511237,2.075278
1003.398438,1.880877,2.433105,-3.826239,2.268757
1003.402344,-6.156037,4.828875,-0.124551,1.066101
1003.406250,0.677338,7.523385,10.279021,3.982712
1003.410156,7.041150,13.778355,11.051747,6.343078
1003.414062,10.874493,7.880877,2.750071,5.696483
1003.417969,4.371732,13.079266,14.076932,9.772655
1003.421875,2.040953,19.033595,12.208098,10.132655
1003.425781,12.841234,3.408845,9.082232,9.689273
1003.429688,16.503540,9.359974,13.022497,10.186555
1003.433594,6.752502,9.926571,8.327925,9.310740
1003.437500,12.006412,9.388249,5.832193,1.892751
1003.441406,3.600616,9.141880,5.669465,9.535940
1003.445312,7.502724,-0.752702,10.266762,7.607823
1003.449219,-1.747782,3.147091,0.020495,-5.659638
1003.453125,-6.566543,-3.881238,-9.205469,-4.325014
1003.457031,-1.759737,0.197577,-5.150831,-2.497572
1003.460938,-3.055745,-7.713390,-9.882111,-6.145950
1003.464844,-14.316237,-8.731565,-10.350467,-8.086584
1003.468750,-4.914885,-12.650182,-8.113341,-8.546984
1003.472656,-7.277110,-6.113108,-6.833681,-7.229785
1003.476562,-3.161403,-8.073758,-8.514156,-14.439031
1003.480469,-10.951398,-13.520014,-15.313174,-6.149267
1003.484375,-4.065145,-9.504375,-11.562936,-3.798207
1003.488281,-7.599223,-2.974193,-7.779002,-7.992969
1003.492188,-1.357215,-5.804773,-7.724182,-1.369916
1003.496094,-4.634565,-5.670543,2.997709,-5.414096
1003.500000,-5.322430,8.452402,-0.605097,-7.283963
1003.503906,0.578341,-0.015869,2.832057,2.048582
1003.507812,0.830105,7.953556,0.930201,12.965517
1003.511719,7.371700,-1.480041,2.581235,15.716835
1003.515625,11.149130,13.537747,7.473883,5.422240
1003.519531,16.297018,6.592580,8.723839,10.508773
1003.523438,13.680915,7.795338,11.277795,7.036345
1003.527344,9.781794,12.171262,13.097327,9.399086
1003.531250,2.739077,16.832824,8.404022,8.719656
1003.535156,5.349740,7.309193,8.683060,4.480308
1003.539062,8.173970,6.224988,12.037046,9.074078
1003.542969,0.459397,9.547479,5.683852,8.894826
1003.546875,0.646232,5.107950,7.614339,7.977385
1003.550781,-1.496960,-1.702276,-8.394018,-3.373415
1003.554688,-2.294894,-4.458805,-0.389149,-0.198599
1003.558594,-6.209299,-7.855793,-4.507151,-1.115347
1003.562500,-2.702673,-0.256592,0.474309,-12.457490
1003.566406,-11.957248,-12.419619,-14.804220,-4.529050
1003.570312,-14.286256,-22.438182,-10.386655,-7.961402
1003.574219,-15.141097,-19.689666,-11.859499,-9.897128
1003.578125,-8.381879,-13.685278,-8.989756,-5.397380
1003.582031,-11.406745,-10.794213,-8.145709,-14.776898
1003.585938,-0.775471,-5.095511,-10.225606,-8.291643
1003.589844,-6.381170,-11.299187,-7.648099,-4.730368
1003.593750,1.483286,-1.831901,0.970118,-3.321316
1003.597656,-10.870345,-2.230022,-4.654351,-1.477309
1003.601562,-1.055545,-1.692385,-0.292067,-3.409892
1003.605469,2.177411,6.100439,3.072488,5.302437
1003.609375,5.223407,6.204729,6.806680,16.875874
1003.613281,9.639556,9.194384,14.418055,6.429008
1003.617188,8.856673,20.050464,10.270909,10.327002
1003.621094,13.691182,17.899722,9.208027,8.552709
1003.625000,4.175700,17.232003,7.800641,9.236566
1003.628906,9.178567,9.213234,15.301447,10.978179
1003.632812,11.292910,11.634683,6.386117,11.098154
1003.636719,7.189385,9.957540,1.090374,6.695812
1003.640625,4.912566,1.821280,3.264720,6.929431
1003.644531,11.371028,-0.267385,3.512690,1.931366
1003.648438,5.384394,2.958662,1.032806,4.050960
1003.652344,-3.124511,0.305298,3.979727,-7.688350
1003.656250,3.810881,-6.707371,-7.341923,-0.390554
1003.660156,-6.892035,-9.159925,1.471936,0.994105
1003.664062,-6.306067,-8.222217,-1.543412,3.834072
1003.667969,-11.952904,-11.922667,-10.425397,-4.067903
1003.671875,-13.987229,-8.692593,-5.215935,-9.183768
1003.675781,-14.069583,-9.599598,-7.579147,-8.873700
1003.679688,-16.296074,-3.431650,-13.286163,-7.775874
1003.683594,-2.188946,-12.180059,-12.168618,-7.642218
1003.687500,-1.490988,-9.058634,-11.644229,-2.183637
1003.691406,-6.284977,-0.358009,-3.158499,0.687098
1003.695312,-8.482418,-0.377155,-9.630252,-0.252584
1003.699219,3.668667,3.599207,-1.875449,-5.095083
1003.703125,2.439288,0.524582,10.011685,4.813219
1003.707031,7.754177,-1.171868,2.628732,10.798982
1003.710938,3.761386,8.917342,8.280355,7.275914
1003.714844,11.074232,3.061866,10.220760,7.805725
1003.718750,5.829643,5.994938,8.272785,5.997172
1003.722656,1.479707,-1.061566,13.315651,4.254697
1003.726562,3.242714,11.849241,10.069591,9.990449
1003.730469,7.717456,5.344625,12.698397,12.658334
1003.734375,6.887588,11.785348,8.940858,13.132856
1003.738281,8.569124,1.643018,15.411383,4.966160
1003.742188,-4.848301,7.341542,11.085799,8.635748
1003.746094,-4.856289,1.050908,10.055090,5.507776
1003.750000,7.941716,-3.046459,-4.978038,-4.167955
1003.753906,-2.688215,-5.835522,-0.957720,4.303361
1003.757812,-11.464245,-4.792897,-4.978270,-10.593707
1003.761719,-11.918804,-3.014436,-5.352886,-10.650234
1003.765625,-15.504015,-0.649128,-5.504902,-12.971202
1003.769531,-8.887674,-12.328245,-11.114170,-12.474372
1003.773438,-13.625358,-11.101457,-4.605344,-5.028137
1003.777344,-7.000559,-7.782305,-12.458854,-11.855617
1003.781250,-16.272039,-7.843786,-6.587402,-8.827577
1003.785156,-7.383213,-9.141093,-7.205637,-11.243429
1003.789062,-7.871554,-18.803752,-6.299664,-3.500941
1003.792969,-4.305805,-3.982828,-6.941301,-4.297827
1003.796875,-2.523689,-5.026994,-2.318005,-9.657257
1003.800781,0.209675,5.018240,-8.518765,-2.268230
1003.804688,3.308749,2.457813,5.164373,3.755030
1003.808594,1.786629,3.945556,2.888446,4.558011
1003.812500,0.964425,12.968467,5.622243,2.346596
1003.816406,13.125196,5.383612,7.125424,12.107227
1003.820312,14.014316,5.758093,16.159565,8.064723
1003.824219,14.928885,2.779034,5.129234,5.900255
1003.828125,5.411062,14.777833,11.889328,10.615217
1003.832031,7.091932,6.972202,1.514249,3.600142
1003.835938,5.745076,11.488697,5.253268,1.733862
1003.839844,8.055035,7.131551,4.114873,9.058939
1003.843750,0.520434,5.540778,4.563566,5.313208
1003.847656,-8.588612,1.135477,1.687218,4.737008
1003.851562,-6.319123,-0.745021,-4.521147,-3.407887
1003.855469,3.856787,0.827461,2.314354,-4.257452
1003.859375,3.316266,-10.747375,-14.262217,-7.448059
1003.863281,-5.595434,-3.186286,-5.538508,-10.752450
1003.867188,-9.091719,-3.161774,-14.251435,-7.991658
1003.871094,-6.759070,-6.320984,-11.850868,-11.342362
1003.875000,-13.392768,-9.782394,-4.676545,-9.338786
1003.878906,-4.304431,-2.207523,-13.054578,-9.563049
1003.882812,-10.506493,-12.007282,-15.901777,-10.879176
1003.886719,-8.386800,-9.067488,-8.304259,-8.985240
1003.890625,-5.110872,-5.812452,-5.687281,-6.650378
1003.894531,-1.892468,-2.647974,-3.645052,-10.060044
1003.898438,-1.072674,7.896933,-0.509839,-3.527501
1003.902344,11.731841,0.083757,1.875508,-3.605432
1003.906250,13.842744,5.370003,10.001643,-1.578384
1003.910156,5.566726,3.525962,1.575603,8.550551
1003.914062,2.332629,7.386411,7.580334,12.268713
1003.917969,7.705672,7.068202,12.442099,10.571624
1003.921875,9.549669,7.760495,12.727143,3.907672
1003.925781,12.264508,5.109201,14.726665,13.179665
1003.929688,11.634045,7.960142,11.682426,11.314503
1003.933594,12.192767,5.712854,10.861399,10.946904
1003.937500,8.157011,3.247033,7.328186,6.643052
1003.941406,8.814624,9.972143,0.122405,9.567591
1003.945312,0.947390,4.313214,3.612881,4.417335
1003.949219,-2.268701,5.264549,9.285034,-2.564377
1003.953125,-7.750292,-4.003244,-0.386609,-11.139379
1003.957031,-0.806374,-3.360811,-1.040337,2.579493
1003.960938,-12.172943,-9.305398,-8.146023,-0.996819
1003.964844,-6.273702,-5.839835,-11.469488,-16.053178
1003.968750,-5.436447,-12.353053,-15.158601,-9.923921
1003.972656,-11.718633,-8.590181,-10.787561,-7.390639
1003.976562,-6.513877,-8.724447,-10.976360,-13.548019
1003.980469,-12.162617,-6.197834,-9.717852,-9.887106
1003.984375,-5.953320,-9.967277,-12.412019,-6.610131
1003.988281,-8.114517,-11.841032,-1.263491,-6.642700
1003.992188,-4.870107,-8.111739,-2.785650,-5.179227
1003.996094,-2.669882,-6.738285,2.548973,-8.114778
1004.000000,-2.488701,-4.667825,-4.801227,-6.648809
1004.003906,3.740950,0.703294,3.647184,0.579421
1004.007812,2.973008,8.823010,4.513600,12.892668
1004.011719,10.883937,8.677881,14.385634,3.555849
1004.015625,4.775127,10.895776,10.074549,2.758295
1004.019531,12.169176,6.000496,5.358584,11.333420
1004.023438,10.239318,10.904921,8.667640,7.748999
1004.027344,6.154628,10.456807,6.304028,3.295944
1004.031250,4.658718,15.806629,9.705660,10.749308
1004.035156,6.596891,15.300034,16.167038,6.930419
1004.039062,12.134726,1.920286,11.713415,5.302943
1004.042969,1.050274,5.041092,6.556309,1.038850
1004.046875,1.058629,3.607065,7.030422,3.373087
1004.050781,1.382747,1.689381,5.644871,-3.111237
1004.054688,-5.338318,-11.026428,-3.800299,-1.205201
1004.058594,-4.349685,-10.908274,-9.095094,-7.827313
1004.062500,-9.708456,-9.844186,-6.519939,-9.283455
1004.066406,-10.134230,-3.818348,-9.979283,-8.329706
1004.070312,-14.960716,-6.153350,-6.946822,-8.705331
1004.074219,-7.123189,-7.780204,-9.619645,-8.414242
1004.078125,-5.067460,-7.297987,-5.516468,-8.855568
1004.082031,-17.229984,-3.623241,-12.951760,-4.374621
1004.085938,-11.079509,-7.436832,-2.277400,-5.396525
1004.089844,-7.783316,-6.050298,-1.387243,-8.820495
1004.093750,0.093044,-0.568348,-5.635550,-9.452550
1004.097656,2.911081,-0.085107,-5.480634,-7.516955
1004.101562,-3.256732,3.327388,9.201809,-0.566784
1004.105469,2.108528,4.175191,0.687839,-3.591037
1004.109375,1.095289,-0.156279,1.948477,6.092169
1004.113281,7.639719,2.681474,2.231525,9.264615
1004.117188,13.160097,6.668850,9.380690,12.738544
1004.121094,11.872810,8.690239,19.068932,14.414070
1004.125000,2.512148,6.127635,9.328605,7.505875
1004.128906,-0.540879,8.393887,4.545100,6.103659
1004.132812,12.859385,2.372926,10.927821,2.890676
1004.136719,6.253420,8.427174,15.201680,14.819274
1004.140625,-3.309319,14.447450,6.409703,4.934206
1004.144531,4.084927,4.253551,-1.066555,-0.013436
1004.148438,0.846164,9.883948,-1.421471,-4.665872
1004.152344,6.805969,-7.283832,2.904738,-6.151852
1004.156250,-3.797134,-1.903203,-2.177139,-2.189970
1004.160156,-11.661045,-5.494428,-11.191346,-4.567705
1004.164062,-5.727588,-5.481587,-10.250565,-2.999579
1004.167969,-16.094534,-7.112255,-10.772596,-6.613080
1004.171875,-6.085014,-11.223992,-9.300447,-6.438110
1004.175781,-7.310205,-9.286297,-10.441935,-6.621888
1004.179688,-11.162840,-10.326962,-12.926335,-7.643979
1004.183594,-9.685399,-13.890320,-9.228819,-5.980585
1004.187500,-1.606465,-9.292112,-9.074833,-6.015203
1004.191406,-4.397992,-3.682031,-4.737196,-4.770210
1004.195312,-2.646475,-6.135360,-3.504450,-5.066294
1004.199219,1.943455,2.528995,-8.184619,7.585123
1004.203125,-0.182237,1.618939,0.684873,7.116246
1004.207031,6.529336,4.836424,6.852934,4.044131
1004.210938,-0.354517,2.916986,6.429901,6.527978
1004.214844,9.153384,4.324918,13.313202,11.648854
1004.218750,8.259380,11.319750,9.613047,5.400470
1004.222656,10.066003,10.221584,4.145303,7.747180
1004.226562,3.022556,7.836338,7.772681,8.821793
1004.230469,9.012407,12.299299,16.814210,6.318498
1004.234375,-1.020594,3.415501,8.424584,8.599932
1004.238281,7.775984,8.656712,9.573785,4.191643
1004.242188,5.266718,8.523142,8.185847,5.659569
1004.246094,3.364260,1.723024,8.624603,-4.702177
1004.250000,2.190128,4.784846,-3.125775,4.839675
1004.253906,-2.489880,-6.381747,1.981444,-8.977689
1004.257812,-4.512263,-5.098480,-7.463907,0.396264
1004.261719,-6.005772,-14.341315,-2.031528,-1.748536
1004.265625,-7.709283,-9.063384,-11.512358,-8.492767
1004.269531,-15.360933,-10.036346,-9.186916,-4.115625
1004.273438,-17.617867,-9.440542,-13.771142,-10.662527
1004.277344,-12.479080,-16.545174,-7.777884,-13.696401
1004.281250,-11.402509,-11.704516,-12.745645,-13.353789
1004.285156,-8.139957,-9.489167,-13.800918,-6.004029
1004.289062,-6.286613,-7.670731,-4.803286,-6.887144
1004.292969,-3.052955,-1.995446,-8.548322,0.131052
1004.296875,-0.164993,2.334900,-1.433047,-0.034103
1004.300781,7.075933,2.339299,1.104034,2.725811
1004.304688,4.576913,-3.367803,4.761206,1.817101
1004.308594,6.289912,6.696302,-1.266605,8.525547
1004.312500,3.732488,5.794471,10.285476,6.785262
1004.316406,11.132742,7.526856,7.439641,14.832642
1004.320312,14.743246,11.071186,12.454326,11.682575
1004.324219,13.965889,16.837095,4.731737,11.567906
1004.328125,9.200196,8.377545,13.100858,6.606178
1004.332031,12.334497,2.932043,11.415764,14.919405
1004.335938,6.159553,15.993326,18.768560,9.461118
1004.339844,14.629197,-0.998777,5.556627,6.438431
1004.343750,2.563550,6.835247,5.545141,5.021205
1004.347656,1.430609,-1.762261,3.641373,4.244911
1004.351562,-8.222125,-2.352127,-8.560196,7.650840
1004.355469,-2.486218,-1.462214,-8.619648,-3.595434
1004.359375,-3.765513,-12.001862,-4.676973,-12.028869
1004.363281,-3.982842,-6.241094,-8.709645,-0.915351
1004.367188,-4.963090,-5.097427,-3.997103,-8.130354
1004.371094,-9.686142,-6.194743,-6.574134,-9.364838
1004.375000,-14.259814,-13.527384,-4.839175,-8.948768
1004.378906,-13.143213,-1.499742,-9.719922,-9.986480
1004.382812,-12.740011,-14.287856,-4.597920,-7.341436
1004.386719,-6.301994,-13.603816,-7.930348,-13.494965
1004.390625,1.290144,-5.552244,-0.841388,2.425366
1004.394531,-1.825761,-2.354252,-1.468036,-4.077248
1004.398438,3.689011,4.946725,-2.080522,-0.752720
1004.402344,7.575603,-1.963909,0.037866,6.911725
1004.406250,3.867257,1.623339,0.334703,13.856443
1004.410156,-0.907630,5.586794,8.153988,13.512180
1004.414062,7.049801,12.417183,14.931344,9.157403
1004.417969,11.754012,8.707769,3.989109,5.876779
1004.421875,12.466318,8.743801,13.700712,4.788860
1004.425781,18.071254,15.056546,15.326153,11.883611
1004.429688,11.016558,9.569544,6.091954,5.941698
1004.433594,5.374369,9.904655,15.274782,13.280421
1004.437500,12.587332,5.180454,13.596051,3.031605
1004.441406,3.087189,6.344486,6.124348,4.067552
1004.445312,-0.356760,2.944940,-2.200714,-2.745326
1004.449219,-3.397143,-1.287231,-6.245287,4.099024
1004.453125,4.385717,-1.282453,-1.177008,4.316208
1004.457031,-12.877930,-9.511795,-4.156213,-3.836115
1004.460938,-5.020060,-3.155311,-11.724784,-14.166357
1004.464844,-4.166376,-4.592517,-10.555106,-9.162092
1004.468750,-5.776838,-7.121654,-3.639045,-20.036073
1004.472656,-4.754003,-6.721976,-7.946256,-9.418577
1004.476562,-13.250354,-12.323360,-11.238331,-11.907730
1004.480469,-8.584060,-20.892414,-12.030601,-10.081307
1004.484375,-3.179587,-2.884503,-19.807444,-5.768396
1004.488281,-7.079650,-2.616886,-3.711155,-9.654284
1004.492188,-1.813851,-5.937955,3.401309,-1.394753
1004.496094,-2.482696,-2.554910,1.512207,5.283187
1004.500000,2.535406,2.161311,-3.269374,4.344537
1004.503906,1.098475,2.802599,9.766357,5.134911
1004.507812,2.777357,2.797930,4.245192,-7.264572
1004.511719,8.836832,9.006342,13.530822,6.131150
1004.515625,4.770849,7.461597,5.189126,13.954822
1004.519531,17.529272,10.636825,11.053983,7.861628
1004.523438,19.079074,6.307789,11.440499,8.594483
1004.527344,8.451027,5.395913,12.444176,7.155080
1004.531250,7.370957,13.246157,8.940947,13.256827
1004.535156,10.367273,3.861910,4.388228,10.299027
1004.539062,8.485334,6.302659,4.467066,16.747445
1004.542969,2.188029,-0.866331,7.640725,10.278813
1004.546875,4.544040,3.951232,5.350212,1.744183
1004.550781,-3.192578,-2.624348,-0.193907,-3.894591
1004.554688,-3.201738,-5.278783,-8.326176,-2.432506
1004.558594,-9.674856,-4.709642,-2.608733,-14.485842
1004.562500,-3.977556,-6.910908,-11.276320,-9.968372
1004.566406,-8.698744,-10.273004,-10.565529,-8.425488
1004.570312,-14.885168,-18.545166,-7.991403,-12.896034
1004.574219,-10.042896,-3.324650,-7.669908,-6.890345
1004.578125,-11.714801,-7.603283,-15.898625,-5.937606
1004.582031,-6.325787,-12.602334,-12.224755,-3.434984
1004.585938,-8.723741,-7.607010,-18.979114,-12.255421
1004.589844,-8.726880,-10.990315,-8.667792,-4.832651
1004.593750,-6.092975,-16.233786,0.772929,2.176114
1004.597656,-7.212660,-4.842593,-0.197543,1.054772
1004.601562,-2.308819,1.819624,6.152553,4.472213
1004.605469,7.692600,4.245521,6.770372,2.239799
1004.609375,10.003008,1.947858,-2.464582,11.849397
1004.613281,10.842191,3.117339,9.709708,5.619664
1004.617188,16.949460,14.393787,5.373681,15.386156
1004.621094,10.910005,11.998871,14.090578,12.603055
1004.625000,10.883265,9.638668,10.153746,9.871969
1004.628906,9.361178,12.010001,9.643543,9.689434
1004.632812,8.164421,9.201573,6.965002,15.696771
1004.636719,2.219645,6.290519,10.255676,16.540811
1004.640625,4.450726,4.553844,0.381170,8.350343
1004.644531,1.014096,3.842516,7.230463,1.827696
1004.648438,3.633328,4.870497,-3.262677,3.163248
1004.652344,4.985106,-0.357593,6.934368,-2.789776
1004.656250,-5.309921,-3.001669,2.190248,-4.682337
1004.660156,-3.706815,-6.058785,-11.357628,-6.301452
1004.664062,-6.346811,-3.991793,-5.177042,-5.489827
1004.667969,-11.146559,-13.840453,-9.296064,-6.203130
1004.671875,-16.015120,-5.430002,-9.198175,-9.298427
1004.675781,-9.487936,-14.195570,-9.543713,-10.945717
1004.679688,-14.603197,-5.420763,-9.300585,-7.857553
1004.683594,-15.328688,-7.944759,-11.792583,-7.025636
1004.687500,-4.495497,-11.600530,-11.021878,-6.919265
1004.691406,-10.855462,-11.421373,-11.459270,-10.595584
1004.695312,-1.334294,-3.450548,1.671619,-3.683370
1004.699219,0.882195,3.844108,1.141589,2.077413
1004.703125,-3.684160,7.925327,0.807538,-5.247430
1004.707031,1.780930,6.492421,2.953296,-0.669390
1004.710938,5.836768,8.315655,5.586611,8.654384
1004.714844,11.906238,4.508158,10.863255,4.033850
1004.718750,11.696809,11.924708,12.585101,8.528174
1004.722656,12.184300,18.240607,7.107361,8.848358
1004.726562,9.954152,16.334946,15.493288,11.546297
1004.730469,12.330333,9.750216,10.960244,15.757771
1004.734375,7.185491,7.068777,7.952947,9.374013
1004.738281,10.256217,4.932354,5.734717,10.288724
1004.742188,2.482588,3.799765,-3.072403,6.886337
1004.746094,11.758036,6.933277,-0.071251,-2.291581
1004.750000,-2.867093,-3.598890,7.149197,-1.738375
1004.753906,-3.028706,0.708867,-6.701137,0.383418
1004.757812,-0.060586,-8.412365,-5.254860,-1.690596
1004.761719,-18.678829,-6.626918,-16.299402,-6.856647
1004.765625,0.579489,-0.664166,-9.198434,-7.283098
1004.769531,-12.302048,-8.788541,-14.595647,-6.309731
1004.773438,-12.895366,-9.808674,-2.728826,-12.923508
1004.777344,-12.314733,-18.153600,-10.527720,-5.571475
1004.781250,-11.647340,-7.846188,-17.528243,-4.236203
1004.785156,-5.758060,-6.911608,-8.962617,-2.929889
1004.789062,-3.001261,-6.513432,-15.887537,-0.140460
1004.792969,-5.684945,-3.961767,-6.423427,-3.530530
1004.796875,1.920558,-3.094113,-4.866564,6.445410
1004.800781,-3.326145,3.760922,-1.004597,-4.391061
1004.804688,7.838470,-8.543522,-0.398851,-1.336925
1004.808594,8.453038,5.964201,10.291304,7.964052
1004.812500,6.976619,3.243591,10.653362,6.100782
1004.816406,4.953865,4.147779,6.768491,13.819406
1004.820312,1.391496,13.434836,0.960254,14.311448
1004.824219,12.169020,17.685002,11.784003,17.281880
1004.828125,6.817988,10.373422,6.186221,9.570537
1004.832031,10.311052,8.581055,9.401000,13.752659
1004.835938,4.738565,5.725003,4.507919,12.032352
1004.839844,6.359039,0.962733,6.468823,6.242346
1004.843750,4.333456,-0.428686,5.603650,6.499513
1004.847656,0.643849,11.926179,4.061028,-3.281703
1004.851562,-5.257137,-2.284948,-0.297080,-0.673694
1004.855469,1.321726,-1.900088,-1.049943,-10.658374
1004.859375,-1.229878,-7.890511,-5.222671,-9.380199
1004.863281,0.101865,-11.987003,-8.101104,-11.136682
1004.867188,-12.172097,-6.806690,-6.045918,-5.311997
1004.871094,-6.620301,-11.897418,-10.859330,-11.797782
1004.875000,-12.808130,-14.478774,-0.876992,-10.766365
1004.878906,-14.269822,-3.744999,-7.509698,-14.415633
1004.882812,-3.438891,-9.590116,-9.729703,-8.733566
1004.886719,-6.297105,-7.279014,-1.976257,-5.021849
1004.890625,1.571770,-8.725730,-8.725719,-2.614755
1004.894531,-10.419694,-2.797739,-0.567451,-6.009412
1004.898438,-0.621937,0.170081,0.921614,-4.155648
1004.902344,2.529719,-1.177485,5.459189,1.375400
1004.906250,1.856157,4.560143,-1.574405,2.130698
1004.910156,12.237060,7.321078,0.447572,4.520745
1004.914062,0.095920,0.075224,9.983375,8.247914
1004.917969,8.832734,7.246870,14.113776,7.147588
1004.921875,15.000349,11.711696,15.408262,7.373126
1004.925781,10.250761,9.488399,10.591560,4.769996
1004.929688,10.691106,14.002059,1.738424,13.800238
1004.933594,1.985458,5.381345,4.271824,13.874413
1004.937500,10.633589,6.022542,2.691770,8.603936
1004.941406,5.306596,1.738650,3.158979,6.541806
1004.945312,0.029459,8.950679,12.606097,1.249503
1004.949219,-2.655009,1.115872,-2.557556,5.901720
1004.953125,3.243927,-3.344399,-3.828211,-3.517894
1004.957031,-7.701812,-7.652734,-8.785987,-2.681304
1004.960938,-15.810476,-4.361151,-4.484104,-4.563724
1004.964844,-11.420295,-14.355358,-2.443047,-12.482169
1004.968750,-12.682127,-15.860827,-6.379769,-10.499332
1004.972656,-5.380207,-12.969870,-11.371611,-11.718135
1004.976562,-18.765846,-12.411803,-12.862067,-5.546493
1004.980469,-12.622946,-7.320150,-3.176366,-5.248647
1004.984375,-8.959735,-11.041919,-5.877909,-6.470594
1004.988281,-5.046309,-8.775794,-9.445853,0.314521
1004.992188,-3.777885,-5.211265,-1.972172,-5.879354
1004.996094,-9.283073,-1.060437,-9.185934,-1.618358
1005.000000,4.514183,-7.271265,3.696671,-2.147550
1005.003906,6.271896,3.182345,1.361099,1.293889
1005.007812,5.396594,13.207687,4.809445,4.803625
1005.011719,3.821902,7.381229,8.791994,10.057711
1005.015625,7.851949,10.404927,7.040269,12.690020
1005.019531,11.708473,13.668222,14.758108,7.279358
1005.023438,7.496171,6.903485,5.732347,14.810379
1005.027344,16.297732,8.691166,12.078077,8.644149
1005.031250,11.904729,8.051317,11.888693,12.600113
1005.035156,9.747103,6.513908,10.763187,7.658459
1005.039062,12.965514,6.898286,12.043596,10.485703
1005.042969,10.352519,1.477728,4.344549,3.622351
1005.046875,4.813073,-0.796170,-0.923347,-2.951473
1005.050781,1.384186,2.866562,6.132562,-5.820203
1005.054688,5.795242,-2.033491,-1.335952,0.049294
1005.058594,-11.004751,-3.704689,-1.500222,-3.146103
1005.062500,-10.096848,-4.335993,-2.862296,-11.151342
1005.066406,-17.678182,-8.427635,-12.313033,-5.503135
1005.070312,-7.257717,-15.364412,-6.773401,-7.421712
1005.074219,-8.620982,-6.798409,-11.829944,-2.696490
1005.078125,-4.511601,-6.091244,-7.928092,-7.087042
1005.082031,-12.618182,-7.790158,-9.090677,-3.871399
1005.085938,-12.565195,-0.193170,-13.025027,-12.600381
1005.089844,-7.951159,-9.842942,-3.170354,-4.397616
1005.093750,-9.717000,-0.676349,-0.872175,-8.081540
1005.097656,5.234762,-6.783160,0.731077,5.940023
1005.101562,-0.877980,1.191986,6.418203,4.342818
1005.105469,9.886353,0.346236,-1.306787,4.893234
1005.109375,7.200868,6.166671,6.088929,9.145450
1005.113281,1.255352,4.079830,9.773864,6.483912
1005.117188,7.912560,13.947143,-1.292228,7.878440
1005.121094,8.200764,8.285718,8.200627,1.754061
1005.125000,8.952829,6.471008,12.663521,9.620400
1005.128906,16.337574,9.486285,3.845211,7.874408
1005.132812,6.086808,10.813220,11.071296,3.365532
1005.136719,1.009242,2.553390,12.104248,2.624296
1005.140625,3.514260,6.739649,5.107807,1.917228
1005.144531,8.466141,4.928073,1.767588,2.481547
1005.148438,-4.317788,5.764847,-0.994015,-5.638178
1005.152344,-2.987214,2.568689,-2.916999,-1.901528
1005.156250,-4.662558,-8.082330,-3.299517,-4.387189
1005.160156,-8.834918,-13.976237,-7.803952,-9.036742
1005.164062,-9.114101,-14.921009,-7.709201,-4.148871
1005.167969,-16.069375,-9.947890,-5.484951,-8.941559
1005.171875,-12.691749,-16.543530,-4.829908,-14.563565
1005.175781,-5.635672,-8.674439,0.740093,-7.576802
1005.179688,-8.168174,-13.625681,-5.050799,-7.610176
1005.183594,-8.366160,-1.604823,-9.769020,-3.717011
1005.187500,-9.343160,-9.834747,-10.312911,-7.652895
1005.191406,-3.796317,-5.087039,-4.135470,-2.211571
1005.195312,-6.577305,-1.517671,0.349738,2.002038
1005.199219,-2.226458,-1.597862,-2.205631,1.278806
1005.203125,7.344181,-0.829825,-5.953793,-1.472130
1005.207031,4.199899,4.258307,4.597489,1.450074
1005.210938,6.333596,9.770424,6.361013,11.026258
1005.214844,18.166255,0.594654,7.892830,12.629473
1005.218750,3.529719,5.770124,15.753959,4.559094
1005.222656,8.791052,16.350769,1.091428,11.769822
1005.226562,8.947258,15.199490,9.622053,2.771805
1005.230469,11.088933,7.659809,7.215039,6.522032
1005.234375,4.318275,6.053099,5.809777,6.346151
1005.238281,7.089584,10.122222,5.141436,14.560602
1005.242188,2.197524,-1.321625,3.125442,4.271381
1005.246094,0.546871,3.695666,0.102988,-5.832266
1005.250000,-0.955612,2.247089,1.065185,-3.116509
1005.253906,-1.903545,-1.404755,-6.887518,-8.141309
1005.257812,-9.410390,-7.956626,-9.269431,-1.041220
1005.261719,-5.946468,-7.052425,-7.486573,-4.285259
1005.265625,-11.431193,-3.853421,-7.433892,-6.882604
1005.269531,-12.924095,-7.987382,-16.397794,-7.645397
1005.273438,-9.066973,-6.121773,-16.926298,-12.021089
1005.277344,-13.553464,-13.861775,-6.430172,-8.736637
1005.281250,-12.578639,-7.824886,-8.022989,-9.466540
1005.285156,-4.270414,-9.551417,-12.473874,-7.364573
1005.289062,-4.596685,-3.312394,-11.435186,-7.245617
1005.292969,-9.886466,-9.166637,2.862818,-12.564974
1005.296875,-4.646382,-4.800726,-1.767788,-5.336153
1005.300781,4.887152,0.431547,-2.058601,3.385001
1005.304688,12.094044,-3.821358,1.505653,-3.374661
1005.308594,11.884543,6.474341,1.012270,6.788189
1005.312500,10.336931,9.970332,9.436532,8.332370
1005.316406,4.814544,17.779986,9.857633,14.884674
1005.320312,7.718042,15.579371,8.863143,11.889411
1005.324219,6.591324,8.051376,12.095918,13.410818
1005.328125,7.272704,17.284923,8.923141,12.314196
1005.332031,-0.201868,10.556096,4.813249,11.062130
1005.335938,12.425484,3.827178,12.015916,8.346069
1005.339844,11.747984,-2.415943,5.258152,0.285262
1005.343750,9.059040,5.309001,3.738601,0.399518
1005.347656,6.416319,-1.543113,7.535490,-1.577360
1005.351562,1.317692,1.159114,-2.964165,1.452359
1005.355469,-4.385953,2.234532,-9.756617,-2.721302
1005.359375,-7.132124,-4.061539,-1.473129,-5.364221
1005.363281,-6.540252,-0.853857,-11.854261,-8.055851
1005.367188,-15.923340,-2.562680,-9.813155,-18.588573
1005.371094,-16.830198,-10.940058,-9.601428,-14.173785
1005.375000,-9.485003,-8.757134,-12.550636,-8.458055
1005.378906,-6.266776,-6.430837,-11.478292,-13.537817
1005.382812,1.556646,-11.809123,-9.292506,-9.913372
1005.386719,-4.628467,-8.582376,-10.010031,-7.719040
1005.390625,0.409702,-3.503025,-2.952179,-7.925239
1005.394531,-5.194919,-3.236650,-0.398099,-0.613428
1005.398438,-4.753308,-6.984904,2.162218,-0.390444
1005.402344,1.897582,1.817451,0.657725,1.158634
1005.406250,5.483181,2.298597,-0.572451,1.354838
1005.410156,13.110861,3.774743,2.814085,8.894101
1005.414062,9.693191,11.430083,11.027223,7.015304
1005.417969,4.404527,-0.275974,6.095550,13.879692
1005.421875,10.124688,1.861556,10.586007,11.647702
1005.425781,9.291850,12.073201,6.972818,9.912028
1005.429688,4.924933,6.401821,11.525246,10.208373
1005.433594,12.645383,6.018569,13.516669,14.103750
1005.437500,-1.964411,10.597422,11.287367,8.991960
1005.441406,3.109888,7.267304,7.616412,4.187533
1005.445312,1.576484,5.140078,0.983935,6.887237
1005.449219,-1.056751,-4.696356,-4.914705,-3.655145
1005.453125,-10.682245,1.417274,-3.682918,-1.516700
1005.457031,-3.765754,-4.814565,-4.890646,-3.844974
1005.460938,-8.710264,-4.383066,-14.216227,-16.113424
1005.464844,-8.468412,-11.925863,-6.917817,-4.495863
1005.468750,-12.377643,-10.861086,-7.474817,-13.749239
1005.472656,-18.052255,-1.929724,-8.439289,-1.864432
1005.476562,-6.661546,-8.380805,-12.206762,-5.170547
1005.480469,-4.361358,-11.780481,-8.491848,-9.068711
1005.484375,-5.340009,-1.422004,-0.810330,-11.655016
1005.488281,-8.733385,-9.186819,-7.833646,-0.714665
1005.492188,-5.452896,-5.562914,-4.495111,-4.985446
1005.496094,3.969179,6.225459,-7.399304,8.487085
1005.500000,-1.929947,-4.071492,-0.558609,4.822523
1005.503906,1.919707,3.071413,-3.264024,1.120151
1005.507812,5.337684,6.414057,0.248305,0.708053
1005.511719,5.457201,5.776156,3.376267,11.763802
1005.515625,11.481558,10.027760,11.154924,0.671593
1005.519531,14.003945,5.746891,6.529795,12.693766
1005.523438,11.470271,13.401031,17.297312,16.970812
1005.527344,7.573031,6.579098,11.141027,9.720216
1005.531250,9.224973,6.184918,11.625143,6.831796
1005.535156,11.713617,11.677259,10.584003,3.995068
1005.539062,2.350316,7.621540,4.470369,5.404150
1005.542969,12.034825,5.948801,10.229413,6.321049
1005.546875,6.966558,-0.726804,4.259009,5.757301
1005.550781,-8.620653,0.662833,0.638200,-4.942504
1005.554688,-9.923918,4.900913,-1.549286,-7.504963
1005.558594,-6.343798,-3.963243,-7.688543,-1.005014
1005.562500,-7.208129,-8.815166,-7.772115,-2.891664
1005.566406,-10.952872,-6.932061,-18.843862,-7.178404
1005.570312,-11.028172,-10.280857,-7.760699,-6.812770
1005.574219,-5.076098,-8.693102,-12.817015,-12.401408
1005.578125,-11.416948,-10.934102,-8.059284,-6.756814
1005.582031,-10.903622,-13.479175,-9.320313,-1.215509
1005.585938,-5.816109,3.816732,-0.728108,-5.102740
1005.589844,-6.761672,-13.672620,-5.835368,-9.512251
1005.593750,-0.139110,-2.176210,-6.504289,-1.998766
1005.597656,-10.393241,-9.612233,2.304438,-1.931473
1005.601562,0.178791,3.602393,7.447087,3.234558
1005.605469,6.163843,1.875120,5.075257,1.785575
1005.609375,11.500056,7.491518,5.007878,10.694083
1005.613281,7.545973,16.244356,5.194632,7.558352
1005.617188,0.060704,8.208511,7.294905,11.675526
1005.621094,8.473302,8.331128,12.530989,18.432352
1005.625000,18.513401,4.716424,5.772703,5.104088
1005.628906,11.171392,4.140624,11.551829,11.508388
1005.632812,9.674743,9.305993,13.789774,4.788016
1005.636719,10.355375,4.694963,6.123320,6.718723
1005.640625,8.049752,5.239974,6.794499,1.713729
1005.644531,2.480547,5.955479,1.685345,8.543024
1005.648438,1.696298,4.596434,-2.695433,-1.812950
1005.652344,-4.817612,-2.838137,-4.371774,-2.526232
1005.656250,-4.380017,-3.566757,-2.560407,-3.275140
1005.660156,-8.720300,-5.933163,-10.419506,-4.357920
1005.664062,-8.251986,-5.733089,-14.697043,-5.736712
1005.667969,-11.246557,-4.648798,-11.270745,-14.097757
1005.671875,-4.813050,-12.347797,-4.275770,-8.811502
1005.675781,-8.654275,-11.459654,-4.374548,-1.775569
1005.679688,-11.915037,-9.160686,-10.420455,-18.596514
1005.683594,-2.145422,-9.714758,-12.048768,-7.281607
1005.687500,0.821944,-13.270596,-8.775991,-10.717481
1005.691406,-2.736858,-5.458285,-6.964620,-0.797976
1005.695312,-5.783270,-3.524376,-2.512626,1.041837
1005.699219,-5.844044,-2.738498,-3.140483,-2.298639
1005.703125,3.125182,-2.463429,5.692715,-4.504711
1005.707031,3.845423,4.873539,-2.643908,2.321658
1005.710938,11.060194,4.827986,-4.610054,9.911607
1005.714844,15.269693,6.491488,5.036120,18.689860
1005.718750,5.845034,-2.679933,9.681586,10.871388
1005.722656,11.395767,2.827438,11.059025,5.934371
1005.726562,13.733682,7.304058,10.195537,6.759685
1005.730469,12.473068,12.276506,12.363346,6.762875
1005.734375,5.545639,4.861680,10.603584,7.288825
1005.738281,4.972037,7.239985,5.802327,6.654879
1005.742188,6.071620,10.665216,7.493490,-4.899720
1005.746094,4.305449,3.769663,6.586557,3.599819
1005.750000,-6.840644,-1.629304,0.378654,7.339513
1005.753906,-2.386293,2.523656,-5.890619,-1.358714
1005.757812,-4.502956,-3.031323,-3.046845,6.177130
1005.761719,-0.193896,-4.732363,-11.385723,-5.907198
1005.765625,-11.440639,-7.954271,-6.156213,-6.001187
1005.769531,-9.808163,-8.576933,-8.850112,-9.162609
1005.773438,-0.071500,-1.421656,-18.549568,-14.588609
1005.777344,-7.384609,-8.955569,-10.403094,-6.906973
1005.781250,-7.604469,-14.849035,-2.230721,-9.042875
1005.785156,0.402672,-6.875966,-10.458749,-2.539248
1005.789062,-4.241189,-7.765934,-12.730126,-8.162836
1005.792969,-6.245774,-1.366714,-2.361848,0.566925
1005.796875,-3.274811,1.837384,0.282355,-9.090878
1005.800781,-2.257795,-3.267659,0.560207,4.817255
1005.804688,1.471896,-1.276557,5.021730,4.284360
1005.808594,3.128148,3.601963,7.955884,2.207192
1005.812500,5.226356,16.198098,-1.190439,6.537283
1005.816406,10.026379,6.476607,7.920961,3.219019
1005.820312,4.873263,9.160834,13.052894,12.293821
1005.824219,7.764405,11.800121,11.024897,5.047457
1005.828125,7.723927,18.800471,12.035621,3.242092
1005.832031,8.712171,12.000577,12.695798,2.867370
1005.835938,5.439787,-0.149190,15.248989,12.498516
1005.839844,11.651646,6.236294,6.332253,9.236439
1005.843750,3.405647,-0.844355,8.611903,6.464212
1005.847656,-2.367634,1.263677,0.362263,0.843351
1005.851562,-5.027445,-0.807038,-4.829400,1.632948
1005.855469,-7.063310,-9.418247,-5.279283,-2.129774
1005.859375,-12.861427,-6.279772,1.129411,-0.090290
1005.863281,-4.770914,-2.275822,-12.465649,-4.916988
1005.867188,-2.640530,-7.882731,-2.561637,-9.577891
1005.871094,-15.019817,-13.764280,-17.327464,-11.442685
1005.875000,-16.388416,-11.867473,-16.136969,-10.851953
1005.878906,-10.589460,-10.440589,-6.444004,-10.427542
1005.882812,-4.951917,-7.622015,1.673088,-5.888251
1005.886719,-4.501329,-8.034900,-14.256288,-5.346498
1005.890625,0.956150,-5.697037,-11.596520,-4.447752
1005.894531,-7.155404,-5.716827,-8.975831,0.432000
1005.898438,2.841761,-6.965477,-2.195697,-1.324362
1005.902344,-1.166705,1.691969,9.765010,2.442900
1005.906250,-2.385457,4.153344,1.597101,-2.749875
1005.910156,14.836797,13.925802,3.661372,5.923790
1005.914062,14.502754,8.725753,11.598752,0.941365
1005.917969,4.219835,8.885417,11.420642,11.825114
1005.921875,11.914247,11.447855,7.949177,2.614553
1005.925781,0.736795,4.967332,5.960911,8.778760
1005.929688,9.281254,11.703791,11.705738,12.555452
1005.933594,17.456828,9.087011,6.319330,5.514725
1005.937500,15.769513,-2.127437,7.577849,3.895959
1005.941406,2.642290,5.041034,4.160625,9.251787
1005.945312,1.513101,3.324904,-1.618017,5.350924
1005.949219,-2.892902,-3.288480,-0.755826,0.615491
1005.953125,-8.266163,6.863451,1.288193,-2.634309
1005.957031,-5.788519,-10.502584,-8.225058,-5.288554
1005.960938,-14.990600,-7.823118,-7.828682,-7.295782
1005.964844,-6.910525,-8.957323,-11.996585,-2.484374
1005.968750,-8.453304,-10.206363,-7.729666,-8.565942
1005.972656,-9.078564,-6.759539,-7.246756,-19.293750
1005.976562,-7.618609,-4.552793,-8.240033,-8.788970
1005.980469,-10.595651,-5.645186,-4.200370,-12.223286
1005.984375,-0.435575,-9.065902,-5.849683,-5.105458
1005.988281,-5.028186,5.361911,-7.147158,1.172526
1005.992188,-4.122193,-0.852715,-10.039659,-5.058640
1005.996094,-2.022613,-6.992541,1.199398,-5.177519
1006.000000,-0.245461,12.954594,-2.055878,-1.450866
1006.003906,2.079792,9.898928,6.120670,4.348512
1006.007812,2.480069,4.736116,4.912184,7.674201
1006.011719,0.481928,9.460616,11.917682,3.865584
1006.015625,4.185161,3.441388,8.572954,6.589697
1006.019531,10.283155,2.687095,10.053135,18.673519
1006.023438,13.639915,2.873162,10.950178,7.008938
1006.027344,10.156715,3.216337,4.264941,6.722117
1006.031250,4.637640,0.878887,7.606877,7.545568
1006.035156,7.751048,12.431877,4.726827,12.077415
1006.039062,10.311159,10.371081,9.315178,4.147538
1006.042969,2.283633,3.947512,0.245978,6.471448
1006.046875,10.151910,1.864831,2.275951,3.362506
1006.050781,-3.155523,-1.370932,-2.441925,1.101779
1006.054688,1.609618,-0.179828,2.913467,-6.027099
1006.058594,-5.836021,-7.817808,-5.093220,-14.193159
1006.062500,-16.891732,-8.123460,-1.817210,-6.541154
1006.066406,-11.579950,-7.583822,-12.163896,-19.963508
1006.070312,-9.882271,-8.565175,-13.459014,-12.928762
1006.074219,-17.472145,-7.496183,-10.944293,-8.800028
1006.078125,-10.978101,-10.696930,-12.623222,-6.009534
1006.082031,-0.590173,-4.137433,-11.500817,-13.889361
1006.085938,-15.032868,-8.787429,-13.815397,-3.979645
1006.089844,-5.506910,-5.886046,-12.211208,3.969396
1006.093750,-0.118085,-10.602309,-3.040188,-3.509344
1006.097656,-3.243817,-0.180703,3.501238,-3.840684
1006.101562,-1.746276,0.389129,0.053189,0.135276
1006.105469,0.522562,3.023637,-2.858092,3.666753
1006.109375,4.060738,9.321097,4.948838,4.771016
1006.113281,-1.088630,16.368799,9.621309,3.505877
1006.117188,6.085743,9.035415,3.310930,10.839390
1006.121094,9.952171,9.849813,13.501807,12.150274
1006.125000,11.614362,10.600918,3.975591,7.221149
1006.128906,7.882231,7.353726,13.897994,6.438400
1006.132812,4.194824,5.153117,11.885882,5.506355
1006.136719,10.310275,11.741828,4.231432,9.268924
1006.140625,0.035508,10.664731,8.522179,-0.629254
1006.144531,2.402253,-1.256524,-0.853918,-1.479525
1006.148438,7.049273,1.564758,-6.236249,2.993188
1006.152344,3.167534,-1.857295,3.132548,-8.920490
1006.156250,-5.157590,2.575537,-3.179695,-9.144387
1006.160156,-7.710534,-8.339576,-8.181225,-8.092784
1006.164062,-8.854093,-15.704412,-11.065525,-5.215184
1006.167969,-12.538575,-9.641904,-8.290926,-2.751039
1006.171875,-14.945661,-5.349653,-6.752214,-13.141837
1006.175781,2.603138,-6.876999,-12.429846,-10.724481
1006.179688,-5.545182,-9.815250,-3.803009,-15.577288
1006.183594,-5.686124,-6.773331,-13.791412,-11.779343
1006.187500,-11.321099,-10.566105,-8.750398,-8.950589
1006.191406,-2.491051,1.009516,-8.877901,-0.991059
1006.195312,-6.075820,-5.843611,-3.619133,0.978085
1006.199219,0.760810,5.934649,-2.100675,1.834262
1006.203125,3.662264,2.545417,1.351863,1.991502
1006.207031,3.155708,2.575716,6.825535,6.299921
1006.210938,11.115159,6.850531,3.658041,11.717656
1006.214844,5.893200,9.542042,6.186208,11.882359
1006.218750,11.805127,12.064715,12.277737,3.715123
1006.222656,11.520227,-1.800435,6.329219,10.340858
1006.226562,17.209073,14.231727,3.157280,10.618990
1006.230469,4.279833,10.690583,11.344031,7.696176
1006.234375,2.875267,6.320654,6.523930,8.706604
1006.238281,4.089722,3.182034,14.453481,10.741829
1006.242188,4.667223,4.789361,5.585856,5.936567
1006.246094,7.690553,3.990328,5.469345,2.671952
1006.250000,-4.051387,2.524161,-2.289440,-0.470439
1006.253906,-0.042259,-6.054913,-6.701290,-3.920351
1006.257812,-6.062633,-3.391781,-1.937815,-1.542189
1006.261719,-11.381804,0.984298,-3.697276,-9.882637
1006.265625,-6.949125,-11.200951,-12.178563,-6.820747
1006.269531,-14.249402,-1.140203,-14.595631,-4.648293
1006.273438,-11.325695,-12.276684,-9.879280,-6.388669
1006.277344,-17.261465,-10.050602,-16.997595,-15.506890
1006.281250,-10.517909,-2.317911,-8.823832,-7.725549
1006.285156,-10.364938,-4.214239,-13.813409,-6.922056
1006.289062,-8.298453,0.723411,-5.303255,-8.364044
1006.292969,-4.978104,-10.623654,-10.047672,-6.969573
1006.296875,-5.049741,4.303724,-1.270911,6.442192
1006.300781,5.060254,0.885144,4.664513,-6.283859
1006.304688,3.373970,-0.836946,-2.357891,-2.397548
1006.308594,-3.078514,2.303638,8.168419,6.312545
1006.312500,10.983843,1.085024,11.600313,4.488433
1006.316406,14.655277,12.121555,7.622849,7.479175
1006.320312,14.919077,12.881495,6.142061,9.630479
1006.324219,7.731967,13.013014,12.171974,4.711069
1006.328125,7.575977,13.640247,10.015806,7.889036
1006.332031,14.584122,4.942809,10.281311,4.624134
1006.335938,9.812190,10.375978,10.374648,7.208574
1006.339844,8.910919,5.487865,9.855620,7.593138
1006.343750,-6.078534,1.036542,4.216816,2.429751
1006.347656,1.121117,-1.127064,-4.033973,7.572449
1006.351562,-5.819420,2.391901,-8.952996,0.150327
1006.355469,1.587982,-2.554242,1.373749,0.964391
1006.359375,-4.219785,-11.615691,-9.964720,-8.340259
1006.363281,-7.567031,-7.752325,-5.598227,-8.606254
1006.367188,-14.051050,-12.393565,-5.669192,-11.497969
1006.371094,-7.514417,-11.025500,-6.767962,-10.997864
1006.375000,-5.361763,-2.672933,-10.409312,-3.798970
1006.378906,-9.277301,-13.825865,-2.179986,-11.148174
1006.382812,-14.725859,-9.902562,-5.817179,-9.057180
1006.386719,-11.071832,-2.990112,-2.612950,-6.803058
1006.390625,-2.754903,-6.573361,-4.110040,0.547943
1006.394531,-5.090298,2.369340,-4.790832,-7.055537
1006.398438,-0.934653,-2.734406,0.347118,-5.998395
1006.402344,-3.727867,-3.571705,0.429141,-5.760821
1006.406250,4.152988,4.035474,10.253198,8.652656
1006.410156,3.707781,6.732840,2.888629,2.291990
1006.414062,14.528371,9.453909,4.480230,8.024791
1006.417969,14.907665,9.333496,11.697796,14.287645
1006.421875,11.368133,10.122236,12.133081,7.152198
1006.425781,12.344168,14.315907,9.742140,13.207947
1006.429688,6.421652,13.229680,10.801601,8.624876
1006.433594,12.921350,14.525255,7.158572,14.577591
1006.437500,11.151786,-0.962740,8.900060,5.536533
1006.441406,4.796484,7.322497,6.685603,3.893739
1006.445312,-5.392201,8.714528,-2.947835,-2.980373
1006.449219,-0.342814,-0.466862,-3.324931,0.177268
1006.453125,-3.626938,-4.477201,2.542304,-2.504676
1006.457031,-1.577962,-2.101520,-8.843296,5.168018
1006.460938,-2.321738,-6.947808,-9.720640,-5.514229
1006.464844,-10.462877,-4.880971,-11.001222,-7.049832
1006.468750,-10.046966,-14.235524,-9.753482,-16.039050
1006.472656,-4.768357,-10.000500,-8.997371,-11.389442
1006.476562,-9.956710,-7.329258,-7.178316,-6.743274
1006.480469,-4.151883,-10.373417,-18.213043,-12.713169
1006.484375,-2.381979,-7.409952,-7.401600,-6.211139
1006.488281,-2.439377,-4.550201,-5.310211,-8.572416
1006.492188,-1.302684,-2.733568,-0.359777,3.644886
1006.496094,-1.815365,0.559334,-7.015850,-3.950317
1006.500000,1.080853,-8.830146,-1.935079,-7.839867
1006.503906,4.011839,0.962161,4.043798,-1.709227
1006.507812,-3.894170,5.620328,4.156200,3.124364
1006.511719,10.563580,-4.353524,16.984358,6.061156
1006.515625,6.560008,6.818673,4.463252,13.846014
1006.519531,4.443701,9.709574,8.804734,11.867774
1006.523438,0.586559,13.199628,8.416621,10.724992
1006.527344,1.070064,16.967714,14.182985,8.996390
1006.531250,3.868997,9.812831,7.587885,12.605563
1006.535156,2.479016,3.935869,12.311624,5.035282
1006.539062,4.704062,7.114372,7.178777,3.667754
1006.542969,1.673793,4.266033,1.408465,6.991791
1006.546875,-1.159377,2.149514,4.437128,-1.415159
1006.550781,5.311091,6.605695,4.085680,1.940364
1006.554688,-6.679281,-2.373732,0.694703,0.832768
1006.558594,-1.496126,0.346221,-12.177407,-2.150699
1006.562500,-7.220111,-6.588902,-4.757550,-3.670497
1006.566406,-8.900279,-9.730027,-10.398591,-3.196121
1006.570312,-9.153805,-4.253778,-9.638794,-15.686969
1006.574219,-15.082966,-12.851775,-17.036739,-11.534154
1006.578125,-8.392990,-8.260919,-19.984166,-15.282903
1006.582031,-11.582059,-13.281105,-11.336740,-16.333954
1006.585938,-10.860682,-16.619194,-17.322245,-8.072679
1006.589844,-5.422609,-4.829030,-12.723616,-11.375614
1006.593750,-5.966062,-3.624982,-7.180960,-1.006336
1006.597656,-3.634107,-2.725388,-1.482633,1.934483
1006.601562,6.419304,-3.188077,5.791028,1.802416
1006.605469,6.370662,2.295166,3.573508,2.773386
1006.609375,16.335336,10.811594,3.539649,10.207304
1006.613281,10.045111,-0.799388,10.779379,4.956180
1006.617188,5.120613,17.521877,11.768483,7.586864
1006.621094,9.156256,8.779685,20.649537,9.691259
1006.625000,13.837806,17.949525,6.686277,13.695559
1006.628906,9.379314,9.991543,3.822321,4.925540
1006.632812,14.310799,6.639965,10.829540,13.537342
1006.636719,16.950373,-0.456654,13.459527,9.271630
1006.640625,5.673913,7.097669,7.929951,7.348742
1006.644531,9.739220,-3.333058,12.080557,7.960130
1006.648438,10.175004,-0.500429,-1.365463,0.940509
1006.652344,-6.045286,-5.177119,-8.420509,0.994183
1006.656250,-6.635793,-12.687563,-7.717728,-3.660943
1006.660156,-7.422449,-8.500003,-7.935338,-1.084152
1006.664062,-5.137806,-8.660216,-5.450888,-9.409504
1006.667969,-8.417344,-9.938289,-9.488609,-10.094498
1006.671875,-11.878473,-16.323527,-7.679495,-11.639194
1006.675781,-12.944605,-11.205023,-8.828407,-9.206359
1006.679688,-8.620804,-9.783089,-12.524207,-5.342173
1006.683594,-6.989907,-3.978665,-10.824040,-6.429379
1006.687500,-5.735583,-10.167262,-7.782716,-7.213952
1006.691406,-12.969100,-2.159308,-5.583569,-2.338860
1006.695312,0.460719,-5.265083,-2.003335,-2.632660
1006.699219,-5.997218,-3.063761,-3.416383,2.227921
1006.703125,-2.972737,8.060022,-2.545877,-0.795444
1006.707031,5.317710,1.264756,7.289245,9.784283
1006.710938,0.443985,2.098546,2.956767,5.698713
1006.714844,3.151533,1.435526,7.448580,11.831575
1006.718750,7.567453,9.763382,3.948179,15.176962
1006.722656,8.701653,12.398878,17.796925,17.366284
1006.726562,5.400681,7.487991,9.709155,3.453674
1006.730469,10.360810,0.002157,17.766525,7.084429
1006.734375,4.768943,6.360082,6.379482,9.488845
1006.738281,10.531659,7.961712,-2.009323,16.390814
1006.742188,5.629151,3.132465,3.986428,-3.541984
1006.746094,2.276666,3.863423,9.535706,9.872669
1006.750000,-3.334296,1.724321,0.200760,0.697805
1006.753906,0.872260,-5.378974,-2.385799,-0.850495
1006.757812,-9.941473,-3.429785,-2.360527,-3.006584
1006.761719,-6.165226,-4.120189,-8.666380,-2.050425
1006.765625,-12.524494,-7.668497,-8.029416,-9.735136
1006.769531,-4.718926,-8.446416,-9.136183,-15.205397
1006.773438,-13.488050,-11.151250,-11.445329,-8.667913
1006.777344,-2.661648,-10.319839,-16.223608,-8.365585
1006.781250,-6.879516,-7.441318,-13.185833,-9.391524
1006.785156,-15.272636,-7.835453,0.198325,-13.204605
1006.789062,-7.277415,-4.364093,0.303502,-8.076330
1006.792969,-4.750401,-5.220344,-7.658377,-5.631660
1006.796875,-5.327649,-0.681068,-5.522454,0.588241
1006.800781,6.679366,-0.864604,-0.051492,5.397411
1006.804688,3.176783,-4.432590,-2.933396,7.367521
1006.808594,-1.018283,2.462052,-4.682467,3.924574
1006.812500,9.445950,3.729911,5.327380,11.600865
1006.816406,12.667104,9.069458,15.124424,9.285799
1006.820312,5.746448,10.064804,8.225107,21.944793
1006.824219,7.261619,13.232838,12.349609,12.241585
1006.828125,10.563150,14.761916,13.622159,11.465512
1006.832031,9.293466,7.678286,7.312108,6.037012
1006.835938,9.459055,8.204654,9.692754,6.658986
1006.839844,2.963226,-1.868781,0.328141,0.136541
1006.843750,0.419425,11.280703,3.181758,4.562440
1006.847656,2.487523,-2.201447,3.669564,2.467116
1006.851562,3.827223,0.009804,2.863710,4.191364
1006.855469,2.347627,4.047964,0.025757,-8.835404
1006.859375,-12.879750,-2.244861,1.437543,-2.556796
1006.863281,-10.822916,-10.321353,-9.049498,-3.360445
1006.867188,-9.658484,-9.463174,-10.461844,-7.541562
1006.871094,-14.018361,-4.512448,-14.462296,-13.493581
1006.875000,-12.066264,-11.713862,-7.655180,-6.708079
1006.878906,0.075075,-4.542116,-6.374183,-11.810783
1006.882812,-4.355609,-10.832043,-8.479947,-12.120610
1006.886719,-11.106813,-5.571995,-13.132726,-6.992399
1006.890625,-2.520129,-2.693132,-13.033345,-5.004225
1006.894531,-3.818045,3.568868,0.676206,-0.321673
1006.898438,-3.232900,-8.759699,-1.077847,0.684320
1006.902344,-4.979836,2.789344,-0.559227,7.171298
1006.906250,9.464568,1.534270,1.564560,-0.837765
1006.910156,3.625381,5.306389,7.156119,9.841947
1006.914062,7.121086,-1.122449,10.177676,2.750317
1006.917969,6.145255,12.318505,3.371476,1.554618
1006.921875,10.622723,9.780476,11.233399,11.227482
1006.925781,9.601209,14.029605,13.005743,24.017309
1006.929688,10.569808,12.188058,5.310132,6.462669
1006.933594,6.675622,7.280671,14.395402,8.457543
1006.937500,5.940535,9.039358,8.703772,14.236563
1006.941406,7.837003,-0.043983,5.612958,13.224760
1006.945312,17.073693,1.717833,0.886892,7.019883
1006.949219,-4.225459,-3.974974,-0.150697,-2.623424
1006.953125,-3.862712,-2.993333,-1.228671,-5.253579
1006.957031,-7.434012,-6.897138,-5.343535,-4.174441
1006.960938,-8.406066,-3.654602,-6.769630,-3.308900
1006.964844,-20.510833,-10.661840,-7.703477,-8.023939
1006.968750,-8.961341,-10.333676,-10.976109,-9.622558
1006.972656,-17.743088,-6.304750,-9.214982,-15.432631
1006.976562,-8.690359,-17.242595,-5.123708,-11.377937
1006.980469,-11.444873,-8.687106,-10.672963,-13.419650
1006.984375,-12.205403,-14.908323,-11.259266,-13.828174
1006.988281,-3.563136,-9.016522,-6.503788,-11.878440
1006.992188,-3.345025,-0.022406,-9.569307,-2.531411
1006.996094,-2.976005,-7.163863,0.072862,-1.374602
1007.000000,-0.217413,1.107919,1.784275,-9.043851
1007.003906,11.952508,10.195055,-0.172530,6.235994
1007.007812,9.509378,-1.131391,8.040252,-0.081675
1007.011719,8.563967,0.775191,4.266204,8.333233
1007.015625,6.624734,8.817650,10.948331,14.945505
1007.019531,14.333137,25.101890,7.763712,9.013255
1007.023438,11.187695,11.715004,17.951325,7.231450
1007.027344,4.683581,12.024332,8.923358,14.959273
1007.031250,2.283472,3.701536,13.431134,10.438158
1007.035156,3.774821,7.778978,9.917572,6.514397
1007.039062,5.067086,2.426082,4.088269,2.981654
1007.042969,3.089209,4.860389,9.366659,5.820237
1007.046875,5.144378,0.051288,-0.878661,1.697240
1007.050781,-0.449623,-3.946381,0.992157,4.613263
1007.054688,-5.318982,-2.164678,2.018072,-7.604827
1007.058594,-3.662814,-8.162964,-0.842962,-9.256725
1007.062500,-9.137164,-11.803796,-5.856198,-12.432123
1007.066406,-9.051449,-13.731726,-12.923437,-8.017271
1007.070312,-12.490960,-10.031242,-10.592370,-13.640174
1007.074219,-8.613530,-1.420176,-13.301301,-3.903518
1007.078125,-7.257252,-15.155764,-3.233402,-6.626268
1007.082031,-8.759758,-13.397342,-6.756164,-13.226303
1007.085938,-8.148706,-5.062495,-10.562489,-11.437795
1007.089844,-9.849718,-5.420576,-10.502571,-10.135734
1007.093750,2.083378,-7.519779,-7.591955,0.611495
1007.097656,4.184502,-6.033088,-11.192298,-1.621779
1007.101562,-1.276803,9.760547,3.661229,7.167805
1007.105469,2.806410,5.415945,-2.192152,1.863874
1007.109375,7.044477,4.614702,2.646977,12.257158
1007.113281,8.838781,6.261812,8.373571,-1.252970
1007.117188,10.054044,11.975302,10.238429,7.347174
1007.121094,5.517032,2.673309,9.777192,1.268339
1007.125000,8.692704,8.506621,11.323627,10.059681
1007.128906,11.802171,8.529630,8.870538,3.882298
1007.132812,7.518438,9.842385,10.444079,6.221393
1007.136719,5.175120,6.642662,5.236061,7.284053
1007.140625,9.316997,8.829416,10.461013,9.549880
1007.144531,5.282310,1.548929,3.464208,5.492989
1007.148438,11.080415,-0.690803,3.674268,1.244332
1007.152344,-5.762886,3.983403,-5.102964,-2.779157
1007.156250,-5.660610,-4.018830,-5.470351,-1.478533
1007.160156,-11.095945,-5.300848,-0.996084,-6.246785
1007.164062,-9.918546,-3.534956,-3.787875,-9.114792
1007.167969,-5.128695,-6.439573,-6.858204,-10.707727
1007.171875,-10.589241,-10.078865,-15.024260,-15.126529
1007.175781,-11.343895,-17.874692,-13.319073,-13.494102
1007.179688,-7.038298,-11.727726,-12.400153,-5.727348
1007.183594,-8.890399,-3.468870,-3.139102,-11.655151
1007.187500,-3.251119,-10.939352,-2.907718,-0.957042
1007.191406,-3.277377,-3.114233,-1.009019,-2.023760
1007.195312,-4.621479,-7.508619,-4.241878,-1.292558
1007.199219,2.435757,-4.409908,3.817371,-3.704348
1007.203125,3.865719,4.670780,8.746735,-3.706108
1007.207031,3.324465,-3.467520,4.486753,2.403437
1007.210938,8.804503,10.017397,8.763681,11.429393
1007.214844,11.725866,6.214223,9.363214,15.058450
1007.218750,11.910547,7.635010,9.480425,6.199704
1007.222656,12.313607,12.451124,7.610080,4.832258
1007.226562,10.877776,6.701950,12.104758,11.293724
1007.230469,8.131528,4.724815,11.668398,18.003770
1007.234375,7.839390,6.919647,10.556599,1.168652
1007.238281,4.559134,7.908836,3.263049,9.934181
1007.242188,7.824279,-1.520879,2.303560,4.889133
1007.246094,-0.476297,-0.931768,8.392927,-2.286107
1007.250000,2.228736,6.320939,2.460775,-0.305664
1007.253906,3.079075,5.938021,0.154832,-4.610248
1007.257812,-7.994948,-2.790319,2.473751,-7.740902
1007.261719,-3.691409,-2.107987,-10.329740,-4.413679
1007.265625,-6.408738,-17.444615,-5.973685,-5.652063
1007.269531,-15.347328,-12.701379,-14.713302,-12.166524
1007.273438,-7.503242,-10.463264,-11.034957,-12.669990
1007.277344,-6.907011,-4.090055,-11.283483,-11.033554
1007.281250,-4.431931,-11.093253,-12.701962,-8.286367
1007.285156,-6.572454,-3.339764,-1.541499,-7.272830
1007.289062,-5.788474,-1.399622,-5.995797,1.637207
1007.292969,-2.778108,0.139898,-1.626500,-5.618529
1007.296875,0.131792,-7.211985,-1.130846,0.466485
1007.300781,0.864738,1.659977,3.744380,-3.609331
1007.304688,3.541543,0.782564,1.139453,-1.789798
1007.308594,1.197540,5.774130,6.042413,9.754945
1007.312500,5.554274,3.728001,8.056823,7.939661
1007.316406,10.185807,2.054567,5.540328,9.254179
1007.320312,11.768839,4.260044,8.433022,7.811604
1007.324219,15.543289,10.645048,1.368079,12.528283
1007.328125,-0.196143,16.329809,7.140239,13.019722
1007.332031,6.463888,11.708812,2.671730,2.433202
1007.335938,4.677486,7.165144,0.291436,6.717825
1007.339844,12.278693,6.415647,-1.344036,13.744280
1007.343750,8.923239,0.457452,-0.449611,11.273782
1007.347656,0.465127,4.575389,3.737150,-5.946972
1007.351562,-8.116333,0.147881,-2.621345,-3.546744
1007.355469,-4.105851,-11.667915,-3.175550,3.594777
1007.359375,-7.202790,-3.374168,-2.226089,-0.222834
1007.363281,-6.215828,-8.627850,-8.253299,-1.156032
1007.367188,-11.679793,-10.028596,-9.721372,-7.956319
1007.371094,-8.548258,-8.626031,-6.463540,-13.480080
1007.375000,-11.661437,-14.468517,-12.098839,-9.707852
1007.378906,-11.649739,-8.287748,-6.033863,-7.638978
1007.382812,-8.824357,-6.052583,-11.663387,-8.116019
1007.386719,-13.047976,-6.343900,-9.110682,-10.474591
1007.390625,-5.239917,-4.121781,-6.262905,1.393845
1007.394531,-8.005847,0.702347,2.019523,-4.216518
1007.398438,5.894114,-6.336321,1.569446,0.665743
1007.402344,-3.881534,-0.223896,7.057254,2.985170
1007.406250,8.186070,5.611980,14.065873,4.150472
1007.410156,5.280529,2.565724,6.988786,2.610724
1007.414062,3.855407,6.779108,3.735398,8.461837
1007.417969,10.147585,8.903446,8.851745,10.798964
1007.421875,7.290242,13.902757,16.291445,4.818113
1007.425781,4.522893,7.179045,8.708012,8.473976
1007.429688,7.940261,12.836231,2.075169,12.481036
1007.433594,8.132168,11.580956,8.750864,10.759783
1007.437500,5.651827,1.016540,5.858661,12.311816
1007.441406,0.489350,8.332113,5.101386,14.035412
1007.445312,0.200500,2.015951,4.308538,9.428696
1007.449219,12.062703,-8.553360,3.772505,2.823107
1007.453125,-6.190770,4.562472,-5.086196,-2.765084
1007.457031,-6.970539,-3.858471,-8.371447,3.472846
1007.460938,-7.780821,-6.681230,-13.050397,-12.898116
1007.464844,-10.876594,-4.923624,-7.299677,-4.636275
1007.468750,-10.321533,-10.420293,-14.467993,-4.987643
1007.472656,-6.469961,-6.287421,-3.960772,-11.902278
1007.476562,-17.935418,-0.953240,-11.293473,-11.472705
1007.480469,-0.302708,-10.980242,-9.994329,-2.873300
1007.484375,-10.653828,-10.983925,-0.920699,-5.726536
1007.488281,-14.234834,-6.376918,-3.153215,-11.097694
1007.492188,-7.542382,-6.305155,-8.098958,-2.697902
1007.496094,-0.785425,-6.612730,-2.028622,-2.346041
1007.500000,-5.277529,7.499815,2.659025,2.297250
1007.503906,-2.237261,2.350095,-5.564958,-3.018912
1007.507812,2.413198,5.294237,-4.093537,1.664310
1007.511719,7.842987,7.406526,3.178332,6.867725
1007.515625,6.771348,10.059204,12.428149,4.220383
1007.519531,9.270928,7.869299,9.843015,14.150692
1007.523438,5.592665,19.366503,16.092416,16.258070
1007.527344,12.993291,11.131406,12.650778,10.936297
1007.531250,12.429310,4.861558,7.801948,7.375617
1007.535156,5.358490,7.176057,5.469930,4.689720
1007.539062,6.102319,7.294234,1.092308,0.589851
1007.542969,1.628656,0.447850,4.858156,0.963516
1007.546875,7.462534,3.679425,8.703880,1.466732
1007.550781,-2.246689,2.390157,-4.326584,3.454492
1007.554688,-7.042260,0.230889,1.020291,-7.417791
1007.558594,-4.225692,-5.032663,-0.361377,-7.496220
1007.562500,-9.454950,-10.471235,-11.904040,-2.799815
1007.566406,-3.525758,-8.808534,-7.183860,-10.208541
1007.570312,-11.600885,-3.610865,-0.101741,-8.354207
1007.574219,-10.954489,-10.935410,-9.253487,-7.172314
1007.578125,-12.303931,-6.046493,-1.650087,-8.880022
1007.582031,-20.384452,-14.055365,-15.521756,-15.050739
1007.585938,-10.381639,-4.828982,-8.885289,-4.407237
1007.589844,-3.108482,-5.647606,-3.398648,-3.216336
1007.593750,-6.545879,-4.552827,-9.755683,-2.485803
1007.597656,8.341180,3.017463,-3.021007,0.048184
1007.601562,3.531199,-1.633552,-0.138573,3.564922
1007.605469,0.192236,-3.047658,2.820233,2.232055
1007.609375,5.260038,7.282967,6.736084,2.495847
1007.613281,3.981112,5.966462,13.999478,6.176477
1007.617188,5.220398,14.909332,13.794826,5.628029
1007.621094,10.356686,5.950889,10.676845,4.968230
1007.625000,16.321450,10.299718,11.372966,12.205800
1007.628906,10.687400,4.989393,9.857129,12.428315
1007.632812,10.668990,10.193297,8.138751,9.613514
1007.636719,8.295729,7.572936,6.462178,3.869308
1007.640625,8.789358,1.630903,7.198742,3.406069
1007.644531,6.035762,-0.543362,11.751800,3.468210
1007.648438,1.782721,-0.259152,5.106147,2.154566
1007.652344,6.273355,-4.748676,-5.115988,0.727752
1007.656250,-2.496944,-2.371846,-9.136965,-5.945805
1007.660156,-11.203897,-5.383785,-4.496008,-5.870509
1007.664062,-8.101795,-5.098826,-15.170769,-9.134038
1007.667969,-12.552658,-12.233411,-8.295909,-9.662199
1007.671875,-8.960371,-7.562048,-9.905262,-15.120839
1007.675781,-7.171449,-0.140606,-8.818450,-12.756875
1007.679688,-10.029446,-11.714940,-10.864396,-11.586604
1007.683594,-9.701869,-13.620058,-12.671275,-16.561894
1007.687500,-11.521998,-6.162480,-3.915655,-8.361462
1007.691406,-5.593334,-3.120816,-11.959338,-1.683865
1007.695312,-6.566657,-2.816513,-9.985417,-7.070282
1007.699219,3.091969,-3.221307,-0.896093,3.848598
1007.703125,4.838338,5.716309,-1.019101,2.543455
1007.707031,1.636725,2.368329,0.973361,9.512763
1007.710938,2.873217,7.351818,8.469492,5.302829
1007.714844,9.543847,5.889299,10.796220,13.621031
1007.718750,12.440258,12.854801,2.951688,5.238117
1007.722656,8.769608,12.248140,7.946982,14.804309
1007.726562,6.365599,12.805396,12.734562,2.848912
1007.730469,12.116590,10.565960,13.012228,4.911604
1007.734375,9.106922,11.746804,11.467932,10.060174
1007.738281,13.290582,5.313215,2.825601,0.072739
1007.742188,-0.698962,2.038785,-2.498492,3.509084
1007.746094,11.102511,-5.593813,7.142395,2.647572
1007.750000,4.793630,-2.978903,1.402999,-1.781840
1007.753906,-4.389633,-3.014864,-5.740855,4.180480
1007.757812,7.248412,-9.704349,-6.398947,-0.827054
1007.761719,-1.503669,-7.098100,-7.266290,-6.628142
1007.765625,-5.003214,-13.447687,-7.236571,-9.493983
1007.769531,-10.536230,-7.939611,-7.573294,-17.519450
1007.773438,-12.115160,-12.650933,-12.193264,-4.583226
1007.777344,-17.244555,-11.867082,-12.337200,-4.842380
1007.781250,-15.249342,-1.211569,-13.611284,-11.912002
1007.785156,-10.655796,-6.971761,-2.051317,-6.358709
1007.789062,-9.534165,-1.205295,-7.124841,-7.789228
1007.792969,1.086972,-3.811538,-9.811689,-11.450442
1007.796875,1.485415,-2.877038,-1.598330,1.747921
1007.800781,-0.718356,2.085947,1.248262,4.974234
1007.804688,-2.911296,9.590734,-0.666239,1.632381
1007.808594,4.077626,5.597708,13.698484,5.632271
1007.812500,1.366249,8.168381,3.251796,8.369337
1007.816406,14.469069,15.662703,4.974487,15.028101
1007.820312,12.882966,11.709408,9.248434,11.419723
1007.824219,11.606539,9.255127,4.726044,6.260359
1007.828125,10.985480,6.214293,7.127687,3.175663
1007.832031,8.589678,4.657414,10.846838,9.915194
1007.835938,8.802562,8.921765,12.044186,10.510995
1007.839844,5.382270,6.175222,9.726894,16.386608
1007.843750,7.294612,6.776086,2.642159,0.016014
1007.847656,-5.497297,1.845999,5.363733,6.491258
1007.851562,-5.052423,0.937626,1.739775,-1.699893
1007.855469,-6.901440,2.077677,-2.293493,-3.975775
1007.859375,-3.485414,2.622527,-1.707318,-4.657347
1007.863281,5.300204,-4.392545,-9.669742,-3.354782
1007.867188,-8.367709,-6.421284,-18.542734,-5.342235
1007.871094,-7.508961,-12.132411,-2.543299,-9.915447
1007.875000,-5.226324,-14.249554,-10.540277,-14.852245
1007.878906,-14.843417,-7.598079,-13.768020,-5.398799
1007.882812,-3.291558,-16.559446,-12.696970,-9.567807
1007.886719,-0.177976,-6.620703,-3.226249,3.737703
1007.890625,-6.426489,0.851718,-3.166719,-3.365981
1007.894531,-7.594279,0.298843,-2.343307,-6.510336
1007.898438,-5.372947,1.799863,-4.975891,-2.028178
1007.902344,3.643222,5.311443,2.588580,5.804395
1007.906250,2.374658,9.431732,6.709436,1.644984
1007.910156,5.058814,9.362929,9.310913,-0.594064
1007.914062,10.149507,4.044487,3.705988,4.696661
1007.917969,6.306756,-2.484155,18.551188,6.935763
1007.921875,12.719005,15.957841,15.462266,4.384717
1007.925781,18.944347,5.037241,10.838542,13.088055
1007.929688,8.552644,6.030954,5.116316,19.766813
1007.933594,8.334940,5.025042,3.880772,11.197347
1007.937500,8.007828,6.333337,4.964366,11.568416
1007.941406,6.674005,2.070474,0.482630,5.371958
1007.945312,3.432649,-2.528735,-1.907154,3.364870
1007.949219,-2.282670,0.185459,-1.048481,6.811017
1007.953125,-6.402525,-0.945081,4.351113,-1.285533
1007.957031,-6.493404,-3.720744,-6.815489,-0.979284
1007.960938,-6.124941,-9.169779,-11.592828,-7.185170
1007.964844,-1.669610,-7.454520,-1.938735,-12.515298
1007.968750,-15.790536,-13.983912,-7.827877,-8.933341
1007.972656,-13.424462,-12.607478,-11.868233,0.101733
1007.976562,-3.574669,-11.901576,-11.049102,-22.772816
1007.980469,-11.345206,-3.713980,-5.099316,-20.991855
1007.984375,-12.893414,-4.485752,-3.896797,-8.067320
1007.988281,0.470349,-18.937758,-0.299321,-11.100889
1007.992188,1.826762,4.650821,-6.687590,-7.425697
1007.996094,-7.179087,-11.256467,-1.316819,-8.409514
1008.000000,-5.029140,-2.159451,-2.188879,-3.010024
1008.003906,-2.402278,1.814609,-3.406835,8.837618
1008.007812,3.097981,2.401820,-2.980334,12.868235
1008.011719,-0.526119,2.541290,13.262998,8.160776
1008.015625,4.766629,5.750274,3.534185,1.146838
1008.019531,1.474701,-2.101678,12.013758,4.742001
1008.023438,5.021399,9.555455,8.685069,2.642102
1008.027344,11.312834,11.702551,15.643665,10.150872
1008.031250,14.404974,2.861231,5.371586,14.024758
1008.035156,10.869086,11.187067,5.857709,12.347780
1008.039062,-1.229094,7.664037,2.074136,11.184936
1008.042969,4.003701,3.181571,3.179308,9.685051
1008.046875,-4.175688,7.850695,0.983047,3.326361
1008.050781,-10.295426,-1.073392,-9.771669,0.138574
1008.054688,-6.122090,-1.200694,-6.549513,-12.075875
1008.058594,-1.855041,-9.507103,-5.809980,-8.866846
1008.062500,-5.324131,-2.528968,-3.528518,-7.707380
1008.066406,-9.555860,-4.148909,-9.085170,-2.554072
1008.070312,-4.868327,-0.155669,-8.059288,-10.263418
1008.074219,-9.417801,-9.582880,-11.096486,1.451832
1008.078125,-6.843995,-7.784103,-9.329483,-12.302956
1008.082031,-12.707402,-11.441931,-15.942065,-11.110159
1008.085938,-6.953825,-10.926550,-5.439786,-8.218858
1008.089844,-7.011028,-5.516906,-6.331258,-4.209185
1008.093750,2.524802,-5.706605,0.107100,-4.088247
1008.097656,1.690556,-1.348345,0.297666,-3.660020
1008.101562,4.903487,4.548371,4.831665,2.619403
1008.105469,5.317703,0.299396,2.897105,-5.052856
1008.109375,7.709752,8.221078,8.306219,8.107233
1008.113281,8.324191,9.734249,5.411127,9.331166
1008.117188,7.131822,10.176222,4.295640,17.314455
1008.121094,13.451322,10.360064,13.550852,8.504221
1008.125000,11.601261,17.385533,12.271959,5.804219
1008.128906,11.788347,12.161604,7.098269,10.150175
1008.132812,12.963281,9.375695,10.743415,8.823030
1008.136719,1.873986,9.973224,7.694126,18.000384
1008.140625,11.370181,7.021110,9.153407,8.739312
1008.144531,-1.365091,1.395008,4.521751,4.018028
1008.148438,5.407162,-4.448165,0.525004,1.636979
1008.152344,-3.730085,-4.016287,-7.065447,6.264390
1008.156250,-2.008418,-3.726195,-4.999593,-2.375906
1008.160156,-9.642511,-4.723169,-4.062182,-10.563539
1008.164062,-8.334304,-9.599260,-2.804877,-7.733947
1008.167969,-7.404599,-7.094121,-3.012326,-12.979151
1008.171875,-12.062866,-4.486211,-12.881374,-9.991696
1008.175781,-7.177754,-10.971437,-9.864177,-7.731505
1008.179688,-9.634117,-13.072079,-3.484134,-11.037302
1008.183594,-8.305171,-8.228499,-7.708505,-8.400704
1008.187500,-5.459928,-11.565060,-7.950579,-10.083406
1008.191406,-7.759414,-3.492181,-6.592993,-4.737725
1008.195312,-3.711170,-2.444495,-10.067670,1.613078
1008.199219,4.006141,-2.001923,-4.745238,3.069667
1008.203125,-0.177615,1.033842,-3.845043,4.754309
1008.207031,5.951894,4.124792,2.822606,3.549929
1008.210938,6.455575,7.188099,-0.084555,6.307893
1008.214844,4.255495,1.815632,4.955405,8.080046
1008.218750,12.743963,8.001092,15.959234,7.547975
1008.222656,6.168564,12.946135,9.546856,12.973154
1008.226562,11.882942,12.399579,7.269812,11.546150
1008.230469,6.964650,11.486524,10.083296,3.228790
1008.234375,7.145536,12.466067,13.062100,1.098093
1008.238281,4.896127,11.287591,4.690724,9.009283
1008.242188,5.004794,2.232750,5.813348,8.324553
1008.246094,-1.594768,0.460312,-1.784232,2.521253
1008.250000,-1.557305,3.347359,0.702982,0.714080
1008.253906,-3.004792,0.711811,-9.282381,-6.752372
1008.257812,-2.910044,-5.435722,-7.968026,2.874482
1008.261719,-8.573820,-8.109099,-2.515005,-7.655169
1008.265625,-7.324834,-12.869634,-4.503067,-8.188036
1008.269531,-2.256192,-5.635485,-12.934043,-5.987837
1008.273438,-12.810483,-17.661130,-9.606237,-9.375317
1008.277344,-10.504411,-10.472022,-12.088499,-15.900200
1008.281250,-6.891074,-8.092251,-11.995309,-4.566992
1008.285156,2.162362,-10.147735,-8.036235,-9.134664
1008.289062,-4.778082,-8.217699,-6.910347,-4.098372
1008.292969,-2.279859,-8.403844,1.119283,2.486374
1008.296875,-0.287837,1.384866,4.515924,3.257193
1008.300781,1.827205,6.004653,0.497772,0.143523
1008.304688,5.188727,0.494301,-1.005432,3.588338
1008.308594,3.883633,4.821858,3.285364,-1.012694
1008.312500,6.879093,6.727726,5.104924,1.643404
1008.316406,3.794089,8.956884,6.610564,5.531105
1008.320312,11.357954,6.809631,12.018961,14.115742
1008.324219,9.277291,2.102505,4.199201,17.149679
1008.328125,6.743042,13.410700,8.472872,10.637884
1008.332031,1.562976,6.902831,12.064952,7.361969
1008.335938,3.885362,12.068667,13.141843,8.417501
1008.339844,11.064934,3.852357,13.682578,8.815692
1008.343750,8.054837,3.625063,1.918773,7.088707
1008.347656,5.048056,-4.494406,6.855384,3.933767
1008.351562,4.141608,-4.478377,-5.424383,-4.055989
1008.355469,-4.771653,3.881964,-3.483739,-14.159932
1008.359375,-5.253045,-5.187228,-8.655077,2.303671
1008.363281,-6.404048,-8.404202,-5.793300,-6.044214
1008.367188,-9.129812,-11.706943,-12.743493,-10.691925
1008.371094,-9.512077,-9.280416,-8.744772,-3.530872
1008.375000,-5.889335,-2.930224,-10.048942,-16.386332
1008.378906,-4.980141,-11.366301,-6.771114,-4.349682
1008.382812,-5.378773,-9.877601,-4.088727,-7.659123
1008.386719,-5.895046,-15.490344,-12.132357,-0.824632
1008.390625,-14.522103,-4.635442,-7.723009,-9.956135
1008.394531,1.707526,-0.849484,-11.017602,-3.206486
1008.398438,-0.379957,-6.004742,0.847538,3.722841
1008.402344,5.715786,-5.104194,-6.075063,1.966103
1008.406250,5.028974,3.557944,2.879395,2.825708
1008.410156,4.033631,4.361042,8.895003,5.011011
1008.414062,8.734483,4.223247,7.523893,4.725667
1008.417969,5.617955,2.568137,3.064208,11.414420
1008.421875,11.828718,9.659705,10.420732,16.020435
1008.425781,7.984970,4.249310,7.658707,12.143894
1008.429688,13.924338,14.045003,13.069542,11.336295
1008.433594,4.446700,6.880768,14.635518,12.914639
1008.437500,3.584757,11.842102,4.579838,4.428402
1008.441406,4.118781,6.624201,7.090686,12.023887
1008.445312,5.785948,5.681772,2.758601,1.894691
1008.449219,5.442639,0.279304,1.928432,0.717221
1008.453125,-4.093283,7.432979,0.846066,-0.345477
1008.457031,-1.618580,-10.172692,-5.469645,-12.228037
1008.460938,-3.346783,-10.483053,-5.250201,-3.788714
1008.464844,-5.151885,-9.064725,-8.655290,-10.522851
1008.468750,-10.760997,-7.452728,-5.751463,-10.900680
1008.472656,-8.749247,-8.888666,-10.436612,-16.333321
1008.476562,-13.803211,-10.748260,-8.888424,-12.887038
1008.480469,-8.393797,-8.169489,-8.103567,-7.011079
1008.484375,-10.212130,-10.324559,-13.668038,-13.505781
1008.488281,-7.412650,-8.846462,-9.243742,-11.075413
1008.492188,-2.175184,-7.088124,-3.320352,-7.483209
1008.496094,-13.004618,-3.941671,0.169683,0.903173
1008.500000,6.705186,-5.236319,-2.150989,0.225327
1008.503906,-1.494939,5.260157,0.239772,-2.068963
1008.507812,1.204005,5.321736,3.419920,3.693523
1008.511719,11.887922,-0.016523,3.303914,5.652415
1008.515625,1.408542,3.851825,12.017912,8.567438
1008.519531,1.890108,15.716429,9.115228,5.777583
1008.523438,0.605690,8.249093,5.458496,11.876330
1008.527344,7.772638,15.418504,12.344995,6.105608
1008.531250,9.526624,11.398263,12.062549,9.758956
1008.535156,8.365768,-0.206546,11.250145,11.392169
1008.539062,-3.553587,9.422668,7.667228,13.557603
1008.542969,8.149386,2.314407,4.054928,3.626168
1008.546875,3.243153,-1.039172,-2.988675,8.594243
1008.550781,-6.758608,-2.074612,-1.497613,1.110846
1008.554688,-2.132802,0.933167,0.417754,0.762689
1008.558594,-11.000786,-1.059703,3.752917,-1.209192
1008.562500,-6.042168,-6.998417,-18.521486,-10.982342
1008.566406,-14.536686,-11.471872,-4.463269,-3.026943
1008.570312,-10.941411,-10.869284,-5.332172,-14.821594
1008.574219,-7.642858,-14.526258,-17.895142,-10.794265
1008.578125,-10.090289,-7.809912,-8.758481,-8.653533
1008.582031,-11.953452,-15.004855,-9.550324,-9.445401
1008.585938,-11.098089,-17.923117,-8.298168,-13.215920
1008.589844,-5.326071,3.972221,-3.706322,-7.393150
1008.593750,0.267546,7.629631,-2.655132,-6.025994
1008.597656,-5.530315,-2.510247,-2.397759,-3.712525
1008.601562,5.741546,-2.309058,1.981201,-2.250398
1008.605469,-1.460034,1.548544,7.615871,1.770022
1008.609375,3.424277,6.826401,2.473050,2.290461
1008.613281,9.067693,6.813510,5.963356,-0.522518
1008.617188,10.958075,15.761709,19.222122,7.773051
1008.621094,2.573599,8.895786,16.759864,15.344515
1008.625000,7.722715,9.314892,13.355350,11.478311
1008.628906,4.933566,3.964636,6.123517,5.207705
1008.632812,7.062096,5.002623,9.318798,4.204713
1008.636719,12.224051,4.208250,4.892507,9.927662
1008.640625,3.408899,2.547947,9.508313,13.094792
1008.644531,-1.310266,6.961106,-0.588605,2.480853
1008.648438,5.710302,3.299347,-2.163598,1.103423
1008.652344,-2.662791,-5.529911,-1.159590,-6.974645
1008.656250,-4.963526,2.054796,-8.532982,-9.893542
1008.660156,-8.590802,-5.366103,-12.697174,-10.407226
1008.664062,-5.090605,-6.049600,-9.066301,-7.090662
1008.667969,-9.697469,-7.120361,-8.220700,-10.636059
1008.671875,-10.256204,-11.114616,-14.266860,-8.500131
1008.675781,-11.796419,-19.536422,-6.707754,-13.197520
1008.679688,-9.358573,-6.055887,-10.480454,-4.681371
1008.683594,-10.192787,-13.550785,-12.803617,-4.139562
1008.687500,-7.982987,-3.274047,-6.558346,-1.728415
1008.691406,-8.507512,4.346492,-0.901408,-6.967229
1008.695312,-2.765977,-4.629852,-4.922615,-4.812894
1008.699219,-3.771452,-7.839661,-1.603298,1.266765
1008.703125,1.894489,-1.068474,-4.779509,3.249827
1008.707031,5.361920,7.305360,4.876155,9.783342
1008.710938,-1.706084,4.627199,12.276663,4.988314
1008.714844,11.470139,14.597879,9.962755,11.873626
1008.718750,16.209077,8.839702,15.371850,8.505069
1008.722656,4.939649,18.432834,12.953257,9.617949
1008.726562,9.351690,7.855576,4.706091,8.295756
1008.730469,8.837745,3.231036,1.155307,12.161411
1008.734375,9.726116,7.941379,10.234667,10.741197
1008.738281,5.822421,7.897788,1.496934,0.016134
1008.742188,6.735369,11.133849,4.698448,6.248531
1008.746094,3.344879,1.068637,2.201004,9.485037
1008.750000,-0.657924,2.800653,-1.529447,-4.780201
1008.753906,2.981856,1.704851,-2.575175,-4.807049
1008.757812,-0.839879,-7.367897,-1.007537,-0.272939
1008.761719,-11.300665,-0.926548,-6.667153,-3.165684
1008.765625,-8.324367,-14.557774,-1.342922,-10.025113
1008.769531,-6.404729,-11.131996,-11.757443,-9.860421
1008.773438,-5.127729,-8.756833,-10.218118,-15.325904
1008.777344,-14.254800,-10.216511,-9.995658,-9.288331
1008.781250,-8.543011,-7.572984,-4.321413,-9.330007
1008.785156,-8.387757,-10.845056,-2.588470,-4.971601
1008.789062,-4.067761,-5.582027,-0.046983,-6.785425
1008.792969,0.452097,-3.429994,-8.327201,-5.887514
1008.796875,-4.794364,0.323529,0.076616,1.143204
1008.800781,4.128532,3.002778,-0.117960,5.241003
1008.804688,9.493109,2.538926,2.738058,5.501905
1008.808594,3.099423,6.869839,5.512333,10.965566
1008.812500,3.971378,7.297762,14.685833,6.081428
1008.816406,8.831353,10.787881,9.167451,3.609951
1008.820312,7.000367,9.780075,6.098875,9.308367
1008.824219,19.544708,8.613746,4.611060,13.147705
1008.828125,9.711729,9.695262,22.220118,6.459978
1008.832031,12.236803,6.507439,8.979284,15.166624
1008.835938,10.020084,15.364107,11.295961,-1.094411
1008.839844,9.743453,8.914891,5.457512,2.669811
1008.843750,-1.684516,9.981714,8.621566,5.106582
1008.847656,0.435431,0.962293,3.546575,6.242752
1008.851562,0.484031,-4.891502,7.910920,-6.628816
1008.855469,-9.859748,-7.159747,-6.191887,-0.401490
1008.859375,-7.386503,-7.374930,-2.606697,-5.530991
1008.863281,-6.614337,-9.177760,-7.111670,-9.919830
1008.867188,-12.388749,-9.815291,-14.238493,-10.878938
1008.871094,-5.845616,-12.353934,-8.505399,-10.767148
1008.875000,-7.456668,-12.748410,-9.667138,-9.868588
1008.878906,-9.990024,-16.950203,-9.039405,-8.729949
1008.882812,-0.900390,1.192320,-13.253049,2.755019
1008.886719,-0.414191,-8.131451,-11.598125,-12.273140
1008.890625,-6.809079,-10.268134,-7.417574,-7.044070
1008.894531,0.101999,6.577254,-4.799696,-1.493856
1008.898438,-1.417810,-3.316601,5.832334,0.241802
1008.902344,-6.739485,-0.563483,1.346867,-1.313519
1008.906250,10.451932,5.511272,10.722809,2.419841
1008.910156,10.047275,5.967681,11.290527,14.514705
1008.914062,2.278207,5.296302,6.505779,6.203423
1008.917969,10.075449,12.836439,5.395445,12.881180
1008.921875,13.136379,14.822840,11.373005,11.414337
1008.925781,4.191131,6.725105,17.642147,10.085845
1008.929688,17.202820,2.707519,13.593297,6.904065
1008.933594,7.029770,13.525219,9.875954,5.839527
1008.937500,7.818924,9.513326,1.478316,8.715685
1008.941406,11.868578,-0.003749,8.303832,5.751372
1008.945312,4.673579,5.521076,2.407394,5.669349
1008.949219,1.532967,7.554940,0.685400,7.247521
1008.953125,1.266160,-2.292495,-0.043365,3.687188
1008.957031,-5.826929,-0.655039,-0.456944,-0.153049
1008.960938,-5.277386,-4.305993,-7.525680,-1.825312
1008.964844,-22.554357,-3.673164,-9.930209,-9.692770
1008.968750,-11.857895,-7.146827,-1.633143,-6.077185
1008.972656,-6.236864,-8.536826,-7.379305,-9.023302
1008.976562,-14.051036,-11.780454,-5.737764,-8.320735
1008.980469,-8.319768,-5.792784,-13.759733,-10.409330
1008.984375,-9.443407,1.158463,-4.253065,-3.321390
1008.988281,-10.746490,-10.617123,-9.762937,-2.562978
1008.992188,-7.978410,-3.741547,-3.664211,-6.262941
1008.996094,-2.849471,-5.596856,-2.072329,-1.890049
1009.000000,1.762672,0.400396,-3.306118,0.110607
1009.003906,-0.642196,1.345701,-4.017712,1.301533
1009.007812,2.013124,4.091255,5.318199,6.613484
1009.011719,9.590889,7.600711,11.305238,8.871195
1009.015625,7.167090,13.706721,7.604465,8.312468
1009.019531,15.178401,6.505217,5.246079,8.199283
1009.023438,16.098229,4.561608,7.332694,11.447084
1009.027344,4.125098,3.533910,11.912593,7.989560
1009.031250,1.741623,9.631387,8.357919,8.228566
1009.035156,9.866457,6.093303,8.113082,9.598391
1009.039062,5.228295,2.966000,13.952759,5.442893
1009.042969,1.222870,5.580834,7.801645,5.016503
1009.046875,9.176904,-0.207573,4.842571,-0.197759
1009.050781,0.750487,2.149192,-2.015047,7.608626
1009.054688,-0.952676,-1.112116,0.718008,-4.930587
1009.058594,-7.070478,-1.222901,-3.804202,-5.175504
1009.062500,-5.839063,-10.329580,-5.115256,-7.543257
1009.066406,-14.987922,-3.852502,-3.005266,-10.610580
1009.070312,-9.927514,-7.522680,-8.970451,-5.164684
1009.074219,-13.226627,-16.717804,-6.506949,-3.034331
1009.078125,-17.189913,-9.229343,-14.613121,-12.672475
1009.082031,-6.550526,-10.064568,-4.254617,-12.646855
1009.085938,-12.352381,-3.565633,-7.395812,-9.687042
1009.089844,-8.478493,-7.220695,-6.059388,2.044943
1009.093750,-9.512853,-8.825296,-0.621970,-7.536010
1009.097656,-6.503284,-1.941912,-0.160770,-4.317749
1009.101562,1.926566,2.787204,0.200653,1.670104
1009.105469,7.212191,-4.804727,2.857633,-3.278508
1009.109375,-7.747252,4.736897,3.977623,8.209463
1009.113281,3.176432,13.877070,6.593383,-1.181843
1009.117188,8.076479,7.329949,6.397341,19.050758
1009.121094,6.136027,5.243022,11.758515,7.515845
1009.125000,10.620535,5.230478,1.846173,4.115393
1009.128906,13.651032,6.619099,6.623516,16.533871
1009.132812,13.893558,6.663920,16.544286,2.504756
1009.136719,7.669240,2.910436,8.102549,8.422242
1009.140625,6.218828,7.325306,0.624429,-3.424871
1009.144531,-8.024702,0.139125,0.758320,5.956208
1009.148438,2.162909,2.310422,2.418532,-3.900610
1009.152344,-7.100706,-1.924835,1.071311,2.535731
1009.156250,-1.939646,-2.226052,-6.058241,-3.879490
1009.160156,-8.742228,-1.032466,-6.509802,-4.553308
1009.164062,-9.212407,-0.119141,-8.570761,-6.635910
1009.167969,-13.615038,-4.850564,-5.548451,-10.749441
1009.171875,-10.353346,-18.259223,-9.538167,-9.912624
1009.175781,-12.624376,-6.718663,-10.184048,-19.268430
1009.179688,-7.960633,-10.993860,-7.394337,-13.131982
1009.183594,-18.084596,-13.295579,-5.554244,-14.323322
1009.187500,-3.324318,-4.592292,-8.017923,-6.247455
