timestamp,TP9,AF7,AF8,TP10
1000.000000,-6.858188,1.404783,3.582627,-3.102676
1000.003906,4.267957,5.044349,2.726628,2.190146
1000.007812,8.511739,1.029675,1.625601,0.227468
1000.011719,0.703273,4.591581,9.847985,9.208573
1000.015625,7.313119,13.949545,3.006733,6.072467
1000.019531,16.997888,9.386843,8.820137,10.414533
1000.023438,16.476198,18.619334,5.203084,9.084037
1000.027344,6.396875,9.352258,6.126417,1.848981
1000.031250,5.777044,8.420693,13.222624,8.202477
1000.035156,12.120110,11.635351,12.927498,8.801927
1000.039062,6.357780,-3.559518,4.417868,1.501885
1000.042969,2.913328,5.882814,2.171184,10.745391
1000.046875,1.489332,-1.207907,-1.108640,8.985625
1000.050781,1.915263,-5.222501,1.718836,-2.794783
1000.054688,-5.741633,1.687510,-2.418725,3.072194
1000.058594,-5.283749,-10.258959,-5.894080,-8.487680
1000.062500,-9.779184,-5.638895,-9.425769,-5.862624
1000.066406,-8.905843,-7.511106,-8.898262,-6.975289
1000.070312,-11.018748,-7.629675,-14.619244,-12.315432
1000.074219,-17.434165,-6.873280,-11.004977,-4.975411
1000.078125,-15.008942,-9.982825,-14.241634,-9.706978
1000.082031,-11.162546,-9.180544,-8.788301,-16.831563
1000.085938,-10.946611,-11.010713,-2.036676,-13.693370
1000.089844,-10.910870,-8.029903,-13.179134,3.123213
1000.093750,-5.711308,-8.020514,-1.341825,-6.240569
1000.097656,-1.985835,-6.836749,1.677184,-2.756752
1000.101562,-3.948225,-1.628947,-2.989595,2.881249
1000.105469,1.276850,0.188029,0.545572,0.179359
1000.109375,10.609835,-0.684369,6.193721,15.749951
1000.113281,12.471821,4.310642,6.584547,9.868722
1000.117188,6.740588,6.836901,10.391760,10.528745
1000.121094,6.772593,6.228302,10.502692,9.795068
1000.125000,11.374459,13.781711,8.929468,13.550878
1000.128906,9.652211,11.103296,8.531424,8.661427
1000.132812,-0.342366,16.076997,7.255188,9.522492
1000.136719,9.506435,10.341402,7.720045,-2.716645
1000.140625,9.776464,3.771844,2.626314,5.785895
1000.144531,0.543233,3.360944,6.922261,3.951808
1000.148438,4.866019,-0.598742,7.198918,1.454759
1000.152344,0.398522,-0.078792,3.840725,-3.624774
1000.156250,-6.066769,-1.908039,6.621953,-3.286064
1000.160156,-0.980629,-3.271456,-3.269818,-7.362069
1000.164062,-10.257256,-6.397096,-12.222487,-6.887263
1000.167969,-11.849936,-4.856173,-7.020346,-15.186629
1000.171875,-7.030551,-6.414451,-11.854685,-20.262196
1000.175781,-13.989096,-11.586924,-12.549598,-7.996768
1000.179688,-12.043537,-15.296828,-5.282094,-8.670523
1000.183594,-2.459848,-7.969629,-4.037049,-8.656431
1000.187500,-7.678603,-11.360307,-10.851742,-5.227753
1000.191406,-3.760615,-6.528164,-4.248976,-2.097286
1000.195312,-9.451874,-0.111282,-4.111736,-5.833581
1000.199219,-3.497405,1.089924,2.149810,3.685822
1000.203125,3.624450,3.852675,-9.674413,5.615155
1000.207031,7.396791,-1.569855,2.132443,3.587858
1000.210938,9.747296,5.878901,11.485433,4.478304
1000.214844,6.413393,16.650645,9.637382,6.013657
1000.218750,7.496292,6.957642,7.512857,12.492797
1000.222656,8.913279,9.450816,11.155960,11.222040
1000.226562,17.838915,2.885371,14.519901,5.436112
1000.230469,13.552359,14.848860,10.333189,10.025595
1000.234375,12.475790,9.916410,10.881792,6.801054
1000.238281,10.906684,3.215203,0.708064,3.918569
1000.242188,-0.109371,0.996957,5.908426,5.238912
1000.246094,-3.422166,4.226020,2.329536,-8.127817
1000.250000,3.119397,-3.490916,0.834027,2.849499
1000.253906,-3.342857,4.357052,3.322025,-7.242672
1000.257812,0.160391,-5.910567,-6.041206,-7.317209
1000.261719,-8.553759,-4.828941,-11.668951,-3.027028
1000.265625,-9.188084,-2.909394,-9.965617,-13.164943
1000.269531,-12.653783,-9.563836,-7.467127,-15.166113
1000.273438,-3.445594,-12.135483,-5.021227,-13.524835
1000.277344,-18.736420,-6.841613,-6.433060,-12.087173
1000.281250,-10.107925,-7.766993,-13.864794,-7.927456
1000.285156,-2.473092,-9.792341,-11.942731,-12.060048
1000.289062,-10.232859,0.603192,-2.341808,-2.663471
1000.292969,-8.304491,1.212070,-7.140391,1.740905
1000.296875,-3.789182,1.714646,-2.610377,-6.158629
1000.300781,0.519084,-3.262430,8.517076,0.713222
1000.304688,9.467476,4.958605,1.843418,9.363019
1000.308594,3.436507,-1.873463,3.213780,5.460267
1000.312500,7.281204,1.551900,1.503304,7.537134
1000.316406,6.009615,0.854472,15.730930,6.495112
1000.320312,15.688664,-0.330303,10.169243,9.884629
1000.324219,16.062298,11.485963,13.630176,-0.651816
1000.328125,9.197006,11.085092,15.567780,3.140540
1000.332031,-0.697497,8.098557,3.736174,16.100726
1000.335938,6.407872,16.189418,3.595607,5.261842
1000.339844,8.845298,3.121619,8.222207,9.254086
1000.343750,14.105147,-6.930049,5.775707,0.328182
1000.347656,2.238091,2.711520,8.696639,0.407669
1000.351562,-2.647376,2.434870,-3.860228,-4.613929
1000.355469,-5.504386,-2.617095,-1.058806,-0.992572
1000.359375,-8.122781,-4.221040,-0.609836,-6.244873
1000.363281,-1.584783,-7.364628,-10.585693,-11.892761
1000.367188,-14.585319,-15.918658,-5.788830,-6.647620
1000.371094,-15.073073,-15.592909,-3.738802,-14.128903
1000.375000,-8.169978,-13.146830,-11.117816,-11.456092
1000.378906,-11.130391,-10.424132,-8.823283,-15.558543
1000.382812,-3.342596,-11.637329,-10.940668,-3.805307
1000.386719,-2.146625,-3.923416,-0.807623,-10.744512
1000.390625,-1.139078,-3.791747,-7.332196,-6.932020
1000.394531,-6.168475,0.000343,-0.469292,-3.406760
1000.398438,-5.162804,-5.965582,-8.800698,-2.437491
1000.402344,0.717908,-2.319076,3.601501,0.707750
1000.406250,2.967203,5.492285,-0.445929,4.405691
1000.410156,10.865583,10.427412,1.851466,5.768880
1000.414062,10.428090,11.341912,2.359984,12.880171
1000.417969,14.957950,19.189420,14.146243,8.387097
1000.421875,15.172415,6.013572,12.953759,7.627878
1000.425781,13.756616,6.345831,9.596458,8.058125
1000.429688,6.382484,10.500185,0.840832,4.244945
1000.433594,5.735607,16.833806,6.319658,10.217916
1000.437500,5.599794,7.707716,4.203033,16.530547
1000.441406,8.619561,8.311097,8.468594,10.519132
1000.445312,0.472606,-2.484555,0.168472,1.756426
1000.449219,3.542523,1.238064,0.530309,-3.763617
1000.453125,-4.713610,3.720070,-3.415377,-3.971505
1000.457031,-0.136945,-4.162417,-8.911650,-6.367873
1000.460938,-4.789843,-2.200781,-6.264253,-8.737787
1000.464844,-7.843478,-11.201457,-10.104743,-10.835541
1000.468750,-4.772046,-8.685473,-7.350638,-9.644800
1000.472656,-13.655175,-14.521267,-13.642663,-16.607041
1000.476562,-9.130299,-7.861822,-9.335064,-9.586126
1000.480469,-17.800319,-3.311354,-4.992186,-12.718904
1000.484375,-8.317930,-12.060917,-2.677758,-7.593950
1000.488281,-3.912997,-8.925861,-14.028236,-2.390546
1000.492188,-6.620816,-2.901853,-4.274601,-3.277562
1000.496094,-6.230457,-1.426209,0.137503,1.180594
1000.500000,5.085010,4.300140,1.534925,-0.865298
1000.503906,8.150755,-2.265646,3.437591,11.779035
1000.507812,5.302951,3.931425,9.540560,4.329120
1000.511719,0.421879,6.279888,11.747703,4.212112
1000.515625,17.981185,8.670766,9.871576,13.699546
1000.519531,4.740538,2.174284,8.046144,12.785079
1000.523438,13.808430,15.297942,13.068184,10.074611
1000.527344,17.309828,9.752572,6.808770,9.751144
1000.531250,8.101620,3.577047,8.077177,15.367279
1000.535156,0.986642,11.623947,5.929760,-0.010201
1000.539062,4.733299,1.766424,-2.131854,5.873486
1000.542969,5.939758,-0.247244,0.322463,7.173567
1000.546875,-1.523903,4.354787,-1.714519,6.991328
1000.550781,2.638151,3.499072,2.810516,-0.992368
1000.554688,1.119934,4.360665,1.504710,2.495409
1000.558594,-5.706735,-3.491819,-9.675576,1.150948
1000.562500,-11.657577,-8.324671,-6.804814,-4.364220
1000.566406,-5.776002,-10.951797,-12.100951,-7.670363
1000.570312,-3.792905,-6.195901,-12.929005,-12.037209
1000.574219,-13.431823,-9.635089,-15.141918,-9.754846
1000.578125,-16.477581,-3.637561,-9.270799,-9.731868
1000.582031,-8.994232,-5.370743,-5.533419,-13.334360
1000.585938,-16.594970,-14.141372,-3.250306,-8.914763
1000.589844,-2.016201,-0.536075,-11.953223,-1.030324
1000.593750,-7.744036,-6.917234,0.716264,-4.224900
1000.597656,2.846979,5.589395,6.282443,-2.517111
1000.601562,2.455255,2.891980,-2.375657,-5.360598
1000.605469,1.863609,2.269031,2.308242,-3.133775
1000.609375,12.949835,9.053548,7.607453,8.977062
1000.613281,8.265783,1.825547,0.902086,2.287472
1000.617188,6.480166,1.133384,11.087344,4.596608
1000.621094,12.268436,12.810026,14.247731,5.073007
1000.625000,9.023674,18.718551,11.990658,13.648175
1000.628906,9.666912,8.811991,9.832793,8.104676
1000.632812,5.171668,6.236717,13.373876,7.681434
1000.636719,10.649757,0.730761,6.623895,10.121219
1000.640625,11.177603,3.115570,5.063486,8.819381
1000.644531,4.369018,1.305562,-1.741191,2.728411
1000.648438,-6.918556,-0.658586,4.032582,0.268694
1000.652344,-1.411286,-1.044671,-6.571385,-3.018064
1000.656250,-5.197538,-1.513152,-5.496057,-6.917418
1000.660156,-6.504954,-7.171785,-8.935390,-13.162188
1000.664062,-7.894942,-8.700641,-0.929853,-4.315211
1000.667969,-5.210546,-4.450600,-10.022855,-7.435244
1000.671875,-11.534216,-16.588244,-11.032543,-15.958006
1000.675781,-11.035225,-10.923104,-10.537134,-12.038077
1000.679688,-11.013945,-9.939324,0.317654,-8.204037
1000.683594,-5.499447,-11.326399,-4.863026,-12.160775
1000.687500,-5.641452,-2.339949,-2.491817,-12.782368
1000.691406,-4.213569,-8.941624,-1.906996,0.491570
1000.695312,-6.375080,-5.112588,-4.095265,3.007058
1000.699219,2.156389,-3.017168,2.006973,-7.434257
1000.703125,-0.592359,4.007029,5.352007,7.692026
1000.707031,-5.186317,-1.709945,7.315723,0.899345
1000.710938,8.323087,7.109758,7.734227,4.885330
1000.714844,4.923638,8.981453,3.133491,7.520422
1000.718750,13.131401,15.174130,9.827272,9.780999
1000.722656,-1.097155,12.474182,7.356155,13.536752
1000.726562,2.958254,3.444950,11.181415,10.273401
1000.730469,5.901059,7.412623,11.644639,7.194266
1000.734375,10.062782,15.216592,10.706391,4.882175
1000.738281,4.675246,8.602671,4.263727,7.493690
1000.742188,11.088344,2.841115,7.440581,3.422006
1000.746094,6.121622,7.008312,6.736604,4.115674
1000.750000,1.108179,2.259062,-1.207165,-5.513974
1000.753906,-1.594477,-7.704642,2.989002,-3.775630
1000.757812,-2.597408,-5.093551,-12.142382,-8.466284
1000.761719,-11.476882,-10.795985,-1.756177,-5.231762
1000.765625,-7.028926,-7.440841,-9.480969,-7.872249
1000.769531,-2.483100,-12.310318,-14.553639,-8.420592
1000.773438,-16.485416,-10.932987,-5.917849,-11.888721
1000.777344,-9.216058,-9.287312,-10.995914,-13.132919
1000.781250,-15.016467,-5.475028,-2.865598,-9.073902
1000.785156,-5.134149,-8.916020,-5.087198,-8.999438
1000.789062,-8.709371,-7.322328,-5.888813,-6.591592
1000.792969,-8.945393,1.585051,3.570339,-1.309807
1000.796875,6.606328,0.830342,2.302867,3.549153
1000.800781,6.149988,4.660067,0.202223,-2.203772
1000.804688,-6.012758,4.539195,4.758065,10.595706
1000.808594,11.641286,4.941860,14.102790,11.470284
1000.812500,3.145774,8.393727,8.282920,11.746871
1000.816406,7.861619,2.345191,4.079718,4.926311
1000.820312,14.720929,12.937040,6.974090,3.147539
1000.824219,7.441131,8.845813,4.110190,1.716486
1000.828125,7.037364,11.735326,12.178472,5.633904
1000.832031,2.670033,4.726477,9.531099,6.095038
1000.835938,7.998135,2.394786,6.096162,6.821396
1000.839844,4.900146,7.535296,-0.073658,5.598965
1000.843750,8.080477,8.842752,-4.937853,3.096827
1000.847656,6.736600,4.750272,-0.772766,1.970303
1000.851562,-0.164421,-1.970986,3.773284,5.415602
1000.855469,-1.005910,-8.694055,4.575987,-5.664041
1000.859375,-13.823774,-3.402017,-1.152710,-8.867061
1000.863281,1.240781,-8.095815,-4.052372,-10.560965
1000.867188,-6.861866,-1.271832,-13.229754,-5.660369
1000.871094,-14.126913,-4.284678,-6.169972,-16.372132
1000.875000,-8.406396,-12.795617,-12.069080,-3.773533
1000.878906,-7.779805,-6.038393,-13.890107,-13.501998
1000.882812,-11.729720,-9.061026,-8.261235,1.543041
1000.886719,-2.924027,-4.629673,-6.291442,-4.153755
1000.890625,-7.631647,-7.002710,-14.126627,-6.624031
1000.894531,2.121180,-1.656116,-6.595392,-6.439927
1000.898438,1.812295,1.121628,-1.170630,9.830820
1000.902344,-3.167186,0.185076,8.352636,-6.798951
1000.906250,9.903219,1.280204,0.874691,6.442144
1000.910156,9.990179,2.313722,10.134761,7.517280
1000.914062,9.226491,11.359480,2.121740,5.658856
1000.917969,7.907397,8.354322,11.550159,10.991694
1000.921875,11.225564,15.561559,8.204040,9.652593
1000.925781,12.116650,12.882479,7.689684,11.926675
1000.929688,7.590361,13.994263,6.731813,9.789101
1000.933594,12.932779,3.048930,8.997861,6.617345
1000.937500,7.963080,8.582652,2.530893,4.747497
1000.941406,8.598930,10.355855,8.786051,-1.014568
1000.945312,-0.303272,-0.059282,3.789339,11.173165
1000.949219,1.211929,-4.665380,-2.546900,3.052994
1000.953125,-5.323872,4.632537,-1.093957,-1.864572
1000.957031,-2.373431,-6.495267,-3.134998,-1.999886
1000.960938,-9.118090,-4.653420,-4.452513,-8.731122
1000.964844,-6.895572,-11.189305,-11.481967,0.712260
1000.968750,-9.895517,-7.561675,-16.146189,-3.698544
1000.972656,-13.304560,-11.726214,-5.280956,-5.975644
1000.976562,-10.957203,-15.907803,-12.307531,-10.656053
1000.980469,-8.593640,-13.915907,-13.217541,-11.692323
1000.984375,-9.407773,-3.790070,-7.530363,-11.606137
1000.988281,-2.491371,-10.250387,-5.394200,-10.691154
1000.992188,-7.202066,-9.364173,-4.149799,0.713097
1000.996094,-0.582463,2.954804,-3.932438,2.920521
1001.000000,11.942079,4.249716,3.236714,-1.380526
1001.003906,4.657150,4.036013,7.343743,5.148666
1001.007812,7.417775,1.050877,1.213490,4.068001
1001.011719,-2.357420,7.262900,9.242413,4.559663
1001.015625,11.740262,11.204322,3.502537,5.851586
1001.019531,6.556152,11.443812,5.095079,12.398757
1001.023438,14.203678,14.136493,16.572132,13.384327
1001.027344,12.357395,7.449596,11.657857,12.074596
1001.031250,10.536466,5.794903,7.234509,12.655914
1001.035156,6.908595,3.208501,8.066291,2.604939
1001.039062,8.266309,0.857523,8.029184,6.363055
1001.042969,12.870238,6.466611,9.265270,-3.060534
1001.046875,0.351611,3.468456,-2.184228,2.475943
1001.050781,-0.908374,2.300212,-2.528333,2.067881
1001.054688,-6.557224,-4.092255,-3.168999,-2.292117
1001.058594,-4.158094,-7.267566,-6.454221,-10.898449
1001.062500,-4.229401,-1.117069,-6.745934,-1.312413
1001.066406,-10.513348,-7.515111,-4.808129,-11.716296
1001.070312,-6.642673,-8.419860,-10.886139,-11.820365
1001.074219,-10.518537,-4.824827,-9.426936,-12.306751
1001.078125,-8.376452,-3.045301,-16.621857,-5.302360
1001.082031,-7.057579,-3.899552,-7.353476,-13.947385
1001.085938,-11.135810,-9.535375,-6.823916,-7.546717
1001.089844,-5.906423,-11.456900,-4.155755,-10.037424
1001.093750,-4.144862,-8.413352,6.500792,-6.532527
1001.097656,-4.654812,0.634576,1.659468,-3.909696
1001.101562,-3.324580,-0.113717,1.248514,-0.373338
1001.105469,1.368387,12.153701,8.224879,4.993114
1001.109375,12.100572,5.402854,3.146159,8.121353
1001.113281,10.305339,17.382730,0.232463,7.490149
1001.117188,6.556696,6.552438,10.270706,8.443544
1001.121094,12.188075,3.760379,13.253051,9.397788
1001.125000,9.957854,7.805063,11.065043,10.673947
1001.128906,8.784138,9.271238,15.017335,8.659334
1001.132812,11.068175,9.684998,4.763646,8.890692
1001.136719,7.860077,4.419143,6.555660,5.717739
1001.140625,10.153280,7.105811,3.850098,4.524025
1001.144531,5.379842,1.943251,0.193009,2.069572
1001.148438,3.457832,4.112497,5.845511,0.838547
1001.152344,-6.577558,0.606003,-1.322208,-2.448319
1001.156250,-3.704985,-1.777810,-2.235844,-8.352861
1001.160156,-5.056922,-12.069772,-9.028195,-9.947766
1001.164062,-6.412844,-7.389894,-3.932339,-13.252844
1001.167969,-10.864865,-3.913790,-4.749579,-8.227127
1001.171875,-8.056422,-13.312809,-8.978176,-2.787543
1001.175781,-8.021645,-10.326832,-14.921256,-6.222755
1001.179688,-9.748571,-2.399762,-13.932219,-8.634834
1001.183594,3.506819,-3.390525,-3.376632,-4.700068
1001.187500,-3.594889,2.373577,-6.426146,-5.076317
1001.191406,-5.654720,-4.184805,-0.035342,0.486052
1001.195312,-8.273331,-2.430811,0.215230,-1.446682
1001.199219,1.478688,2.245567,-3.675755,-0.668302
1001.203125,3.459648,-0.503589,6.600235,0.994574
1001.207031,10.121111,8.555010,0.167581,4.607477
1001.210938,10.075362,-3.639141,7.230477,5.807798
1001.214844,4.874096,3.115866,-1.584034,12.916649
1001.218750,15.308496,1.435009,9.429362,10.912165
1001.222656,12.812711,5.598627,16.614701,7.978643
1001.226562,2.026857,6.352275,2.221235,10.612554
1001.230469,7.771410,14.117964,7.214110,9.537943
1001.234375,11.869232,10.151965,8.923459,7.373212
1001.238281,4.633703,7.368820,5.341950,6.352899
1001.242188,2.452684,9.620757,-0.437714,-0.668746
1001.246094,4.722922,4.493075,2.568999,2.934299
1001.250000,0.426190,-1.372425,-0.000974,-2.237114
1001.253906,4.780493,3.243833,-7.252395,-2.750054
1001.257812,-1.878083,4.036580,-2.907716,-7.066209
1001.261719,-3.563840,-9.735249,-8.309563,-6.143891
1001.265625,-6.740762,-14.764148,-16.836839,-12.461357
1001.269531,-7.658480,-8.281481,-10.182054,-9.571413
1001.273438,-15.801277,-4.965141,-11.325929,-8.781657
1001.277344,-10.870173,-11.187101,-13.710638,-10.332821
1001.281250,-6.016738,-14.992390,-13.569023,-10.307615
1001.285156,-2.488932,-12.786812,-14.308597,-8.233928
1001.289062,-2.524130,-11.532433,-14.713859,-5.912424
1001.292969,-0.294630,0.884184,-6.829862,-3.738785
1001.296875,-5.185830,-3.959561,-1.973076,-0.309154
1001.300781,-0.785447,0.087479,-4.956087,-5.476942
1001.304688,-2.810667,1.338638,0.458892,4.196712
1001.308594,8.741573,10.233932,11.314242,8.222477
1001.312500,3.518935,9.970525,8.001022,7.435331
1001.316406,10.252401,11.035339,8.817544,3.547753
1001.320312,11.801997,6.757981,8.135692,12.100829
1001.324219,5.180356,7.042795,8.396283,9.582180
1001.328125,19.830761,7.932218,6.455593,5.088398
1001.332031,6.214475,14.554604,15.995784,6.043760
1001.335938,12.582962,4.605864,10.473890,8.123865
1001.339844,8.160298,6.061448,6.965942,5.972109
1001.343750,3.259286,6.166973,5.118774,8.597223
1001.347656,4.653351,1.196733,3.586432,0.256254
1001.351562,1.449713,-3.220284,-5.769084,-2.650579
1001.355469,0.953985,3.147937,-9.602775,-6.011899
1001.359375,-9.341862,-7.463426,-5.784046,-8.517746
1001.363281,-1.961628,-6.286199,-13.137333,-4.396534
1001.367188,-10.453541,-2.980313,-7.034780,-7.587447
1001.371094,-14.210780,-9.672424,-13.881783,-7.730650
1001.375000,-13.578109,-9.369662,-15.519785,-6.515297
1001.378906,-11.978504,-15.309658,-7.599024,-12.383310
1001.382812,-13.970645,-14.081830,-6.829911,-15.970148
1001.386719,-9.310955,-12.291666,-4.095791,-7.268809
1001.390625,1.090187,-8.033795,-6.515762,-5.390528
1001.394531,-2.786144,-2.241717,2.494758,-1.120969
1001.398438,-0.012941,6.507406,1.004100,3.995003
1001.402344,0.940669,0.447337,8.220741,7.580928
1001.406250,4.983631,-1.779757,0.768379,0.697239
1001.410156,1.990798,6.641489,2.719616,11.750691
1001.414062,7.648786,6.757610,15.601264,3.534284
1001.417969,7.235034,9.247492,7.956082,6.901642
1001.421875,0.649745,12.762474,8.299978,7.268484
1001.425781,4.739854,-0.295765,15.178087,10.643470
1001.429688,12.700993,6.581011,4.709666,9.778759
1001.433594,5.128731,-1.868426,13.963309,4.364842
1001.437500,11.710625,7.746414,6.350486,1.541275
1001.441406,3.108743,1.171234,12.667709,2.607518
1001.445312,-2.680317,1.620673,5.156737,-3.577109
1001.449219,-8.465348,0.542381,-0.767047,-2.047006
1001.453125,-1.985250,2.466410,-3.154559,1.739873
1001.457031,-7.040631,-8.473022,-6.962804,-6.761699
1001.460938,-3.554346,-2.766147,-5.572627,-3.917876
1001.464844,-12.475249,-11.198856,-11.354596,-10.751775
1001.468750,-7.329612,-11.992861,-6.269629,-11.892079
1001.472656,-10.486175,-17.386679,-8.175239,-6.176666
1001.476562,-4.517722,-9.624262,-4.327149,-11.226777
1001.480469,-12.749248,-6.659040,-13.644030,-15.138291
1001.484375,-8.131863,0.673567,-5.017526,-2.340347
1001.488281,-7.979226,-3.068899,-3.944379,-5.752346
1001.492188,-4.302752,-5.875459,-4.211381,-13.639930
1001.496094,-4.204019,-6.813416,-1.032714,-3.078879
1001.500000,-2.331042,4.582996,1.289944,-0.500223
1001.503906,5.153870,3.079710,5.933324,3.664314
1001.507812,2.757272,-1.069111,8.728305,9.705807
1001.511719,2.280790,4.363671,4.833038,16.776556
1001.515625,10.006880,16.884258,4.585087,10.178504
1001.519531,15.672119,13.457965,13.508632,9.663953
1001.523438,13.438044,7.560590,10.791811,14.314969
1001.527344,12.349591,11.336418,13.364579,11.189818
1001.531250,5.031576,14.878754,9.757873,12.798459
1001.535156,3.560326,7.141887,7.477317,9.806445
1001.539062,3.269968,3.650608,2.858330,7.359894
1001.542969,-2.213778,2.541640,6.519760,9.550313
1001.546875,4.792937,1.515229,2.910586,6.945321
1001.550781,-6.327219,2.139967,-5.498129,0.790574
1001.554688,-1.339693,7.250813,0.979860,0.201275
1001.558594,-12.432153,-7.957139,0.835265,-5.646529
1001.562500,-2.875757,-8.459418,-5.978720,-6.002217
1001.566406,-10.040338,-12.118819,-9.917670,-3.933177
1001.570312,-10.631256,-9.317632,-1.562044,-17.747663
1001.574219,-4.158088,-11.228027,-9.688335,-15.944788
1001.578125,-10.076656,-7.434039,-10.605537,-13.884324
1001.582031,-6.485497,-5.910547,-8.986179,-4.263711
1001.585938,-9.643406,-9.659487,-7.005107,-1.960300
1001.589844,-0.876027,4.390365,-5.891300,-8.889944
1001.593750,-5.819358,-3.385247,-1.925842,-2.093572
1001.597656,1.792462,-5.326390,-4.788443,-13.335449
1001.601562,0.074138,-0.358258,1.934577,-2.049346
1001.605469,-4.767422,-1.890839,4.965945,-1.393949
1001.609375,5.919644,5.727606,11.891872,14.156572
1001.613281,11.895855,0.310963,10.406908,2.968703
1001.617188,8.385561,8.085568,14.703663,12.804784
1001.621094,12.736789,13.710159,9.316212,6.052012
1001.625000,10.020717,2.737580,3.384948,14.497780
1001.628906,8.929958,9.333235,6.311321,14.300417
1001.632812,8.901327,8.987146,4.353201,6.119663
1001.636719,2.688420,6.912580,9.649968,-4.484799
1001.640625,5.904762,9.448891,0.346443,1.278133
1001.644531,8.999886,9.451199,2.640042,11.259455
1001.648438,-3.173644,-0.606346,-0.087350,-0.608242
1001.652344,-3.296303,-1.222476,-2.609468,-0.026143
1001.656250,-0.408365,-1.028222,-5.273819,-7.357721
1001.660156,-9.034244,-11.351684,-3.004355,-13.820734
1001.664062,-8.821213,-10.886211,-13.175915,-0.612087
1001.667969,-6.927029,-15.528095,-5.309619,-4.491109
1001.671875,-14.504072,-7.454724,-13.773871,-9.857950
1001.675781,-12.075291,-17.080060,-7.221982,-7.244174
1001.679688,-9.105137,-14.848378,-18.203237,-8.923547
1001.683594,-10.692198,-10.706303,-6.554070,-2.020378
1001.687500,-9.777684,-8.307694,-5.206879,-5.245336
1001.691406,-1.054040,-10.310440,-2.954152,-6.080879
1001.695312,-3.585840,-2.358404,-1.794629,0.794222
1001.699219,-1.395336,-8.402579,-3.702251,-3.870803
1001.703125,2.394057,-4.795361,-0.101470,4.872706
1001.707031,-2.607314,1.030181,-3.973908,0.679778
1001.710938,3.942928,3.972740,5.316028,2.736779
1001.714844,3.193866,9.832314,11.647156,2.843315
1001.718750,12.442434,2.537468,11.983489,12.720342
1001.722656,10.511217,9.489243,11.717175,9.874403
1001.726562,8.905949,13.747525,5.889908,14.258930
1001.730469,4.718379,8.419392,15.648475,10.230256
1001.734375,10.791394,13.293206,9.366517,12.536739
1001.738281,14.571342,3.948653,9.129566,4.055594
1001.742188,-3.260407,3.230148,8.249781,10.403974
1001.746094,6.494854,7.650870,-8.526431,6.171300
1001.750000,-3.062509,-3.357097,-10.568849,4.020749
1001.753906,-4.825385,-4.091334,-3.578666,-5.409982
1001.757812,-8.948069,-3.435686,-2.885309,-0.793411
1001.761719,0.066755,-2.890852,-6.884604,-6.869434
1001.765625,-5.215409,-8.522088,-6.937914,-5.660707
1001.769531,-17.164421,-12.364851,-12.872133,-14.811738
1001.773438,-16.451815,-10.889771,-18.060633,-8.195819
1001.777344,-20.634752,-1.467224,-8.388993,-13.895083
1001.781250,-17.507386,-12.416463,-10.488901,-9.931963
1001.785156,-10.462511,-8.474288,-5.280717,-15.701373
1001.789062,-4.277984,-11.421826,-8.912938,-2.166103
1001.792969,0.156271,-9.832759,-6.907014,-6.936810
1001.796875,-10.466534,2.404654,-3.236094,-0.017272
1001.800781,-4.660804,-0.038913,4.915295,-8.622837
1001.804688,4.236272,7.859759,-0.791505,2.636859
1001.808594,5.610643,2.075273,5.679926,5.402275
1001.812500,5.782136,12.421027,7.917065,6.587830
1001.816406,10.148301,9.457631,14.770695,8.952668
1001.820312,5.752504,3.879294,18.659222,3.538693
1001.824219,12.608225,8.508953,11.705132,8.517783
1001.828125,5.255070,11.761810,5.434671,6.070929
1001.832031,6.732875,6.239911,4.820222,15.013456
1001.835938,9.528261,8.969323,9.079302,12.662987
1001.839844,8.473811,5.497045,1.383109,2.753883
1001.843750,4.685106,5.742189,6.629516,8.624983
1001.847656,1.414186,0.586026,8.096433,5.505879
1001.851562,1.268836,-5.442417,-2.059154,2.813126
1001.855469,-7.339774,-7.310498,-1.630661,3.139730
1001.859375,-8.472260,-6.731676,-4.237143,-6.238967
1001.863281,-16.008603,-3.533378,-10.101256,-2.438905
1001.867188,-7.685504,-10.736898,-12.499011,-7.678409
1001.871094,-2.831069,1.978068,-10.263862,-8.169860
1001.875000,-13.436577,-11.254316,-6.107611,-16.810216
1001.878906,-11.009722,-14.527055,-3.871676,-7.695446
1001.882812,-5.214773,-7.044523,-2.574577,-6.140005
1001.886719,-7.661705,-11.136605,-5.346061,-4.226034
1001.890625,-7.793268,-3.539466,-3.439887,-7.438780
1001.894531,-10.193859,1.485089,-10.189644,-7.911954
1001.898438,3.561786,-1.332015,-1.130592,-10.007528
1001.902344,1.761542,0.126727,2.726172,0.776500
1001.906250,10.539346,5.169481,11.360010,0.154611
1001.910156,4.092341,-1.667106,1.649794,8.550525
1001.914062,5.525235,6.821123,9.620655,11.259957
1001.917969,9.206232,6.175339,8.845973,11.807773
1001.921875,6.753562,7.956959,1.224318,9.538483
1001.925781,21.161167,11.810996,13.788298,18.767479
1001.929688,14.868403,3.833382,14.078583,13.179489
1001.933594,8.570152,2.631697,3.608847,2.435842
1001.937500,12.358182,1.276357,4.795655,8.239164
1001.941406,6.092017,8.663327,4.507380,11.673130
1001.945312,2.436455,2.667778,6.188484,7.215337
1001.949219,-4.048937,2.296941,-1.753002,7.497617
1001.953125,-7.011264,2.121575,-4.498356,0.992550
1001.957031,-0.769522,-4.713062,-4.781134,-3.466951
1001.960938,-11.705696,-4.178509,-7.992562,-4.289615
1001.964844,-9.228161,-10.267496,-10.970434,-12.050218
1001.968750,-12.242725,-12.648916,-6.135042,-3.901467
1001.972656,-13.253538,-18.306781,-9.827724,-8.202124
1001.976562,-11.751797,-10.703270,-10.112796,-8.264128
1001.980469,-6.115382,-7.166340,-12.110644,-13.198395
1001.984375,-4.213732,-6.755209,-8.054860,-7.677778
1001.988281,-3.684306,-7.687438,-3.282039,-8.640128
1001.992188,-3.595312,-8.876168,-2.018352,-5.920684
1001.996094,0.037726,-16.590644,-13.815252,-3.724843
1002.000000,-1.071246,3.974307,4.183142,-1.908612
1002.003906,5.310422,1.370556,-2.075050,3.741712
1002.007812,-2.438478,7.247740,2.030555,12.154878
1002.011719,-2.737380,16.940442,6.065893,4.808165
1002.015625,7.000757,8.345756,11.702206,11.505303
1002.019531,10.875969,7.828699,16.510780,9.018731
1002.023438,9.946821,11.046187,8.771382,11.580957
1002.027344,0.763351,12.014754,3.176157,4.487655
1002.031250,7.442771,3.172268,9.758835,14.288747
1002.035156,10.869077,2.964475,16.474708,5.716261
1002.039062,7.054367,12.898684,7.758368,0.213432
1002.042969,1.629823,12.548523,4.632058,-2.680576
1002.046875,8.716754,3.413096,2.823037,-1.902900
1002.050781,-6.265321,-3.433364,0.573748,-5.284826
1002.054688,-4.885675,1.876770,-4.283585,0.669975
1002.058594,-7.943719,-3.079653,0.130532,-8.671290
1002.062500,0.510977,-9.561976,-9.895430,3.178946
1002.066406,-7.173678,-5.087489,-4.288827,-11.138146
1002.070312,-10.316008,-5.072177,-10.836746,-12.416894
1002.074219,-10.195925,-11.455208,-8.661817,-6.033871
1002.078125,-16.082543,-12.441980,-9.552040,-10.961364
1002.082031,-14.787469,2.525927,-6.849015,-5.358704
1002.085938,-7.528972,-11.908045,-4.237840,-5.021515
1002.089844,-6.089395,-7.520940,-1.996362,-2.010292
1002.093750,-7.085016,-10.395735,-3.336556,-4.822331
1002.097656,-2.763240,-6.145588,-1.676268,-2.117701
1002.101562,2.675811,-2.547584,-0.793701,5.962731
1002.105469,3.393249,2.597481,-2.850226,13.812025
1002.109375,8.033714,7.894955,11.863293,2.867416
1002.113281,0.625818,4.672379,5.103441,1.111172
1002.117188,9.537224,11.052975,10.535352,11.197118
1002.121094,4.064310,11.302222,10.095496,16.910787
1002.125000,12.652854,8.662187,18.506687,8.504193
1002.128906,9.883529,1.532358,8.388038,12.653107
1002.132812,11.748741,5.964498,12.428146,6.727391
1002.136719,5.858791,14.131907,9.403737,6.448512
1002.140625,8.777832,-0.088146,3.201980,7.082796
1002.144531,5.153246,-0.573539,2.107784,3.982438
1002.148438,1.031936,5.387185,1.627650,-5.269454
1002.152344,-3.828870,-3.417925,2.470910,0.422291
1002.156250,-8.112188,-0.070778,-1.225199,-12.147398
1002.160156,-3.089308,-4.167736,-7.634599,-7.256488
1002.164062,-4.995367,-8.521123,-3.581820,0.548783
1002.167969,-3.559670,-4.956186,-8.587208,-8.489090
1002.171875,-5.939302,-10.609632,-8.497506,-7.260176
1002.175781,-9.565487,-14.786789,-5.073790,-0.853828
1002.179688,-10.699584,-7.214799,-11.402208,-10.252611
1002.183594,-7.116401,1.258089,-3.915034,-13.313707
1002.187500,-6.234259,-13.927095,-6.179720,-7.350545
1002.191406,-9.458098,-8.604189,-5.926841,-7.838727
1002.195312,-1.660326,-0.064682,-1.563626,1.259554
1002.199219,1.990221,-1.003372,8.361150,-9.399568
1002.203125,6.838390,7.819810,0.090923,-3.512954
1002.207031,-1.203592,-4.879029,6.661737,6.126933
1002.210938,3.185581,10.116262,9.149128,13.010118
1002.214844,7.241303,7.642515,4.424188,0.714688
1002.218750,14.407001,5.697304,6.054854,10.333291
1002.222656,11.938686,17.455888,11.963436,10.971415
1002.226562,19.821766,10.593305,17.830726,13.502777
1002.230469,5.434207,10.360277,11.819992,10.043565
1002.234375,5.365236,11.291533,6.922099,9.260511
1002.238281,6.876707,8.570740,11.528751,5.877798
1002.242188,6.719898,4.045531,3.626959,5.699189
1002.246094,-1.587246,-5.211780,-4.609668,0.159046
1002.250000,1.245894,2.006847,-1.283068,0.091315
1002.253906,-0.081568,-3.762605,-4.768905,-4.182868
1002.257812,-0.069945,-8.078293,-7.889448,-1.274768
1002.261719,-6.935997,-2.276782,-6.272839,-10.636507
1002.265625,-10.825735,-12.265843,-14.081168,-5.297865
1002.269531,-1.518758,-9.142625,-14.440200,-4.030707
1002.273438,-14.099539,-8.474368,-10.026770,-11.490259
1002.277344,-10.253709,-7.628320,-10.912932,-6.234004
1002.281250,-14.357985,-9.289089,-5.647386,-5.764130
1002.285156,-6.955588,-8.504312,-10.151078,-11.438257
1002.289062,-8.174366,-6.093692,-5.403658,-2.547389
1002.292969,-2.854411,-7.031566,-4.359466,4.087954
1002.296875,-3.577268,-4.360525,4.892064,-1.747995
1002.300781,0.180359,3.029415,0.862269,-6.185746
1002.304688,4.704236,-0.746570,1.810440,-1.463866
1002.308594,9.210155,-1.495479,4.503595,5.259917
1002.312500,7.882865,2.552645,4.832787,2.217320
1002.316406,5.644888,8.139725,10.134445,3.646882
1002.320312,11.857025,9.369654,11.074745,13.816518
1002.324219,8.700227,8.483771,7.666823,12.413071
1002.328125,10.686137,14.963580,10.673646,11.439984
1002.332031,3.253027,8.577467,3.891933,1.693571
1002.335938,-2.627833,6.736894,16.363906,3.601277
1002.339844,15.097991,6.926414,5.844215,4.717673
1002.343750,2.357524,1.447252,3.476167,6.370063
1002.347656,-2.031885,-4.423549,4.052224,0.372850
1002.351562,-7.038582,2.281853,4.162131,-7.973748
1002.355469,-8.687843,0.306693,1.894173,-0.252719
1002.359375,-3.313101,-2.330098,-6.115664,3.814467
1002.363281,-12.756977,-6.098710,-10.235655,-9.925197
1002.367188,-1.953606,-3.512026,-6.574803,-8.379335
1002.371094,-11.505577,-9.377119,-4.478324,-5.050873
1002.375000,-7.989690,-7.985933,-6.636372,-8.544849
1002.378906,-10.705523,-8.155491,-6.548178,0.347933
1002.382812,-4.099719,-18.003269,-8.061265,-3.170604
1002.386719,-6.298867,-0.560284,-9.460521,-14.884603
1002.390625,-8.541066,-8.512303,-1.139380,1.019829
1002.394531,0.594170,-1.611134,-7.359805,-2.727112
1002.398438,2.150442,0.364174,-2.511625,1.377494
1002.402344,0.367960,3.964488,1.298854,1.511084
1002.406250,11.503192,0.978518,2.486139,13.962705
1002.410156,8.548457,13.797518,7.130081,6.277805
1002.414062,3.278430,9.836033,5.736909,9.911517
1002.417969,13.764013,3.031912,3.527254,14.902937
1002.421875,7.965902,9.307711,1.468561,1.895508
1002.425781,13.740272,9.641446,14.557080,14.231562
1002.429688,9.555365,10.187267,11.578493,10.642168
1002.433594,6.027594,10.744183,4.519253,10.760136
1002.437500,7.067799,10.761479,15.088118,13.216460
1002.441406,7.089222,3.873148,7.068527,3.460974
1002.445312,2.222882,4.687531,1.137236,3.616724
1002.449219,6.055792,0.936604,1.912986,1.200977
1002.453125,-5.025366,0.238957,-1.806960,-4.585133
1002.457031,0.308691,-1.949803,5.450573,-5.922677
1002.460938,-1.959154,-5.913374,-4.396232,-5.769100
1002.464844,-5.428960,-8.750540,-8.888956,-11.962223
1002.468750,-5.346763,-8.988485,-12.902434,-9.158502
1002.472656,-16.507307,-15.122658,-9.463259,-14.086451
1002.476562,-9.358933,-13.571433,-11.792083,-10.386537
1002.480469,-7.702257,-9.551467,-10.753173,-13.864131
1002.484375,-10.031588,-12.727729,-8.978456,-10.749240
1002.488281,-9.923475,-5.525232,-11.412959,-6.940391
1002.492188,1.336095,-9.539750,-2.761564,-3.638620
1002.496094,-11.007975,-2.123392,-7.105537,-1.431292
1002.500000,-0.541734,-1.327725,6.223081,7.646021
1002.503906,4.138986,1.854898,0.602242,5.107257
1002.507812,4.707501,3.656430,8.645210,1.300102
1002.511719,1.841750,11.542810,3.519324,3.826454
1002.515625,5.848257,3.855130,3.535948,8.468314
1002.519531,10.844403,11.060354,6.376990,12.957586
1002.523438,9.010249,11.900439,13.427977,10.038134
1002.527344,6.720744,9.265819,16.077647,10.960412
1002.531250,15.642258,12.721583,18.236872,8.211712
1002.535156,10.702555,4.602355,7.077005,1.690482
1002.539062,2.100176,7.683956,16.552483,4.661497
1002.542969,-0.196390,6.004068,-9.142207,-2.097388
1002.546875,1.599536,-3.779353,3.955793,-4.724521
1002.550781,1.131831,-5.147661,0.599964,3.323279
1002.554688,-2.366264,3.587086,-1.342522,-1.877332
1002.558594,-4.770842,-6.760189,-6.623319,-4.210380
1002.562500,-9.280399,1.842000,-1.003977,-0.224665
1002.566406,-7.137933,-1.034791,1.554004,-16.801958
1002.570312,-9.615186,-11.918439,-6.619781,-6.653792
1002.574219,-17.781464,-10.738809,-4.224772,-9.705381
1002.578125,-13.288782,-8.718663,-14.526458,-14.151940
1002.582031,-14.114609,-11.134193,-9.322050,-13.392747
1002.585938,-4.591043,-5.592824,-9.140501,-8.754591
1002.589844,-4.980713,-9.035075,-1.355186,-14.549312
1002.593750,-5.397436,-5.459514,-3.412150,-11.313947
1002.597656,1.384571,-0.070745,-0.296252,-6.382441
1002.601562,2.566551,0.074079,0.604406,-3.310436
1002.605469,5.035890,11.524578,3.935372,-1.173392
1002.609375,10.135545,1.351105,0.199264,14.448583
1002.613281,7.646363,12.624111,2.997679,7.104462
1002.617188,9.410081,9.120402,14.520561,9.822841
1002.621094,10.961707,5.988519,14.837614,7.842694
1002.625000,13.523686,9.015017,6.834352,9.053815
1002.628906,14.312424,9.586006,10.345398,10.891021
1002.632812,9.065132,2.015863,12.663620,15.889913
1002.636719,7.688530,2.744245,13.058463,6.074952
1002.640625,6.386033,5.961108,5.492185,6.459918
1002.644531,4.267635,8.536100,8.105881,-0.604808
1002.648438,0.456922,-0.300225,-5.063441,1.703740
1002.652344,3.074593,-1.646430,-1.687542,5.681824
1002.656250,1.838257,-5.128658,-0.298920,-8.881164
1002.660156,-6.467945,-7.442121,-6.571897,-9.438611
1002.664062,-16.486942,-6.125509,-7.096887,-12.327417
1002.667969,-9.320169,-13.549149,-9.718844,-5.731116
1002.671875,-5.826098,-6.205656,-0.606368,-10.803225
1002.675781,-13.251195,-8.451968,-3.009854,-9.462908
1002.679688,-3.559890,-10.632545,-2.304838,-6.012512
1002.683594,-8.505233,-7.052283,-11.235075,-8.276225
1002.687500,-8.481802,-6.733589,-10.793754,-5.312813
1002.691406,-8.100363,-6.519500,-7.956929,-8.349751
1002.695312,-5.063806,-2.571315,0.165322,-2.939060
1002.699219,-0.558537,-2.722412,-0.093079,0.540887
1002.703125,1.143344,-1.806250,-0.131814,3.667410
1002.707031,6.298275,11.003559,4.563001,8.948588
1002.710938,7.372987,9.872387,13.994674,5.747355
1002.714844,10.056779,12.148162,9.721406,17.248846
1002.718750,14.138547,3.070559,4.533966,8.021156
1002.722656,12.216832,3.344772,9.032651,18.152092
1002.726562,13.035775,8.423264,15.273479,8.025293
1002.730469,8.489600,12.894420,8.167191,9.921692
1002.734375,5.875233,2.341652,8.799102,8.040342
1002.738281,4.205235,2.440436,10.323676,8.446271
1002.742188,4.562584,0.061097,3.714843,4.866433
1002.746094,-1.279654,-1.710467,6.433739,5.842822
1002.750000,1.781784,-1.141677,-1.355123,-0.332666
1002.753906,-3.305976,5.300493,3.759020,-4.911840
1002.757812,-0.664217,-3.709653,-5.891644,-5.662876
1002.761719,-4.409486,-11.029160,-13.652383,-2.757330
1002.765625,-4.679423,-7.639018,-13.139155,-7.292023
1002.769531,-13.688672,-8.468447,-12.911542,-5.486696
1002.773438,-8.743406,-5.412374,-13.462191,-7.288925
1002.777344,-8.862289,-8.126454,-6.966896,-7.085956
1002.781250,-7.206907,-6.085898,-10.362221,-9.453026
1002.785156,-12.442680,-5.318531,-1.293531,-3.441093
1002.789062,-11.761500,-8.051730,-13.484464,-8.824236
1002.792969,-6.699345,-6.248513,-7.458815,-7.765965
1002.796875,-0.173577,-1.964578,-7.317045,-9.727585
1002.800781,1.014495,2.330868,-0.298575,-1.291823
1002.804688,5.043700,5.725853,7.278873,6.535966
1002.808594,-0.214662,3.659701,5.029071,4.448660
1002.812500,3.402505,3.413998,5.036805,10.628395
1002.816406,8.269484,10.570668,7.516335,9.254468
1002.820312,9.658874,9.271869,9.622698,14.755771
1002.824219,7.377789,10.124953,16.369640,13.457862
1002.828125,10.790408,3.519430,9.968063,15.961574
1002.832031,7.732799,13.708529,8.844916,6.362508
1002.835938,7.922701,2.199832,12.722596,6.464225
1002.839844,3.425912,-0.165830,2.949411,6.909815
1002.843750,-2.144457,6.181590,5.242256,1.899860
1002.847656,1.943990,-2.467465,0.802202,8.606565
1002.851562,-2.821903,-1.092812,3.873559,-0.472387
1002.855469,-6.743968,-11.362080,-1.339835,1.750234
1002.859375,-4.838281,-9.281618,-3.698694,-6.315652
1002.863281,-7.159437,-2.433680,-12.792125,-10.329891
1002.867188,-10.392438,-5.371147,-8.190139,-10.179906
1002.871094,-0.928431,-5.986533,-10.155462,-13.082749
1002.875000,-12.462584,-21.372310,-12.332415,-2.719668
1002.878906,-7.842594,-10.062981,-12.796419,-6.828972
1002.882812,-7.791162,-12.001237,-17.317189,-10.322361
1002.886719,1.799356,-10.976289,-12.508902,-5.947243
1002.890625,0.257548,-7.530519,-6.993420,0.397116
1002.894531,1.619288,-4.525981,-6.340931,3.431840
1002.898438,2.291031,1.320058,5.742437,0.011972
1002.902344,5.363645,-0.972630,2.680623,3.660352
1002.906250,8.942479,0.368372,10.188100,6.866141
1002.910156,2.670012,7.484777,4.559648,8.523068
1002.914062,5.083981,3.223042,8.846722,9.455587
1002.917969,16.715095,6.921242,13.234749,4.571962
1002.921875,7.693905,14.940995,8.802159,7.721898
1002.925781,12.004523,12.482619,9.499687,14.706594
1002.929688,10.368831,10.250438,11.324064,14.926717
1002.933594,5.369886,9.192954,8.165556,10.096554
1002.937500,4.629002,6.106472,6.137344,11.545419
1002.941406,9.126818,6.896463,11.098292,7.616674
1002.945312,2.683042,6.808626,9.964029,7.256785
1002.949219,0.622939,-3.209932,-5.575396,-2.947093
1002.953125,6.011389,-2.635074,-1.473941,2.150508
1002.957031,-6.253350,-9.895519,-9.826010,-1.909904
1002.960938,-4.565924,-5.010299,-0.429043,-12.463165
1002.964844,-10.361638,-6.464190,-8.183343,-13.473490
1002.968750,-5.315040,-8.182087,-9.361548,-12.808015
1002.972656,-11.123905,-18.713949,-9.745883,-12.025139
1002.976562,-9.207725,-19.623408,-13.708075,-9.227330
1002.980469,-13.648115,-15.898472,-12.118679,-14.255595
1002.984375,-4.127411,-11.467423,-14.241490,-3.139307
1002.988281,-7.631498,-13.232747,-13.449391,-11.701065
1002.992188,-4.707977,-6.149888,0.990622,6.308364
1002.996094,-4.543479,-3.854372,1.589401,7.119939
1003.000000,0.096256,4.529035,6.222025,3.018510
1003.003906,4.903866,6.681731,1.106211,-2.856352
1003.007812,13.709995,5.214406,13.682012,8.112004
1003.011719,8.805452,6.242676,2.376136,8.154004
1003.015625,8.078094,7.581221,12.016930,8.080136
1003.019531,-0.357508,7.641868,14.212509,5.767725
1003.023438,7.720092,8.654925,12.109338,12.868199
1003.027344,11.301657,16.645218,5.299346,9.918185
1003.031250,14.934390,3.210938,5.965492,2.861308
1003.035156,10.462381,12.768383,5.201793,13.405973
1003.039062,9.144037,5.573180,8.859955,6.428753
1003.042969,4.139765,5.891940,7.470452,12.042559
1003.046875,2.154904,4.970811,-0.435851,-2.049682
1003.050781,-7.105933,-6.966914,0.077210,1.510694
1003.054688,-7.932144,2.599231,3.031670,0.644711
1003.058594,-0.826364,-7.393016,-7.693840,-5.122861
1003.062500,-6.569154,-9.927344,-3.645744,-3.058362
1003.066406,-5.526483,-6.017608,-1.878812,-14.832061
1003.070312,-10.501540,-8.861746,-13.493826,-14.224260
1003.074219,-7.575960,-12.287974,-10.170258,-6.987436
1003.078125,-5.677290,-5.818476,-9.100698,-12.292147
1003.082031,-3.104851,-3.774349,-18.029760,-6.796819
1003.085938,-7.746652,-9.618341,-8.518281,-4.223636
1003.089844,-7.150511,-0.995501,-11.448865,-0.958944
1003.093750,-4.558316,2.635510,2.546065,-5.869253
1003.097656,-5.531680,-1.963170,6.867207,-0.569122
1003.101562,12.564148,-1.043358,-0.094444,-4.306077
1003.105469,0.595434,1.786544,7.223828,-3.325479
1003.109375,3.363968,0.287989,11.466961,7.613565
1003.113281,0.513215,9.269023,6.729635,4.902952
1003.117188,3.919735,11.632794,13.912685,12.572822
1003.121094,17.241190,7.454483,13.132912,12.591345
1003.125000,4.858421,6.243466,11.340173,0.316779
1003.128906,14.069734,6.585522,6.231674,14.340744
1003.132812,6.541585,11.259188,-0.004314,9.128389
1003.136719,1.149048,8.100216,12.529493,6.707192
1003.140625,7.206668,8.937810,-1.847320,6.400097
1003.144531,-0.129740,12.805945,1.340475,0.735150
1003.148438,2.354896,11.405865,-6.445379,-0.768789
1003.152344,2.875268,1.540278,6.042161,-5.007162
1003.156250,-3.840413,-2.939939,-1.283884,-1.950510
1003.160156,-8.969705,0.189361,-4.659209,-4.252927
1003.164062,-5.798951,-6.577858,-7.847869,-10.342813
1003.167969,-9.811380,0.857149,-17.017396,-11.659434
1003.171875,-2.914282,-6.628380,-10.606303,-16.087154
1003.175781,-8.904169,-15.267592,-6.574596,-6.815988
1003.179688,-1.370369,-12.261180,-6.377141,-10.306338
1003.183594,-5.905277,-9.666065,-12.215067,-12.257794
1003.187500,-8.273691,-8.892718,-1.410238,-3.417138
1003.191406,-8.325125,-7.524110,-0.447986,-5.643168
1003.195312,-1.288657,-8.926084,-6.103955,-1.800146
1003.199219,-0.811885,-1.271766,3.044525,-6.431712
1003.203125,2.528112,3.781158,4.623732,1.429505
1003.207031,5.223878,2.102848,1.591174,-0.580786
1003.210938,0.815767,1.241300,8.892452,4.441987
1003.214844,10.066057,11.985294,3.235533,3.441181
1003.218750,12.124581,9.382428,3.665237,5.503071
1003.222656,11.360464,10.896319,9.307351,2.673400
1003.226562,15.124197,2.102872,7.674371,14.645335
1003.230469,7.478461,3.112119,3.467461,11.763104
1003.234375,6.411956,1.453074,14.394127,10.367590
1003.238281,12.257294,2.899540,11.381057,9.015168
1003.242188,5.139919,3.875024,7.018593,-0.969780
1003.246094,5.829338,6.474197,-2.396322,1.273891
1003.250000,0.468602,1.164471,-4.545562,-4.753386
1003.253906,-6.824409,0.473576,0.331709,-4.326713
1003.257812,-6.664908,2.174277,-8.595240,-4.306210
1003.261719,-5.059851,-5.156880,-9.664122,-8.308898
1003.265625,-10.329506,-3.170124,-12.281878,-14.092714
1003.269531,-6.579134,-7.712306,-8.652342,-9.425059
1003.273438,-8.102719,-8.565995,-2.846817,-12.088707
1003.277344,-9.574339,-8.090276,-14.696205,-12.621923
1003.281250,-8.787044,-3.878118,-6.844808,-7.533508
1003.285156,-7.511228,-15.505681,-5.019086,-3.390524
1003.289062,-5.757103,-5.292804,0.740387,-10.926925
1003.292969,-4.309967,0.534918,-1.247181,-8.511553
1003.296875,5.664105,-4.831174,-2.058869,-1.350261
1003.300781,5.728641,9.329819,5.525040,4.575845
1003.304688,4.496975,2.756090,4.482959,0.017198
1003.308594,1.042166,12.810865,2.037482,9.871768
1003.312500,9.602470,6.973162,14.326216,5.336639
1003.316406,2.146659,6.106837,7.635482,14.644129
1003.320312,13.270625,7.259186,14.079378,14.023564
1003.324219,7.958956,10.599985,16.624463,12.022366
1003.328125,14.182562,4.983702,10.694962,12.504698
1003.332031,11.209916,5.989417,12.143025,4.623451
1003.335938,4.278969,2.989979,10.582134,10.990732
1003.339844,12.199465,5.213343,7.814960,1.067024
1003.343750,0.762204,2.488929,4.806312,0.702398
1003.347656,2.106522,-3.009792,1.670360,-3.204998
1003.351562,-0.100982,-0.910496,-1.813378,-4.569696
1003.355469,-2.141738,-7.002242,3.441218,2.008956
1003.359375,-9.203630,-7.290267,-12.214556,-9.952662
1003.363281,-9.813405,-2.479767,-6.712123,-11.666719
1003.367188,-11.602464,-6.839543,-14.931567,-7.859652
1003.371094,-8.703882,-17.503326,-8.687230,-7.936991
1003.375000,-14.450049,-4.080321,-10.685193,-14.681138
1003.378906,-3.931585,-5.232599,-7.840167,-12.637544
1003.382812,-5.518421,-8.313775,-11.396828,-4.891886
1003.386719,-14.062564,-10.214191,-8.584297,-14.454828
1003.390625,-6.212133,-5.937507,-3.604322,-4.686534
1003.394531,-4.445279,-11.511573,-4.918317,-0.361473
1003.398438,3.948062,6.134651,-3.812338,2.245430
1003.402344,1.154886,0.408754,1.376487,0.938749
1003.406250,2.044911,5.683617,5.992129,4.301384
1003.410156,0.112905,5.173671,1.074304,8.146488
1003.414062,5.022513,7.634350,2.013632,8.466143
1003.417969,13.636750,13.359199,11.966115,11.973041
1003.421875,8.722266,6.823507,17.710833,12.105991
1003.425781,7.579230,12.238390,11.777160,5.832383
1003.429688,5.807781,10.569957,6.234354,9.779180
1003.433594,13.943703,5.807253,5.695485,7.767529
1003.437500,12.895314,6.955846,6.482342,6.289633
1003.441406,1.093181,7.005774,4.412257,1.614154
1003.445312,0.746441,5.615492,2.458555,-1.987840
1003.449219,0.714243,2.930706,-8.093318,-2.128763
1003.453125,-7.150813,-0.154276,4.585890,3.465195
1003.457031,-2.981344,-3.961679,0.061225,-0.843516
1003.460938,-7.276244,-9.356398,-8.412276,-13.459310
1003.464844,-8.274165,-18.658592,-7.366353,-6.758202
1003.468750,-5.959822,-4.937591,-16.207652,-10.286718
1003.472656,-12.495044,-15.109557,-11.898582,-10.279896
1003.476562,-14.906596,-7.159938,-16.023630,-5.003520
1003.480469,-9.369163,1.958163,-2.891249,-12.250331
1003.484375,-4.687752,-9.182807,-10.865469,0.647727
1003.488281,-3.989141,0.821662,-4.129140,-5.939446
1003.492188,-5.081773,-11.427343,-7.461523,-13.152917
1003.496094,-3.905584,-5.476560,0.341012,-7.273324
1003.500000,-3.981051,-7.427158,-2.940838,-4.540512
1003.503906,8.586403,2.112566,5.676571,9.920911
1003.507812,3.202498,-1.263823,-0.598941,0.126293
1003.511719,-1.793696,8.243758,11.918905,6.130674
1003.515625,7.429441,5.981004,7.301969,9.462126
1003.519531,7.856589,13.915817,9.912263,1.796246
1003.523438,9.533499,9.088736,15.636139,6.711160
1003.527344,11.590816,12.427823,8.782303,9.852510
1003.531250,8.155904,13.423716,11.664868,5.561901
1003.535156,-0.099797,12.969703,8.292606,16.265377
1003.539062,6.118306,12.880657,4.411102,11.521821
1003.542969,7.439802,1.534967,1.077660,4.656730
1003.546875,-9.821835,0.505146,-1.788282,0.830153
1003.550781,4.032550,4.137096,3.221704,-1.516121
1003.554688,-4.850947,-3.832140,-10.822454,0.680222
1003.558594,-5.552684,-8.361352,-0.257911,-1.372310
1003.562500,-8.446941,-0.842597,-5.153228,-5.426933
1003.566406,2.429506,-7.021626,-4.388924,-8.847622
1003.570312,-6.707157,-15.033842,-1.680916,-13.732422
1003.574219,-14.726262,-13.130907,-17.080535,-15.746451
1003.578125,-2.165936,-7.358908,-11.702804,-7.150708
1003.582031,-12.509842,-11.978283,-3.083885,-13.238019
1003.585938,-5.953428,-7.940151,-15.125174,-3.418150
1003.589844,-10.527384,-7.572611,-3.531011,-0.296903
1003.593750,-4.907875,-8.534806,-2.869199,-6.711186
1003.597656,-3.835191,-1.682394,-3.938739,2.080737
1003.601562,0.651655,1.283742,-0.914766,4.610141
1003.605469,6.060787,6.669107,6.812557,3.314895
1003.609375,8.584358,-4.005296,8.432084,9.457029
1003.613281,-1.401442,3.876201,10.984286,12.496067
1003.617188,8.675815,-1.449181,10.456475,12.265358
1003.621094,8.535541,4.164486,8.030080,11.910553
1003.625000,9.703160,17.672946,4.364091,5.630455
1003.628906,9.809511,12.324899,8.068613,12.324100
1003.632812,8.440961,7.456107,12.763703,7.142520
1003.636719,11.176132,4.896791,4.001752,4.309263
1003.640625,2.251352,3.284914,6.432822,3.268711
1003.644531,5.061078,5.787023,9.318175,4.323131
1003.648438,7.010420,-3.733634,1.975847,4.328103
1003.652344,-1.474962,-9.654347,4.420754,-7.860159
1003.656250,-5.941971,-3.797186,0.729092,-6.636760
1003.660156,-3.892062,-8.049299,-5.059927,-4.573473
1003.664062,-11.106129,-3.996894,-9.346798,-7.336719
1003.667969,-13.287672,-15.801370,-12.868792,-10.921559
1003.671875,-13.350755,-8.748025,-4.279762,-10.940999
1003.675781,-13.274793,-4.933198,-9.141655,0.827219
1003.679688,-14.919002,-11.217868,-6.935232,-2.094673
1003.683594,-1.966099,-6.492768,-7.536363,-7.586543
1003.687500,-12.712539,-4.483081,-11.525185,-6.234536
1003.691406,-9.742328,-3.226408,-2.200139,0.468846
1003.695312,-2.742288,-0.541472,-8.578874,-3.050846
1003.699219,3.858525,5.113460,-2.750024,-0.152100
1003.703125,0.842585,1.196365,-2.348097,10.168113
1003.707031,-0.303957,-0.357912,-6.565164,7.526914
1003.710938,9.860206,13.245560,10.262374,5.784845
1003.714844,13.285349,3.243101,2.317378,6.161880
1003.718750,12.856084,10.206397,10.113166,13.644849
1003.722656,8.278042,14.954612,2.293627,11.520181
1003.726562,3.213551,8.079827,7.436469,18.251225
1003.730469,9.985684,12.660075,9.276478,7.012391
1003.734375,10.723774,8.555507,3.798669,9.756527
1003.738281,11.966806,4.431576,5.753197,9.485592
1003.742188,6.007715,4.434911,-0.096269,10.125635
1003.746094,-1.430989,3.947695,4.664683,-0.550729
1003.750000,-4.254944,1.764853,1.070027,2.114404
1003.753906,-4.064286,-1.546856,-6.739651,-7.077561
1003.757812,-2.047621,-5.002199,-9.734146,-9.280248
1003.761719,-11.614429,-7.147073,-5.193922,-12.456592
1003.765625,-6.861993,-9.224538,-5.715350,-12.284740
1003.769531,-8.367242,-12.539643,-6.950231,-7.307781
1003.773438,-16.075102,-18.522694,-12.967418,-19.975781
1003.777344,-13.032612,-10.608677,-19.622420,-9.466384
1003.781250,-4.625618,-3.269546,-15.576912,-14.440661
1003.785156,-6.243089,-6.898128,-8.898756,-7.525671
1003.789062,-3.682220,-0.956458,-6.388792,-13.150886
1003.792969,-6.038801,-2.805962,-4.639524,-10.182608
1003.796875,-0.136592,-7.482291,1.904075,2.626730
1003.800781,-1.102129,5.593671,-4.312893,-3.185031
1003.804688,1.911125,-0.127367,-4.384341,3.677218
1003.808594,10.025105,11.132755,10.284481,5.738676
1003.812500,4.109479,11.713175,2.231021,13.204173
1003.816406,4.160779,9.104910,4.305875,7.858879
1003.820312,6.440860,-1.513558,4.176711,0.261594
1003.824219,7.487691,14.685037,1.972248,3.547372
1003.828125,10.841252,10.797532,6.630253,12.584242
1003.832031,15.386232,4.322643,12.932014,3.279895
1003.835938,8.909988,8.377829,4.380754,-3.055540
1003.839844,5.813871,14.263757,6.375646,5.713712
1003.843750,-0.623101,1.075197,1.463890,3.605603
1003.847656,-0.830156,-4.877174,-2.482503,3.422576
1003.851562,0.122026,-3.284039,-2.525676,4.578816
1003.855469,-4.402531,-3.222219,-4.717271,-2.100961
1003.859375,-5.426678,-8.276945,-9.460236,-0.427013
1003.863281,-5.385326,-8.941369,-9.921249,-6.354907
1003.867188,-5.631848,-6.261928,-7.617152,-4.922656
1003.871094,-8.704879,-8.711064,-12.974846,-18.696369
1003.875000,-1.771797,-3.726622,-13.501358,-5.900006
1003.878906,-10.993821,-7.386370,-13.927474,-7.822774
1003.882812,-17.310591,-6.299840,-11.476401,-8.891249
1003.886719,-2.192151,-9.952554,-9.091330,-9.230103
1003.890625,-7.919755,3.224288,-3.994271,-9.012106
1003.894531,-1.896388,-4.672850,-1.788528,-10.477920
1003.898438,-1.889591,3.312028,2.679083,-0.695416
1003.902344,4.096733,12.391158,10.203262,1.894960
1003.906250,10.824755,-1.506684,2.282640,4.594225
1003.910156,3.700364,-0.187293,4.731706,5.430449
1003.914062,9.319005,6.537853,7.406169,3.846049
1003.917969,2.092025,10.782379,11.991028,9.235442
1003.921875,7.491307,18.030301,10.955903,12.503918
1003.925781,12.536326,1.656202,9.730943,12.142281
1003.929688,13.632123,6.385661,12.434629,7.657319
1003.933594,11.520612,6.157719,1.445472,7.810357
1003.937500,2.863603,5.130667,6.337275,9.343355
1003.941406,2.112799,6.680649,5.209508,5.200252
1003.945312,-2.360332,-1.042898,1.098602,4.500940
1003.949219,-1.349670,-6.739796,4.317362,4.652353
1003.953125,-4.856725,-8.930688,-3.493327,-1.163906
1003.957031,-5.390887,-9.292303,-1.953647,-1.943134
1003.960938,-4.334907,-11.569754,-2.325345,-11.876503
1003.964844,-12.627780,-12.644300,-3.130932,-5.977843
1003.968750,-8.002183,-15.818545,-6.718072,-14.441378
1003.972656,-7.703586,-10.896282,-15.040672,-8.166250
1003.976562,1.755805,-14.475129,-11.977553,-12.180899
1003.980469,-6.915006,-13.883768,-8.205005,-7.597267
1003.984375,-13.248609,-9.511723,-10.249017,-14.433675
1003.988281,-8.610141,-6.705432,-6.942031,-9.684781
1003.992188,-5.770284,-6.490357,-9.157863,-2.608974
1003.996094,-4.843592,-4.719752,-6.652957,-1.168762
1004.000000,4.259821,-0.185413,-4.023202,8.468331
1004.003906,-7.321756,9.618429,6.203102,-0.944123
1004.007812,10.021320,2.470707,12.313477,1.458134
1004.011719,6.394211,2.503465,4.225549,6.204326
1004.015625,13.281500,5.273979,7.824307,4.985614
1004.019531,2.674341,9.054460,5.074152,14.899265
1004.023438,7.331277,10.595853,9.186515,13.465080
1004.027344,14.550675,8.141484,15.252546,4.260210
1004.031250,14.587585,6.439087,12.701714,6.538868
1004.035156,10.469635,8.505263,10.214828,9.393689
1004.039062,10.150414,2.256160,6.968196,6.650833
1004.042969,-3.428762,8.204806,7.374084,6.106681
1004.046875,-5.619100,-4.946854,-2.492841,5.580263
1004.050781,4.509630,3.225275,-0.888128,-1.200559
1004.054688,-5.828937,1.944405,-1.207581,-6.645490
1004.058594,-9.167132,-3.790802,-5.340214,-9.296315
1004.062500,-5.194590,-5.644668,-8.065272,-2.767203
1004.066406,-12.296197,-8.519856,-9.945930,-10.806110
1004.070312,-5.224153,-7.833737,-5.455781,-13.801771
1004.074219,-14.487000,-9.698280,-9.726097,-5.114599
1004.078125,-11.741090,-5.304721,-4.409526,-8.526327
1004.082031,-8.526390,-9.586431,-10.695212,-9.195051
1004.085938,-7.129453,-15.345812,-10.822967,-4.672078
1004.089844,-12.719221,-11.691673,-12.665566,-6.132664
1004.093750,-4.669176,-0.200201,-11.031950,-1.441761
1004.097656,-2.625151,-0.967038,-5.750416,0.876501
1004.101562,2.174002,4.551757,-4.854835,-4.409243
1004.105469,-5.070900,-1.049304,4.155336,4.535918
1004.109375,-4.294645,-0.328311,-1.344107,8.493392
1004.113281,6.459121,12.864929,7.346473,10.082977
1004.117188,11.940226,2.817912,4.261649,11.170831
1004.121094,10.241121,18.811454,4.233666,11.417498
1004.125000,10.800032,8.668303,9.793281,5.998877
1004.128906,10.188590,12.226245,10.054504,19.705250
1004.132812,0.436577,7.420605,7.801699,6.748985
1004.136719,5.118724,7.095839,5.255892,6.691057
1004.140625,4.014011,7.757366,9.938981,4.920705
1004.144531,1.650342,5.242021,6.503655,4.757707
1004.148438,3.481267,-2.639599,0.420799,1.774561
1004.152344,-10.193429,2.677816,-1.047677,1.019675
1004.156250,3.209417,-7.520514,-3.123486,-2.239854
1004.160156,-9.815038,-7.650539,-2.503307,-4.705674
1004.164062,-9.708824,-5.804147,-7.756325,-3.730688
1004.167969,-6.045009,-6.186925,-12.936097,-9.467924
1004.171875,-13.297585,-13.821113,-15.437931,-17.122581
1004.175781,-7.482376,-11.724192,-14.934657,-9.869585
1004.179688,-8.418222,-11.910988,-8.830649,0.021584
1004.183594,-8.766385,-7.866450,-8.746005,-10.828813
1004.187500,-9.075882,-4.433744,-8.173136,-6.709409
1004.191406,-3.347533,-2.647334,-5.092281,5.685047
1004.195312,-0.098052,-5.576043,-9.477015,-1.005519
1004.199219,-0.143833,-1.340054,4.912507,-9.532281
1004.203125,6.625551,8.055276,7.847133,6.356834
1004.207031,3.338371,1.786647,2.962198,0.194635
1004.210938,5.945325,10.981670,6.112580,10.827491
1004.214844,4.362962,9.489225,9.288119,15.069794
1004.218750,9.862098,12.166779,8.110849,8.728045
1004.222656,14.001274,4.472919,9.269418,11.891858
1004.226562,7.472730,6.949516,6.729698,9.726671
1004.230469,6.718347,10.931639,7.850371,9.802831
1004.234375,3.342918,12.011087,9.889161,4.808243
1004.238281,5.304699,10.576278,5.861223,10.453235
1004.242188,6.111123,7.179616,7.293904,10.555926
1004.246094,2.054933,0.069496,0.028228,-4.298054
1004.250000,-0.704391,2.800810,2.887339,-4.549209
1004.253906,-3.357097,2.450953,-0.421583,-5.847524
1004.257812,-7.121612,1.365013,-8.179607,-3.017079
1004.261719,1.162874,-3.160243,-6.040396,-5.778714
1004.265625,-0.985917,-8.762923,-11.175427,-14.941673
1004.269531,-11.521738,-7.785023,-14.838739,-10.570669
1004.273438,-9.773671,-14.022229,-4.215622,-10.437055
1004.277344,-9.182357,-1.509943,-12.682524,-17.754155
1004.281250,-12.145060,-9.512562,-8.635131,-4.532959
1004.285156,-14.658237,-8.503366,-5.682419,-7.059574
1004.289062,-6.947360,-5.289690,-11.830271,-16.581262
1004.292969,-3.120743,2.757566,1.577449,-1.109014
1004.296875,-3.417010,6.403791,3.635360,-6.603739
1004.300781,-0.164525,1.905844,-8.291453,-5.679529
1004.304688,1.790253,-2.381214,7.490481,3.907139
1004.308594,8.688876,5.524761,3.362928,-1.351188
1004.312500,8.022757,12.384926,10.739961,6.227599
1004.316406,5.787679,10.063684,-0.725136,16.615620
1004.320312,10.543936,8.673062,13.966362,9.459918
1004.324219,9.351007,11.083296,8.581194,7.896817
1004.328125,14.445216,8.961053,11.949658,6.155418
1004.332031,6.491030,1.953834,9.269904,5.741654
1004.335938,-1.680977,10.498223,10.024823,6.588130
1004.339844,5.235926,6.915271,8.488358,2.954965
1004.343750,-4.272038,-0.871223,-2.865376,8.297805
1004.347656,6.957946,2.510807,0.673896,6.209520
1004.351562,-5.261462,-3.755655,-2.137062,-3.796529
1004.355469,-1.756725,-10.705315,-2.325688,-5.873633
1004.359375,-5.489343,-5.284540,0.052157,-3.785400
1004.363281,-10.479906,-7.224395,-5.297714,-7.311256
1004.367188,0.321759,-8.497805,-6.209352,-11.942272
1004.371094,-17.666325,-11.049364,-12.484406,-12.200647
1004.375000,3.733282,-13.915745,-13.637293,-14.617751
1004.378906,-0.378770,-9.784439,-8.376394,-5.284507
1004.382812,0.027626,-10.936953,-8.586328,-10.357470
1004.386719,-5.492221,-7.852145,-8.059910,-3.688445
1004.390625,-5.662621,-10.185804,-1.164528,-12.968679
1004.394531,-4.100540,-2.806120,-0.708006,6.119583
1004.398438,-0.181531,-8.487617,4.267020,-2.809448
1004.402344,4.839020,1.451473,-8.262972,-1.820741
1004.406250,3.492944,3.508780,4.006397,0.793541
1004.410156,8.359127,7.759643,5.190956,9.275227
1004.414062,10.819399,4.258961,7.602654,2.375725
1004.417969,2.593178,16.117390,11.759771,6.448313
1004.421875,15.863614,5.125192,14.493032,14.688982
1004.425781,15.071908,12.058318,16.317945,6.453938
1004.429688,7.092970,13.221320,11.845890,8.727618
1004.433594,11.265877,12.202178,7.938378,4.269800
1004.437500,1.623255,5.393651,6.580666,2.285583
1004.441406,4.835215,6.624321,2.733623,2.673386
1004.445312,6.561042,-2.977230,-1.515245,3.513214
1004.449219,9.888465,11.463551,2.162899,3.066986
1004.453125,-5.253133,-0.765956,2.961101,2.027995
1004.457031,-2.763391,-1.787352,-2.016480,1.697795
1004.460938,-4.083851,-11.794406,-0.953575,-5.098876
1004.464844,-7.054842,-8.336932,-4.433902,-4.306519
1004.468750,-6.529284,-9.318886,-9.471025,-12.979576
1004.472656,2.158870,-14.680140,-10.341940,-8.478764
1004.476562,-7.453056,-11.295060,-13.014807,-8.237903
1004.480469,-14.329047,-16.638954,-9.682495,-4.767363
1004.484375,-12.060073,-5.610987,-7.871057,-5.452820
1004.488281,-0.789596,-7.623825,-2.902722,3.325801
1004.492188,-5.195778,-10.779852,-5.188677,-1.516302
1004.496094,2.297075,-1.030269,-5.158785,3.155051
1004.500000,0.236737,-7.469913,-4.478329,1.773610
1004.503906,-0.984909,2.949834,0.890683,3.659056
1004.507812,7.478618,-6.193213,0.192767,8.150861
1004.511719,9.230124,15.616360,6.549767,11.657674
1004.515625,2.768742,8.405911,4.218484,8.342713
1004.519531,8.784231,11.101132,10.972402,4.470905
1004.523438,10.804634,14.039336,4.057194,10.133958
1004.527344,17.148262,9.353365,9.876791,15.485316
1004.531250,12.637925,7.795695,8.911504,13.112073
1004.535156,4.286833,14.573268,5.018424,13.131170
1004.539062,8.176058,2.772500,9.354817,0.720694
1004.542969,5.759892,1.710557,8.153830,5.342652
1004.546875,4.113944,2.952528,1.962386,1.286648
1004.550781,-3.687881,-0.599420,2.430806,-10.896047
1004.554688,-5.094116,-2.629767,1.868718,2.871354
1004.558594,-6.200248,-2.043741,-3.119359,-10.382903
1004.562500,-5.227089,-7.125277,-11.266402,-9.415458
1004.566406,-14.409317,-5.591491,-12.820639,-7.966004
1004.570312,-10.034561,-2.284346,-12.480031,-3.776722
1004.574219,-4.238758,-8.827563,-9.585688,-9.488452
1004.578125,-5.368430,-12.799744,-5.189637,-9.885716
1004.582031,-9.822533,-9.013181,-7.847471,-10.690009
1004.585938,-5.944404,-10.843339,-9.886291,-11.019644
1004.589844,-9.430402,-9.624476,-1.509369,-2.813938
1004.593750,-6.504956,-8.514026,-10.253015,-7.361514
1004.597656,0.745693,-5.483844,4.953642,-1.102999
1004.601562,3.522735,-2.094011,1.242800,-1.758647
1004.605469,2.491882,-2.497064,-0.164945,1.580808
1004.609375,7.346697,0.632890,6.166615,16.266133
1004.613281,10.888620,9.628033,6.258955,-0.523186
1004.617188,7.185350,16.564610,10.422139,6.312520
1004.621094,14.834878,11.332356,-1.267887,12.237148
1004.625000,16.255357,16.655513,12.017605,6.203828
1004.628906,8.600875,8.370004,8.924575,8.597678
1004.632812,3.129568,4.846168,6.456187,4.772455
1004.636719,6.468712,1.781328,10.032525,8.310762
1004.640625,4.710874,6.831339,12.547565,8.918638
1004.644531,5.901653,5.217390,-2.326615,-0.162147
1004.648438,3.327443,7.061627,3.745585,-0.679197
1004.652344,-1.523055,-4.693161,3.165802,-8.468470
1004.656250,-6.799407,0.511363,-2.598658,-8.165680
1004.660156,4.455702,-6.081217,-1.159604,-10.276945
1004.664062,-9.297740,-12.598066,-10.420206,-5.003587
1004.667969,-19.339888,-14.616943,-7.688282,-8.668629
1004.671875,-5.175954,-13.590618,-0.302802,-11.782650
1004.675781,-9.094580,-10.061450,-1.361160,-12.151272
1004.679688,-10.081758,-18.041831,-6.760946,-16.049585
1004.683594,-8.985266,-4.826575,-9.819875,-6.573121
1004.687500,-7.414751,-4.952467,-10.853954,-5.220181
1004.691406,-2.614176,-8.580610,-14.529069,1.172567
1004.695312,-4.552581,-10.921979,-7.898864,-6.712723
1004.699219,2.968496,10.843266,1.605411,-3.145842
1004.703125,5.337226,0.475871,7.151831,-0.594462
1004.707031,3.198351,0.934545,-1.276339,-2.274555
1004.710938,3.552098,-1.627436,5.046990,6.759872
1004.714844,11.418356,9.665436,9.144899,3.602029
1004.718750,11.552116,3.871110,8.338545,11.776316
1004.722656,13.709406,12.515926,12.537616,11.658524
1004.726562,12.152702,13.503568,19.048351,10.491992
1004.730469,5.585259,4.157264,12.133114,0.814493
1004.734375,-0.042249,0.119662,8.129532,9.885044
1004.738281,7.479354,6.385908,3.726790,5.764309
1004.742188,2.543228,10.212290,4.911232,8.223128
1004.746094,2.990678,1.239185,-0.586521,7.676042
1004.750000,0.102138,-0.361588,2.692558,-0.791928
1004.753906,-1.992855,-12.051001,2.655100,-7.635178
1004.757812,-2.516632,-2.998154,-9.317814,-7.734943
1004.761719,-6.179059,-13.256789,-4.343120,-4.875766
1004.765625,0.197164,-9.582574,-5.912770,-7.590636
1004.769531,-2.252341,-14.687961,-7.939935,-13.289860
1004.773438,-13.082050,-12.730355,-4.237320,-20.411209
1004.777344,-5.085388,-3.704497,-13.064646,-2.102845
1004.781250,-12.873294,-12.268959,-16.550134,-3.342657
1004.785156,-10.030974,-15.038900,-8.669592,-5.077681
1004.789062,-4.695522,-1.355859,-8.724586,-2.306092
1004.792969,-3.464229,-3.742486,-5.532582,-6.746899
1004.796875,-3.729676,1.818894,0.847528,-2.080619
1004.800781,-2.068313,-11.344929,3.231386,-1.025902
1004.804688,0.773866,-2.507304,-3.101965,4.282933
1004.808594,-0.567580,11.267761,2.115152,2.290558
1004.812500,6.192616,1.453845,14.595345,4.633874
1004.816406,5.394822,-0.873918,11.063365,11.502354
1004.820312,8.262106,15.714321,18.031789,10.216886
1004.824219,6.301310,14.428078,4.479598,14.823101
1004.828125,8.333231,5.621214,8.945082,5.488138
1004.832031,9.265128,13.579919,18.446661,12.320759
1004.835938,10.606003,9.490500,6.561690,6.574541
1004.839844,9.209604,10.008183,9.463323,2.894705
1004.843750,-0.558591,7.447404,5.610849,2.213887
1004.847656,0.727868,-3.135478,-2.571396,7.563662
1004.851562,-4.389148,4.490840,-8.529713,-5.059822
1004.855469,0.784138,-4.317839,-3.878796,-3.107826
1004.859375,-12.029291,-4.807711,-11.375277,-10.588883
1004.863281,-8.889021,-8.503678,-2.595824,-3.883689
1004.867188,-18.889492,-2.211643,-9.843584,-12.556986
1004.871094,-11.224403,-6.979320,-4.704540,-11.181910
1004.875000,-11.663433,-13.929809,-9.460197,-13.891651
1004.878906,-12.766472,-14.282935,-12.366938,-8.117565
1004.882812,-9.481613,-9.495281,-15.946618,-3.301960
1004.886719,-3.787875,-6.809225,-14.198636,-12.808775
1004.890625,1.668836,-1.447436,-7.898775,-1.084117
1004.894531,-3.794437,0.131473,0.662316,-1.754369
1004.898438,2.512837,-2.436645,4.165116,-2.184398
1004.902344,2.608573,-7.513428,-1.741797,-0.985899
1004.906250,6.392668,13.571431,4.186339,-2.590614
1004.910156,8.481889,7.111408,7.168115,7.254301
1004.914062,2.717919,7.356402,16.418494,13.500832
1004.917969,10.776066,6.591093,9.990421,13.525352
1004.921875,12.663748,7.495010,14.165144,11.226971
1004.925781,8.187766,10.408410,16.887447,2.136575
1004.929688,5.872147,4.295403,5.330453,7.322560
1004.933594,15.595755,1.397295,3.928524,10.205364
1004.937500,2.029174,9.743325,4.790347,3.821931
1004.941406,3.427576,9.734575,5.011802,7.222408
1004.945312,1.562579,0.812715,6.179295,3.173805
1004.949219,-2.167255,-0.562965,2.347983,1.406674
1004.953125,-3.406410,5.042782,5.015512,-4.701199
1004.957031,-4.852832,2.175293,-14.613187,5.037177
1004.960938,-9.900438,-0.368483,-7.207761,-16.641507
1004.964844,-2.182488,-11.377287,-10.800270,-10.217541
1004.968750,-13.352605,-6.987361,-9.937483,-10.754612
1004.972656,-12.126164,-9.132924,-15.439316,-15.326873
1004.976562,-12.135423,-12.477296,-10.129095,-9.673764
1004.980469,-6.426911,-9.660809,-8.201921,-8.878578
1004.984375,-8.437771,-11.541302,-9.601546,-4.625829
1004.988281,0.267826,-18.179748,-12.213721,-10.746230
1004.992188,-7.345230,-8.222334,-4.270697,8.781662
1004.996094,-8.837145,-5.427686,2.222067,4.222875
1005.000000,0.666374,3.746286,0.158571,-2.195122
1005.003906,5.084301,4.062738,-5.376326,2.859497
1005.007812,7.170604,4.450405,-0.622680,7.812836
1005.011719,8.313956,9.198395,0.748921,6.511650
1005.015625,-1.597345,-2.515377,6.752458,-1.747785
1005.019531,14.068654,16.174799,2.223483,11.253520
1005.023438,4.041303,10.760468,3.754473,10.115283
1005.027344,10.776300,9.545708,14.061900,13.195732
1005.031250,12.765048,2.752655,2.206259,5.280904
1005.035156,6.610733,1.513524,10.971714,13.340285
1005.039062,13.113845,11.154492,2.608393,9.566233
1005.042969,0.731998,7.925223,6.163837,7.685965
1005.046875,7.466958,2.262228,1.354043,1.936775
1005.050781,3.851805,1.037603,-5.534570,-11.298331
1005.054688,-4.117586,-1.975995,-0.902225,2.306859
1005.058594,-9.334938,-3.632937,-1.494451,-5.263274
1005.062500,-11.194959,-7.511484,-5.610791,-7.938794
1005.066406,-10.161713,-14.134850,-4.442026,-5.586751
1005.070312,-4.851886,-9.667324,-10.734703,-5.286770
1005.074219,-11.017955,-4.927950,-14.071497,-8.421974
1005.078125,-14.024841,-15.852908,-7.944225,-15.319665
1005.082031,-16.088715,-10.630776,-11.722080,-5.969937
1005.085938,-4.394083,-9.729229,-6.484558,-3.228766
1005.089844,-2.038914,-7.498003,-6.684460,-8.340433
1005.093750,-5.483933,-4.656459,-7.978466,-4.693755
1005.097656,-1.759947,-0.783937,-1.901799,-4.264740
1005.101562,1.579983,4.595078,-3.575970,2.552550
1005.105469,4.516512,3.492387,-1.847293,2.166051
1005.109375,-2.133135,3.522602,3.378226,4.262217
1005.113281,8.487999,4.881832,5.980355,12.552892
1005.117188,12.457781,10.763596,11.386916,7.783849
1005.121094,6.648671,8.249854,9.582824,8.749957
1005.125000,12.750584,9.674352,10.022382,1.617420
1005.128906,12.065993,7.117833,3.213998,10.725809
1005.132812,4.959872,10.771682,9.712990,11.348756
1005.136719,2.825288,11.717640,15.668121,9.759589
1005.140625,9.171021,11.924185,1.652540,5.350554
1005.144531,5.678409,0.487326,-1.961549,5.043365
1005.148438,0.839264,3.048631,-3.108134,1.668705
1005.152344,6.385813,1.803766,-2.881742,4.221806
1005.156250,-7.222182,-2.326614,1.230365,-1.339884
1005.160156,-0.896977,-9.457347,-7.954235,-13.440138
1005.164062,-8.035477,-5.584115,-6.939671,2.031250
1005.167969,-4.270050,-11.960134,-6.544812,-15.240749
1005.171875,-11.854547,-16.896005,-11.987395,-11.374272
1005.175781,-15.419108,-12.556889,-15.792398,-5.338406
1005.179688,-5.219857,-14.121455,-13.488632,-18.598222
1005.183594,-7.391261,-7.135997,-3.084677,-12.011159
1005.187500,-9.401478,-3.943499,-6.594847,-7.717918
1005.191406,-10.503322,-3.081385,-9.388800,-1.136287
1005.195312,-1.554835,0.074276,0.903971,-7.734251
1005.199219,-1.154423,0.341591,0.169251,-11.907062
1005.203125,3.883797,-5.296319,2.801561,4.992504
1005.207031,11.650306,4.360801,7.974489,3.506268
1005.210938,8.707518,2.471751,17.344724,2.426195
1005.214844,5.464076,8.685671,13.422534,8.637054
1005.218750,1.690482,3.775871,7.173331,3.369493
1005.222656,12.511268,7.673917,9.909706,13.767598
1005.226562,7.400467,16.284013,7.984153,8.131906
1005.230469,6.765646,11.874707,10.133367,8.007881
1005.234375,9.120524,7.103524,9.709887,5.058082
1005.238281,8.738636,10.730103,8.405526,8.130016
1005.242188,9.066124,11.447885,10.177668,4.439479
1005.246094,12.231842,4.180833,0.535323,7.258226
1005.250000,6.550830,-4.897761,4.856648,1.196845
1005.253906,-6.427653,0.803432,-6.169694,0.329792
1005.257812,-11.799895,-7.429799,-10.010510,0.660425
1005.261719,-0.244042,-4.899287,-3.744690,-4.889132
1005.265625,-1.279262,-5.132044,-13.368349,-6.327286
1005.269531,-9.662646,-7.372607,-12.960141,-15.229127
1005.273438,-8.691904,-12.240584,-8.941524,-8.218409
1005.277344,-7.722065,-6.503585,-11.850707,-10.922432
1005.281250,-9.940545,-8.441277,-4.721742,-8.138083
1005.285156,-13.304928,-6.647938,-9.347644,-3.479081
1005.289062,-2.902052,-0.959267,-3.285644,-10.260702
1005.292969,-9.289777,-9.977911,0.415111,-1.665632
1005.296875,-5.436725,-2.559364,7.078934,-7.279291
1005.300781,1.781955,2.365985,1.327441,-2.729310
1005.304688,4.216197,-2.814760,-2.455990,9.611153
1005.308594,1.125072,5.944732,4.299028,8.635738
1005.312500,3.643686,6.737657,10.382847,3.110125
1005.316406,7.366293,10.336606,5.955553,15.485051
1005.320312,4.253650,13.886547,12.781540,12.849873
1005.324219,9.012734,6.509458,9.590256,19.352834
1005.328125,5.233603,11.499153,17.712765,12.928374
1005.332031,8.871923,11.583919,15.620196,13.303275
1005.335938,1.667380,6.919658,11.793714,10.745323
1005.339844,9.910303,-4.654036,5.834501,-2.109533
1005.343750,3.294911,-1.318112,3.344541,6.566597
1005.347656,1.835207,0.892489,0.312543,4.196850
1005.351562,-11.275685,0.570654,-3.601585,-1.524350
1005.355469,-2.790143,-12.856882,-9.288434,-6.178660
1005.359375,-7.025678,2.450036,1.353391,0.377927
1005.363281,-6.558115,-12.293043,-7.668968,-7.264388
1005.367188,-6.188327,-11.036418,-13.733329,-10.237677
1005.371094,-12.544827,-11.512614,-11.423556,-12.898023
1005.375000,-12.456687,-11.692848,-16.556133,-8.489973
1005.378906,-11.472604,-11.999364,-8.630042,-10.905433
1005.382812,-6.606382,-14.795214,-14.314583,-14.091218
1005.386719,-10.071894,3.064185,-12.175798,-7.603253
1005.390625,-5.371524,0.700605,-0.868931,-5.245456
1005.394531,4.764670,1.996832,-0.744451,-3.851539
1005.398438,1.175558,1.291618,-0.033515,-10.335884
1005.402344,7.355403,0.891020,5.684857,-0.421096
1005.406250,4.127268,4.108923,5.664689,4.589810
1005.410156,8.171749,15.704093,8.433642,3.596739
1005.414062,9.357579,10.137381,9.003412,8.528335
1005.417969,10.826243,15.142823,10.230740,4.171908
1005.421875,14.964174,13.508918,6.659066,17.424924
1005.425781,10.253630,4.916540,0.525645,9.601890
1005.429688,8.725944,10.619557,6.232549,10.640639
1005.433594,17.037074,11.334960,9.021337,8.471648
1005.437500,8.324596,14.983514,8.818308,5.939405
1005.441406,1.185933,0.823798,3.974547,8.731132
1005.445312,6.222654,5.816629,-4.924756,3.935992
1005.449219,-7.413989,-0.598671,4.454799,8.284371
1005.453125,-7.731100,-1.214353,-4.656694,-4.279445
1005.457031,-3.191058,-6.685581,-1.105115,-1.570974
1005.460938,-1.438812,-7.278265,-12.065497,-10.111758
1005.464844,-11.513322,-9.176393,-9.388118,-15.774554
1005.468750,-7.398051,-14.162567,-8.050972,-9.209419
1005.472656,-6.152797,-9.291580,-10.701618,-13.867579
1005.476562,-8.280871,-7.136724,-4.096975,-7.231242
1005.480469,-10.572140,-11.742333,-6.454082,-3.155663
1005.484375,-11.790826,-10.414081,-9.260050,-3.412698
1005.488281,-5.557386,-8.235204,-5.797301,0.435145
1005.492188,-3.047417,-6.213511,-3.947062,-1.058423
1005.496094,-1.672923,0.043623,-2.860959,-0.871023
1005.500000,5.978010,-0.199017,4.632235,-0.294411
1005.503906,-0.957391,5.816133,-1.158861,0.445697
1005.507812,3.273847,8.359449,9.683678,4.607241
1005.511719,15.115424,9.798461,8.610107,11.016084
1005.515625,8.027277,6.409948,1.985880,6.143750
1005.519531,7.715141,10.550566,4.199060,11.805935
1005.523438,16.976872,12.171191,13.408850,9.352079
1005.527344,10.427782,9.233227,10.025277,9.345049
1005.531250,7.961376,5.621124,4.596919,5.102439
1005.535156,13.272618,6.728504,8.850643,6.740049
1005.539062,6.157234,3.900611,4.945757,8.561172
1005.542969,5.128819,3.580767,7.787822,4.284917
1005.546875,-0.397752,2.678760,8.204610,3.992999
1005.550781,0.831913,0.052097,0.382711,5.365402
1005.554688,1.847131,-4.939996,-5.168409,-1.771613
1005.558594,-7.822897,-8.927855,-5.190901,-8.029649
1005.562500,-4.355292,-4.455731,-0.848562,-6.054560
1005.566406,-5.935365,-8.949418,-5.463970,-8.170696
1005.570312,-11.609668,-14.070506,-11.251921,-9.030191
1005.574219,-12.575876,-12.221529,-8.102392,-7.211904
1005.578125,-8.614672,-6.659096,-8.124001,-12.283806
1005.582031,-8.077605,-12.137739,-12.651618,-5.519712
1005.585938,-10.928594,-7.966848,-6.905233,-6.739436
1005.589844,-3.044630,-8.432776,-3.749371,-7.386966
1005.593750,-0.690032,-4.617962,2.650733,3.169604
1005.597656,-7.137382,3.242908,-6.841680,-4.835439
1005.601562,-0.464895,4.080095,-1.966154,6.245864
1005.605469,6.038022,6.676892,0.976108,-0.209509
1005.609375,4.461838,-0.837383,2.740361,7.492959
1005.613281,10.624493,6.365894,7.921250,12.465214
1005.617188,7.539447,8.353122,10.470428,8.635371
1005.621094,10.212422,7.756062,4.687473,14.253507
1005.625000,6.413787,10.720307,12.735154,6.206398
1005.628906,13.535753,14.272761,12.708273,16.287239
1005.632812,11.353123,4.766418,16.092899,7.283935
1005.636719,6.914665,12.408962,6.565897,2.843479
1005.640625,1.466390,18.487053,10.166921,3.072280
1005.644531,7.997285,8.982698,3.188453,3.364466
1005.648438,-3.343736,4.247584,3.047092,-2.757527
1005.652344,-6.766686,-0.144141,0.305149,0.655999
1005.656250,3.539885,1.640507,-2.296856,-6.270964
1005.660156,-2.906664,-14.033580,-1.870220,-8.433595
1005.664062,-0.497443,-7.156202,-1.916833,-8.958478
1005.667969,-5.905525,-9.850931,-9.876495,-9.911966
1005.671875,-7.365164,-13.321171,-12.029445,-9.941455
1005.675781,-9.862895,-4.669423,-12.123553,-3.846660
1005.679688,-4.706348,-14.402878,-13.134140,-12.769504
1005.683594,-11.303156,-13.929154,-8.060784,-9.454560
1005.687500,-5.731770,-5.387802,-1.741902,-1.857818
1005.691406,-4.108288,-12.385625,-10.864503,1.844561
1005.695312,3.947264,2.587497,-1.001642,-1.901124
1005.699219,1.471829,-1.292957,-4.830237,-1.164463
1005.703125,6.563645,5.842594,5.729762,2.157490
1005.707031,8.548336,2.842260,8.439181,-2.512352
1005.710938,5.727557,5.318058,4.867068,2.273788
1005.714844,4.175287,9.794367,5.647873,1.606459
1005.718750,5.118197,5.178264,4.183922,14.395031
1005.722656,11.307672,15.892858,10.673981,8.274350
1005.726562,14.041137,12.185781,15.137674,9.918971
1005.730469,12.128132,16.549358,3.012067,12.163395
1005.734375,12.586587,6.175094,8.567808,0.052550
1005.738281,8.576282,3.893141,14.529238,4.490595
1005.742188,9.380351,7.839197,9.065992,-2.078426
1005.746094,0.313593,-0.968850,0.515922,2.035591
1005.750000,-6.006360,3.774812,-3.136487,3.396538
1005.753906,10.740539,-2.164904,-6.298357,3.298088
1005.757812,-7.427570,-12.204005,2.066858,-6.687674
1005.761719,-8.856221,-8.250142,-3.240491,-4.406725
1005.765625,-5.534140,-8.638297,-9.773078,-7.847240
1005.769531,-10.264570,-5.713538,-10.439706,-8.881421
1005.773438,-1.830613,-2.148401,-8.143817,-18.498968
1005.777344,-9.344337,-8.370165,-3.661365,-8.414004
1005.781250,-5.805609,-11.529767,-5.462963,-15.395206
1005.785156,-7.878614,-5.368975,0.167425,-7.075832
1005.789062,-7.253461,-0.671442,-9.870976,-10.265725
1005.792969,-2.166334,-1.579722,0.690471,-9.223505
1005.796875,-5.807842,-7.491256,-2.344575,-1.496527
1005.800781,7.033144,-6.055776,-5.690320,6.909164
1005.804688,9.197756,1.695993,4.645077,6.471985
1005.808594,-1.125451,6.438604,8.503074,11.124381
1005.812500,3.454623,9.178804,9.098586,7.517727
1005.816406,7.420714,15.702078,10.244945,4.854881
1005.820312,9.552242,7.983814,5.152817,6.328564
1005.824219,10.910774,13.502549,11.186865,12.241111
1005.828125,9.508830,7.550677,1.369817,8.530780
1005.832031,13.670835,9.242796,10.869555,13.176481
1005.835938,0.647531,4.666370,10.173133,4.657014
1005.839844,9.207202,4.507031,14.339637,12.035906
1005.843750,5.247100,-1.896902,13.295076,-0.667441
1005.847656,3.234406,1.908516,8.222233,-2.611319
1005.851562,5.956193,0.132467,0.138235,-6.500940
1005.855469,2.955959,0.656574,-1.016492,-1.584780
1005.859375,-5.326513,0.177222,-4.351737,-7.338629
1005.863281,-3.356317,-5.496875,-11.606365,-9.981357
1005.867188,-2.515354,-5.673284,-10.938405,-7.241501
1005.871094,-10.120296,-12.601163,-18.193833,-12.759793
1005.875000,-15.038458,-13.777196,-15.881721,-8.178086
1005.878906,-5.382039,-4.670568,-9.166259,-8.497768
1005.882812,-7.910220,-9.835976,-15.927975,-10.379671
1005.886719,-10.079613,-5.500129,-6.213159,-9.260332
1005.890625,1.539369,1.588622,-1.444285,-6.733805
1005.894531,1.361522,1.587976,-4.136436,1.263830
1005.898438,-5.819263,1.236176,0.410925,-3.577278
1005.902344,-3.131189,8.152369,6.504394,-5.931571
1005.906250,9.236757,-3.626694,1.839439,3.402245
1005.910156,7.056367,4.319844,11.605384,11.590775
1005.914062,10.377135,6.211761,7.969049,3.784175
1005.917969,15.070412,9.050153,6.137312,7.136165
1005.921875,12.557692,15.422082,10.012037,-0.727981
1005.925781,11.240494,13.549629,4.582733,12.985684
1005.929688,8.855671,12.493635,15.426495,7.065273
1005.933594,4.848537,4.086668,14.266875,10.575847
1005.937500,7.407829,11.917264,9.235160,1.082329
1005.941406,-1.033533,-0.298805,11.031503,5.267194
1005.945312,13.835812,3.321921,-1.476726,10.846893
1005.949219,-3.101072,4.452292,5.850502,0.837255
1005.953125,2.058872,1.020371,0.189365,-7.628010
1005.957031,0.131315,2.353566,-11.343241,-1.581620
1005.960938,-5.156667,-4.337370,-3.111508,-9.087815
1005.964844,-4.738467,-2.765440,-11.153889,-4.052263
1005.968750,-17.051302,-14.416778,-1.737770,-14.899999
1005.972656,-16.775319,-5.106286,-6.173006,-13.175349
1005.976562,-18.455003,-3.817208,-8.530950,-7.779427
1005.980469,-2.077433,-10.246002,-7.606890,-16.901186
1005.984375,-5.065048,-12.525290,-16.088439,-13.900792
1005.988281,-7.608916,-9.631365,-7.183235,-9.959642
1005.992188,-0.215577,-9.270802,-2.705292,-1.726584
1005.996094,-6.329358,-1.530424,-6.871560,-7.286519
1006.000000,-8.394811,2.792344,-1.825685,-1.865091
1006.003906,-3.553662,-1.729024,0.544877,-3.500912
1006.007812,-0.038090,1.479017,4.142706,3.448011
1006.011719,2.958675,5.775805,8.423416,0.268145
1006.015625,12.030799,9.827024,5.155330,7.508088
1006.019531,4.347190,7.224425,9.295290,10.339163
1006.023438,9.052598,13.610273,19.117967,15.261939
1006.027344,12.005824,11.847577,9.177158,9.778567
1006.031250,6.019528,12.133234,11.191905,12.893785
1006.035156,7.708142,9.560276,4.797055,18.694476
1006.039062,6.116762,6.199643,6.762533,-2.728361
1006.042969,4.207089,13.906863,2.366974,8.218957
1006.046875,2.934258,1.183964,10.447167,-4.548845
1006.050781,0.739591,-0.321268,0.101383,-4.866034
1006.054688,3.621563,-7.481490,-5.550613,-5.066947
1006.058594,-7.646764,1.653579,-1.386822,-1.984441
1006.062500,-12.712784,-9.293178,-7.148727,0.521014
1006.066406,-6.531414,-3.353148,-5.751107,-8.461462
1006.070312,-4.076846,-10.251477,-18.493204,-8.031313
1006.074219,-8.531340,-17.416748,-12.421797,-14.042888
1006.078125,-11.047521,-7.210368,-7.038437,-14.079063
1006.082031,-9.848487,-12.139941,-7.156083,-8.570832
1006.085938,-9.081341,-8.773970,-12.106703,-8.049686
1006.089844,-13.969934,-5.299822,-1.574535,-10.019291
1006.093750,1.857511,-2.979833,-6.217713,-4.369345
1006.097656,2.962885,3.440085,5.798329,-7.072815
1006.101562,2.399681,-1.630977,3.034291,2.102999
1006.105469,2.985118,7.266836,8.258243,5.287047
1006.109375,8.387499,5.119287,10.841984,3.766212
1006.113281,1.757251,6.766465,9.067216,-1.218152
1006.117188,11.912472,2.828229,11.955699,16.736510
1006.121094,7.810571,10.053628,11.290136,9.989971
1006.125000,9.976529,20.774992,10.510162,8.797726
1006.128906,15.954419,-1.280634,12.494957,7.284589
1006.132812,12.143051,7.286778,7.875403,7.291586
1006.136719,0.373249,10.171262,10.686847,13.350188
1006.140625,0.173585,10.189368,1.310867,6.751887
1006.144531,10.214697,2.599355,11.512771,-1.999793
1006.148438,1.455376,-2.770327,3.609886,6.300864
1006.152344,0.271454,-5.759663,5.371096,-10.003760
1006.156250,-7.293738,-8.455048,-1.536582,-5.997801
1006.160156,-7.938697,-7.818377,-12.379044,-4.049363
1006.164062,-9.060592,-6.371404,-11.334502,-5.116612
1006.167969,-3.968738,-10.711820,-1.485622,-8.595668
1006.171875,-4.207046,-6.056368,-15.747302,-16.943517
1006.175781,-9.293133,-12.456737,-10.572913,-5.397009
1006.179688,-4.718240,-10.301829,-9.948426,-14.285236
1006.183594,-10.240569,-13.997640,-11.196719,-1.615457
1006.187500,-8.604063,-3.035062,-12.186570,-0.070273
1006.191406,5.989998,-2.375189,-3.706753,-3.481869
1006.195312,-0.187351,-5.826808,-7.147553,-5.261669
1006.199219,-5.946088,3.732754,-7.273980,-1.435698
1006.203125,0.353789,-2.404689,3.056196,3.189649
1006.207031,8.169952,4.655031,8.802891,10.916572
1006.210938,-1.208285,6.454816,7.351629,2.188284
1006.214844,11.775896,8.302097,6.822316,10.245572
1006.218750,12.812464,10.219929,6.524395,6.227388
1006.222656,9.762438,5.682241,5.266394,13.983456
1006.226562,3.143243,13.012460,12.445014,12.953292
1006.230469,7.672769,9.045162,6.944030,9.994073
1006.234375,4.250041,7.995626,10.719838,8.203177
1006.238281,9.061394,10.055608,-2.689683,-0.799810
1006.242188,8.003755,-2.418795,7.972718,7.601038
1006.246094,9.790964,5.416892,-6.580930,-5.656786
1006.250000,6.695876,-4.030717,-3.236121,1.696154
1006.253906,-1.872795,-0.951442,-2.196755,-4.352625
1006.257812,-7.883506,-6.412719,-9.050553,-3.567209
1006.261719,-7.155854,-5.865756,-6.088730,-5.006360
1006.265625,-9.596732,-4.735094,-14.663826,-18.332056
1006.269531,-10.455509,-3.341784,-4.029454,-7.982987
1006.273438,-13.863751,-9.363308,-6.103964,-10.372824
1006.277344,-11.362438,-8.535178,-6.065067,-3.185899
1006.281250,-12.690203,-7.992395,-12.333393,-8.724825
1006.285156,-5.064948,-10.133151,-11.292931,-2.073000
1006.289062,-4.670134,-6.176580,-6.273864,-4.525953
1006.292969,-6.513551,-6.897628,-2.429269,-0.228352
1006.296875,5.194695,-6.221348,-3.780629,-0.880611
1006.300781,-0.758502,4.259958,1.380216,2.407118
1006.304688,8.014369,4.551569,4.107636,9.779985
1006.308594,4.409497,0.967279,0.966754,3.982949
1006.312500,12.306787,7.933861,3.682303,13.809012
1006.316406,7.835185,7.530474,6.117756,17.275390
1006.320312,15.729719,6.804681,7.675276,9.836599
1006.324219,10.292814,12.371714,9.235668,16.273780
1006.328125,7.678151,7.454617,11.034156,0.190413
1006.332031,13.110357,14.495084,6.323378,0.994049
1006.335938,8.904168,9.270823,7.863255,-1.695360
1006.339844,6.810487,5.540317,8.511576,8.005267
1006.343750,2.625525,3.400449,7.764048,5.898557
1006.347656,5.451372,9.021245,-6.269120,-1.281884
1006.351562,-5.997093,5.299927,-4.045650,0.787471
1006.355469,1.080869,-5.232597,-1.232195,-0.170371
1006.359375,-1.977778,-2.164844,-9.885991,-7.502533
1006.363281,-6.138174,-3.081955,-8.664351,-12.549017
1006.367188,-15.367196,-18.517877,-3.050375,-8.046560
1006.371094,-6.967054,-8.469947,-6.810741,-14.966430
1006.375000,-9.295605,-11.737093,-11.371755,-7.703777
1006.378906,-11.340904,-8.999230,-17.072963,-8.314598
1006.382812,-15.280032,-9.587365,-13.166978,1.934728
1006.386719,0.167135,-3.323721,-7.251304,-7.151791
1006.390625,-8.233672,-0.372679,-1.720062,-3.876169
1006.394531,-7.369342,0.614369,0.066687,3.590506
1006.398438,-1.321079,0.511937,-1.154133,-2.697921
1006.402344,-0.273684,2.960877,-1.304184,3.572609
1006.406250,2.067919,5.867137,6.766769,3.594680
1006.410156,10.361953,7.987803,5.351881,5.598501
1006.414062,10.143751,15.809641,5.044630,6.282370
1006.417969,8.583233,12.170135,13.488333,14.322117
1006.421875,7.029988,5.319868,3.832506,8.964335
1006.425781,6.835628,17.024125,10.699211,9.759548
1006.429688,15.878425,10.831084,10.532770,18.018358
1006.433594,18.126421,7.521959,3.462484,9.177156
1006.437500,9.330829,1.097448,6.347468,7.331656
1006.441406,10.034769,-0.176749,3.482109,9.827092
1006.445312,6.261566,0.550676,5.739393,-6.009101
1006.449219,-0.524098,-1.771171,8.914395,-2.130416
1006.453125,0.589303,-5.663538,-10.195412,-2.900243
1006.457031,-4.880261,-7.601961,3.948136,-5.125321
1006.460938,-6.662395,-6.503454,-4.678903,-8.405496
1006.464844,-4.706856,-11.435845,-3.346024,-10.974155
1006.468750,-7.320918,-14.221927,-7.052894,-7.381188
1006.472656,-14.821743,-8.770978,-7.633386,-8.434722
1006.476562,-12.062582,-10.235364,-6.192227,-8.460856
1006.480469,-9.945747,-11.309387,-9.519983,-5.734496
1006.484375,-7.737172,-9.384165,-5.427631,-14.742167
1006.488281,-11.038516,-10.284876,-11.635846,-5.981061
1006.492188,-11.269454,4.289978,-0.964355,-11.027217
1006.496094,3.166126,-3.092460,-3.252938,-12.423817
1006.500000,-0.841246,5.380761,-1.749844,-3.756037
1006.503906,0.701171,3.041724,4.188752,4.641008
1006.507812,8.921546,5.056370,3.448128,3.119231
1006.511719,4.757096,11.572722,7.948555,0.351085
1006.515625,12.736344,6.686721,8.134785,10.168162
1006.519531,9.247078,5.282861,8.810201,9.159474
1006.523438,7.503948,3.377134,12.471614,14.299653
1006.527344,8.408428,13.589406,8.592556,10.984649
1006.531250,15.710831,7.061653,10.359425,6.194662
1006.535156,5.604981,8.188668,7.431953,7.601859
1006.539062,1.512686,6.830052,7.333963,1.598755
1006.542969,1.052354,5.193947,4.550234,6.044593
1006.546875,-5.323724,0.311414,-2.751751,-0.380540
1006.550781,-0.124003,3.653502,0.358984,3.021245
1006.554688,-4.665118,-0.778904,-5.413165,2.358600
1006.558594,-6.883919,0.752585,-9.696561,-5.346345
1006.562500,-5.697625,-9.588850,-7.351209,-5.113692
1006.566406,-10.136130,-6.807376,-1.302974,0.448738
1006.570312,-8.168084,-14.625162,-5.917121,-10.601338
1006.574219,-14.331582,-10.273452,-10.147983,-10.249384
1006.578125,-11.556878,-8.882822,-9.504100,-15.282869
1006.582031,-12.146399,-11.637607,-3.663836,-15.122618
1006.585938,-9.412510,-5.878819,-10.756378,-8.980526
1006.589844,-7.514743,-1.364070,-11.609601,-12.992257
1006.593750,-1.729403,-3.601559,-4.989674,-6.759938
1006.597656,-3.018917,0.475711,-1.465831,-4.042521
1006.601562,1.490327,0.553525,0.622896,1.618973
1006.605469,1.176480,2.913582,2.808657,6.756527
1006.609375,6.680580,3.498651,4.895421,0.494808
1006.613281,7.555642,8.885581,12.565035,12.713590
1006.617188,1.952431,16.082726,10.832900,8.452408
1006.621094,4.929934,6.312835,13.585169,3.862871
1006.625000,11.804814,9.892754,16.736178,5.108633
1006.628906,14.202011,5.248977,10.171791,4.385996
1006.632812,-1.583578,8.805338,10.314161,11.538761
1006.636719,9.661029,6.269942,5.006693,13.990871
1006.640625,11.854288,5.468944,10.050442,6.237885
1006.644531,-2.557723,-6.942717,0.167050,5.087371
1006.648438,-8.060729,2.146135,7.835427,3.513252
1006.652344,-0.462850,1.139258,0.905977,4.076330
1006.656250,-0.699143,-6.048710,1.835270,-6.595092
1006.660156,-5.370622,-5.696817,-4.535812,-9.186604
1006.664062,-10.974326,-9.919706,-13.608085,-10.256084
1006.667969,-7.738189,-10.000977,-10.289056,-14.894749
1006.671875,-1.797634,-7.972103,-7.174716,-16.058462
1006.675781,-17.256262,-7.032526,-3.585308,-5.609410
1006.679688,-13.254761,-12.413362,-11.652105,-12.694372
1006.683594,-1.723138,-11.335013,-7.678334,-11.182327
1006.687500,-10.089981,-11.310501,-3.329146,-5.278051
1006.691406,-6.935309,-9.362764,-8.027840,-4.318423
1006.695312,4.557109,1.063726,-5.184777,-5.020385
1006.699219,3.907466,0.964055,-2.803650,-3.695550
1006.703125,3.401244,2.071792,-2.640087,2.196778
1006.707031,-1.507967,0.632664,9.323118,2.690126
1006.710938,2.681802,9.005881,7.716013,4.190583
1006.714844,12.528042,6.526301,1.542335,11.874327
1006.718750,5.962852,7.177355,2.549865,11.525505
1006.722656,9.897528,10.678215,9.933217,14.120409
1006.726562,9.087522,7.314336,5.519276,11.580178
1006.730469,8.580763,9.955754,5.740755,7.100388
1006.734375,2.143087,13.378943,5.297185,16.180032
1006.738281,7.825097,10.017560,4.851572,3.663949
1006.742188,7.449347,3.873802,2.639777,-2.726892
1006.746094,-0.992555,11.962008,1.920607,2.310896
1006.750000,1.207301,-2.074145,1.144181,1.956280
1006.753906,-1.283734,-8.215062,3.611398,1.347932
1006.757812,-8.979115,-3.161448,-6.049860,3.119129
1006.761719,-5.581646,-7.425610,-3.278445,-5.302184
1006.765625,-11.162086,-8.117924,-1.910158,-12.768195
1006.769531,-3.086546,-2.508121,-13.842869,-10.502919
1006.773438,-20.635376,-10.842625,-4.106230,-6.529848
1006.777344,-4.080147,-15.231700,-3.917497,-15.321311
1006.781250,-19.082877,-10.568087,-7.165803,-12.903435
1006.785156,-11.038216,-10.466413,-8.139061,-4.034622
1006.789062,-8.927286,-2.005397,-14.112279,-9.425140
1006.792969,-8.307276,-13.529994,-4.888052,2.700352
1006.796875,-5.034504,-2.494200,-1.282041,0.107514
1006.800781,1.047437,4.632754,6.688867,-1.885013
1006.804688,5.429724,-3.159010,4.639361,3.399769
1006.808594,0.292386,3.222382,8.305577,3.598347
1006.812500,5.681645,12.079891,-0.435526,6.172181
1006.816406,7.735921,8.903808,10.487132,-0.265211
1006.820312,8.952781,9.791731,4.949864,15.493574
1006.824219,3.145865,10.990909,5.045762,10.122462
1006.828125,7.517060,8.715623,9.969496,8.085154
1006.832031,7.128576,3.941213,13.006070,7.044510
1006.835938,4.399004,9.172154,12.084137,10.912438
1006.839844,11.843086,5.051413,9.011461,1.104494
1006.843750,0.653524,1.756547,-0.107286,-3.808776
1006.847656,-2.175627,5.362846,0.379839,2.530807
1006.851562,7.315677,-2.096070,-5.003060,2.682223
1006.855469,-3.414729,-0.623278,-6.909379,-3.724994
1006.859375,-8.396100,-7.857352,-9.568035,-6.537825
1006.863281,-4.452452,-14.828248,-8.838304,-14.043535
1006.867188,-7.794930,-0.483288,-12.016865,-12.662168
1006.871094,-6.651411,-12.569136,-5.204706,1.342376
1006.875000,-16.336020,-6.800651,-8.677006,-11.081563
1006.878906,-10.441536,-8.005728,-6.564582,-19.862265
1006.882812,-8.141109,-6.930237,-3.526697,-5.346096
1006.886719,-4.910472,-10.553432,-5.018576,-2.534776
1006.890625,-3.786604,-1.052316,-7.266342,-9.190035
1006.894531,0.389875,-8.689676,-8.110147,1.242061
1006.898438,-8.472715,0.669568,3.189704,-1.481910
1006.902344,7.688588,-4.925169,4.998231,3.970644
1006.906250,0.451721,6.580933,-4.802333,2.997684
1006.910156,9.460959,5.279238,11.159334,-1.501492
1006.914062,1.688375,5.819155,4.514431,9.088047
1006.917969,9.537142,7.433217,9.675460,2.285359
1006.921875,14.089480,3.101901,15.657298,14.223339
1006.925781,3.236049,8.478405,7.657238,7.612307
1006.929688,7.805827,11.657157,4.604739,-1.974857
1006.933594,5.639251,14.895041,4.758475,9.495552
1006.937500,6.332195,5.156525,7.538433,3.298086
1006.941406,6.566950,10.115329,5.606308,5.968187
1006.945312,-1.339809,0.701284,3.555560,-2.537391
1006.949219,-0.030187,6.928408,3.079636,6.901755
1006.953125,-9.462752,0.377337,-0.434065,-3.522458
1006.957031,-4.532714,-9.649637,2.573616,-9.011520
1006.960938,-3.659497,-3.088723,-4.781976,-7.899087
1006.964844,-3.612134,-10.603577,-6.183846,2.056763
1006.968750,-3.366355,-6.287716,-5.390508,-5.109409
1006.972656,-7.665620,-8.727497,-2.180015,-11.125311
1006.976562,-9.970927,-12.839585,-6.788292,-7.333087
1006.980469,-10.919437,-10.631488,-10.387499,-5.201879
1006.984375,-9.484700,-6.927033,-6.582166,-17.473335
1006.988281,-9.778190,-12.776150,-5.566072,-11.104377
1006.992188,-2.250143,-12.113860,-2.918862,0.518063
1006.996094,1.278718,-2.905924,-2.480811,3.425041
1007.000000,2.390128,-2.488914,1.623676,5.766154
1007.003906,-1.955213,-2.115484,4.416633,5.870272
1007.007812,-4.541706,5.837690,13.575148,6.426316
1007.011719,6.831474,6.526083,2.705780,5.674037
1007.015625,6.890472,11.529985,9.120463,3.381074
1007.019531,13.545990,16.638669,4.027211,14.331556
1007.023438,6.174139,10.658123,4.457335,10.904675
1007.027344,9.177944,7.236872,8.205143,6.132559
1007.031250,3.878181,12.613777,12.003910,11.376492
1007.035156,-0.632898,2.516655,5.681551,7.455234
1007.039062,4.632012,3.299639,10.684673,2.068127
1007.042969,4.954071,0.282033,5.581436,0.174509
1007.046875,-5.273378,4.544489,2.312520,10.864236
1007.050781,3.669734,-1.606326,1.770766,4.655291
1007.054688,1.872553,0.365954,-4.799952,-0.779155
1007.058594,-9.364188,-9.680391,-5.099870,-13.589927
1007.062500,-10.940551,-6.061830,-8.657645,-1.994652
1007.066406,-15.371272,-6.305007,-12.737710,-11.635951
1007.070312,-10.421101,-12.238544,-6.782593,-11.552459
1007.074219,-5.763222,-11.299250,-8.753650,-16.014768
1007.078125,-7.700354,-12.704375,-16.514565,-10.607924
1007.082031,-6.601917,-11.476456,-6.976405,-9.713985
1007.085938,-5.777732,-13.012690,-10.389209,-7.716918
1007.089844,-5.186878,-7.708418,-16.694817,-13.383074
1007.093750,-3.536030,-4.395372,-4.690715,-8.351813
1007.097656,-2.040221,6.790229,2.948144,-1.994498
1007.101562,1.617744,3.194777,-3.716385,0.023626
1007.105469,4.538930,-0.638851,9.898598,7.454112
1007.109375,1.636143,9.616853,11.587786,6.555566
1007.113281,8.554903,-1.271388,7.765515,4.447945
1007.117188,11.900927,8.149580,10.986352,7.792251
1007.121094,10.444260,16.412259,17.050369,15.739839
1007.125000,17.722511,7.688236,11.533059,11.244887
1007.128906,7.807092,15.416908,9.378502,10.527559
1007.132812,8.858308,10.168778,3.223182,5.418436
1007.136719,7.697801,9.775114,9.474904,4.834112
1007.140625,1.175144,2.925313,5.550562,7.235375
1007.144531,2.222265,0.408029,4.224082,0.890365
1007.148438,-2.578715,0.975463,-2.171536,0.467681
1007.152344,0.571302,-0.335177,2.681570,0.916591
1007.156250,-6.400279,-3.471473,0.669882,4.828840
1007.160156,-8.399074,-6.226543,-6.240500,-6.457860
1007.164062,-9.833694,-10.952302,-6.131000,-4.953524
1007.167969,-11.283101,-11.259895,-11.035491,-22.030981
1007.171875,-7.312768,-15.698746,-14.974526,-16.152192
1007.175781,-12.518046,-18.498414,-7.572641,-8.070212
1007.179688,-7.217013,-4.849743,-6.758472,-10.076707
1007.183594,-9.982546,-5.940266,-13.250930,-9.757397
1007.187500,-9.725150,-9.615717,-4.937081,-10.901262
1007.191406,-5.045020,-1.010347,-4.003421,-5.520132
1007.195312,-1.396161,-8.522044,-9.294357,-0.991129
1007.199219,-3.767176,-1.102802,-2.151718,-3.208542
1007.203125,6.081664,3.176461,5.913819,5.535185
1007.207031,-4.816898,-1.961949,-4.374523,2.361872
1007.210938,4.566949,5.365052,9.919784,10.011346
1007.214844,12.337768,13.573628,12.236187,9.064847
1007.218750,9.029206,1.374957,14.517482,8.771871
1007.222656,10.228517,-1.349122,4.926759,15.625757
1007.226562,11.776593,5.642563,11.368601,7.670599
1007.230469,6.798974,9.852799,15.879129,9.748143
1007.234375,11.770907,8.402653,4.611859,4.345274
1007.238281,1.433672,4.084378,13.626881,8.159178
1007.242188,5.614833,6.930970,8.645552,-0.629695
1007.246094,2.474276,4.743595,0.238066,5.512063
1007.250000,-1.484288,-1.201577,-5.441066,-0.406519
1007.253906,4.811513,-2.379283,-4.323297,-2.774312
1007.257812,-5.689977,-1.229708,-7.699130,-0.272198
1007.261719,-8.818363,-5.281641,-13.454884,-7.366671
1007.265625,-4.891408,-6.378366,-12.739781,-9.371159
1007.269531,-9.454431,-15.134889,-14.137133,-8.030497
1007.273438,-10.399806,-5.990967,-7.179395,-2.036061
1007.277344,-14.691242,-1.652270,-10.180943,-9.989809
1007.281250,-0.960850,-11.356220,-12.286370,-12.076282
1007.285156,-14.330756,-12.261324,-17.720251,-17.260513
1007.289062,-6.492869,-6.600637,-8.833976,-11.710490
1007.292969,-8.886210,-3.764561,-8.667143,-8.403640
1007.296875,0.090922,-7.869907,2.304660,-2.260764
1007.300781,1.759190,2.059154,-1.187732,3.085385
1007.304688,1.607869,1.524535,4.382373,4.233205
1007.308594,8.718469,6.032139,-0.031620,2.135233
1007.312500,14.365800,7.555522,13.399072,3.881930
1007.316406,7.804878,0.444794,5.463937,0.040725
1007.320312,6.118321,8.993942,7.202116,5.587172
1007.324219,8.167962,12.219700,14.749300,13.158511
1007.328125,8.703903,8.709232,8.278049,12.912804
1007.332031,14.802792,0.383049,11.983865,4.950008
1007.335938,5.376856,2.716392,2.133840,7.131240
1007.339844,-3.181708,11.837987,3.403335,-0.654894
1007.343750,-2.041091,1.528670,3.690216,13.732520
1007.347656,1.243508,8.144209,2.753834,0.882651
1007.351562,-1.619272,1.407741,-2.703075,-3.456412
1007.355469,-4.414111,-10.819432,-8.729137,-1.761925
1007.359375,-1.667272,-3.335742,-8.346835,-4.588292
1007.363281,-6.685138,0.686785,-12.040202,-1.778502
1007.367188,-11.886543,-4.097094,-11.822211,-15.952794
1007.371094,-9.177744,-3.514416,-12.328625,-10.040379
1007.375000,-7.419588,-7.530521,-8.951555,-10.204337
1007.378906,-9.648332,-9.878664,-11.141432,-11.589547
1007.382812,-9.969842,-12.458997,-14.254989,-10.682344
1007.386719,-5.060414,-6.355813,-10.513858,-8.579741
1007.390625,-10.394246,-6.509802,-0.182493,-2.733284
1007.394531,1.440218,4.409036,3.026986,-2.179107
1007.398438,-0.180976,3.306375,-17.674289,0.832819
1007.402344,-1.830787,2.262486,-9.852874,2.177305
1007.406250,-1.995008,5.106965,1.862029,8.236391
1007.410156,6.636275,6.091257,11.700471,3.324005
1007.414062,6.665692,2.157385,1.357533,10.750276
1007.417969,3.954108,8.774493,10.529588,11.369712
1007.421875,11.498188,14.314073,14.415589,5.256385
1007.425781,10.489671,6.867954,14.323469,8.630563
1007.429688,7.673558,10.944128,14.737858,6.130259
1007.433594,7.430471,15.317786,12.116698,12.541646
1007.437500,8.132740,4.546100,5.854048,10.500924
1007.441406,3.326393,-2.643845,5.792254,4.012781
1007.445312,6.437403,5.305446,3.265258,6.515213
1007.449219,8.522203,-0.065200,0.516755,1.592819
1007.453125,-5.714843,-5.691384,-2.178842,-5.501995
1007.457031,-4.780719,-4.545000,-4.761665,-3.333111
1007.460938,-0.621503,-8.283246,-16.987558,-2.283499
1007.464844,-10.940680,-10.836125,-9.101995,-9.934871
1007.468750,-13.403957,-10.190122,-16.852564,-12.504608
1007.472656,-5.680320,-7.241534,-4.482303,-8.548263
1007.476562,-9.565848,-11.227471,-7.907924,-6.832130
1007.480469,-13.372238,-10.239832,-7.428458,-9.812690
1007.484375,-8.545093,-6.530306,-4.303328,-10.641808
1007.488281,-14.385107,-6.960991,-4.249168,-4.212091
1007.492188,-0.735142,-4.709045,-7.461261,-2.392992
1007.496094,-2.356579,-7.100228,-5.934673,0.141322
1007.500000,-1.339870,-5.011886,1.207065,1.955143
1007.503906,5.652761,-5.636668,0.847242,2.344276
1007.507812,2.487506,10.235999,0.111750,1.605115
1007.511719,2.322244,7.276216,-0.033647,10.686450
1007.515625,14.088550,9.523450,8.372922,5.128008
1007.519531,10.582785,11.086659,8.620823,17.776846
1007.523438,10.314255,7.256803,7.505981,8.994812
1007.527344,13.119788,8.784528,11.975334,13.881731
1007.531250,11.621723,8.919548,11.574635,8.201580
1007.535156,-0.477703,5.739512,8.566615,3.405490
1007.539062,11.938114,13.384851,1.688447,2.925779
1007.542969,4.212698,11.580575,5.144123,2.130937
1007.546875,6.418892,-0.181286,0.891015,-1.334508
1007.550781,-1.490705,-3.699373,5.523501,-0.828309
1007.554688,-4.108795,-1.365161,-8.820181,-4.244764
1007.558594,-5.074888,-11.228811,-3.025346,-4.504769
1007.562500,1.277228,-10.049672,-10.398169,-11.201003
1007.566406,-14.124015,-12.728031,-9.754514,-5.308688
1007.570312,-8.985573,-12.121849,-12.196498,-13.337420
1007.574219,-8.217784,-8.980975,-5.939734,-4.903045
1007.578125,-9.594381,-13.885075,-11.492532,-13.832712
1007.582031,-9.985897,-6.096661,-8.856481,-5.150333
1007.585938,-5.006111,-3.001797,-4.228517,-5.456215
1007.589844,-4.085066,-5.925191,0.705643,-6.313751
1007.593750,-4.818968,-10.841902,-4.567310,-3.208365
1007.597656,-2.345206,-4.098747,2.158892,-4.717716
1007.601562,2.418600,7.794521,-4.207596,13.724254
1007.605469,-0.972436,5.962081,2.314311,6.828409
1007.609375,-0.571191,6.119590,11.221378,5.734147
1007.613281,5.194908,10.710809,9.224752,8.615491
1007.617188,9.334537,4.527003,5.942323,8.840740
1007.621094,5.246560,9.645508,14.543976,10.824871
1007.625000,9.456171,12.232203,6.557944,12.845288
1007.628906,3.114795,7.969496,14.032811,16.679574
1007.632812,7.956826,5.833362,11.546388,8.493051
1007.636719,3.687205,4.478284,8.610620,2.729840
1007.640625,9.161027,-0.496245,7.417701,6.107754
1007.644531,-0.914760,14.378861,-2.050766,6.773200
1007.648438,7.158425,2.361969,0.019376,3.496912
1007.652344,3.294448,-7.643109,-3.873807,-0.071024
1007.656250,-3.816314,0.515851,-6.894756,-6.897925
1007.660156,-2.094772,-7.503987,-5.718628,-10.653257
1007.664062,-9.522428,-5.477813,-6.710562,-10.660043
1007.667969,-8.399580,-17.862568,-7.357439,-14.836420
1007.671875,-15.799446,-14.060770,-12.465970,-16.438405
1007.675781,-20.512151,-9.664671,-19.796091,-11.358510
1007.679688,-12.300231,-11.795831,-6.816631,-5.073415
1007.683594,-2.744259,-4.541592,-8.349133,-12.956225
1007.687500,-5.002020,-12.056765,-10.959472,-5.572201
1007.691406,-12.681617,-2.169362,-4.190279,1.591353
1007.695312,-3.662434,-7.032458,-4.640985,-5.992895
1007.699219,-1.605090,-1.736954,-3.093857,0.002156
1007.703125,6.588319,10.987054,-2.763809,1.094607
1007.707031,0.528721,-0.720281,3.921870,10.238584
1007.710938,6.134527,2.821860,12.036264,16.562248
1007.714844,4.403944,-0.956501,2.109707,3.877855
1007.718750,4.535434,7.198747,15.169646,15.315167
1007.722656,11.905134,10.152955,11.240724,11.815352
1007.726562,13.409679,15.321423,17.370283,10.301721
1007.730469,6.073261,11.380540,12.313875,12.747105
1007.734375,10.074722,14.496780,7.123054,-0.192274
1007.738281,3.812674,15.554737,6.451199,5.831091
1007.742188,3.540233,7.086471,3.321192,3.742838
1007.746094,0.408122,0.097857,8.024100,-0.009385
1007.750000,-5.773012,-1.590863,2.923073,-0.904957
1007.753906,-4.693000,0.411600,-4.117491,-3.313015
1007.757812,-5.655140,-6.058053,-1.957277,-3.196818
1007.761719,-6.114332,-6.881254,-10.847498,-10.781396
1007.765625,-6.308244,-9.993536,-9.180566,-12.234888
1007.769531,-9.051629,-4.163327,-8.852749,-6.857799
1007.773438,-9.604314,-3.880932,-5.948135,-15.317474
1007.777344,-15.308195,-15.404185,-8.879532,-11.131753
1007.781250,-6.650637,-11.923386,-7.688041,-10.693394
1007.785156,-8.204442,-9.041621,-3.490523,-11.253577
1007.789062,-19.143599,-7.508598,-10.910081,1.040846
1007.792969,-7.894910,-2.626789,-2.430138,-10.718157
1007.796875,2.320413,3.714017,-1.862353,-0.311204
1007.800781,-6.166891,-1.836800,-0.153061,-5.107238
1007.804688,2.308427,3.470801,4.873106,5.022870
1007.808594,9.200560,11.275384,7.130385,4.945597
1007.812500,1.872710,-0.608725,2.228348,6.664157
1007.816406,9.444191,6.104968,8.993020,8.030008
1007.820312,5.183926,6.678181,10.943719,10.270844
1007.824219,6.591157,11.673635,17.366682,12.832736
1007.828125,13.075071,6.665150,11.995300,2.339423
1007.832031,3.057531,3.344307,8.261551,9.656251
1007.835938,6.650481,10.249171,10.101331,8.893050
1007.839844,7.714893,1.223327,5.293890,9.162702
1007.843750,6.302223,1.668810,6.708274,10.502650
1007.847656,2.108295,0.027530,-4.861259,0.084868
1007.851562,1.747965,-1.693366,4.954147,-2.591021
1007.855469,-2.170919,-6.690510,-3.089734,-5.360207
1007.859375,-10.902333,-9.051055,-5.351541,-12.897063
1007.863281,-6.651981,-13.978693,-9.655375,-13.580474
1007.867188,-4.843799,-5.038282,-8.351998,-4.251023
1007.871094,-13.646300,-6.996808,-3.543542,-1.829547
1007.875000,-4.498268,-18.402506,-13.800751,0.512787
1007.878906,-8.138756,-5.600095,-4.618975,-8.335953
1007.882812,-8.754384,-16.424544,-15.703887,-13.082819
1007.886719,-3.540232,-9.271378,-16.555745,-9.164321
1007.890625,-7.350456,-3.268204,2.241448,-10.681561
1007.894531,-5.370795,-6.516683,-6.449067,-9.512902
1007.898438,-3.439612,-5.124059,0.854596,-1.370149
1007.902344,4.672087,11.810242,4.392854,1.748356
1007.906250,5.403768,0.608456,5.787372,3.545707
1007.910156,6.371311,5.761071,3.962436,0.141795
1007.914062,1.596037,7.000005,13.212040,8.238446
1007.917969,11.399854,5.656924,9.294342,13.264888
1007.921875,7.272417,16.835882,11.652291,6.975583
1007.925781,6.340065,7.433637,3.961959,13.215013
1007.929688,11.833539,6.523857,5.358732,6.180938
1007.933594,9.133622,8.057228,11.838530,8.508938
1007.937500,-3.664938,14.769912,16.390420,9.006554
1007.941406,4.123367,8.909400,2.149780,-0.179925
1007.945312,2.220226,10.029519,2.363853,8.139371
1007.949219,-6.313021,2.092557,-0.360567,-3.950213
1007.953125,2.179450,5.209206,-6.703969,-5.975034
1007.957031,-14.316491,-6.055497,-9.104696,0.330965
1007.960938,-6.502336,-3.549099,-7.559472,-14.664517
1007.964844,-6.241736,-0.832049,-14.737994,-16.209446
1007.968750,-7.899738,-11.063332,-5.805989,-3.579706
1007.972656,-9.025058,-10.392693,-14.468376,-4.250485
1007.976562,-9.521928,-9.822532,-9.721464,-13.313534
1007.980469,-8.892696,-11.133905,-8.330349,-12.865880
1007.984375,-5.436587,-6.273987,-13.814306,-6.252080
1007.988281,-6.215408,-4.547418,-5.504931,-5.186278
1007.992188,-1.503200,-1.410547,-8.323927,-8.896338
1007.996094,4.954941,3.730675,0.754237,-4.235286
1008.000000,3.776512,-4.288711,4.979922,0.494867
1008.003906,2.467496,1.653760,2.262220,1.868598
1008.007812,2.577352,9.144420,-1.817847,8.000273
1008.011719,6.674970,6.524911,6.417983,3.824350
1008.015625,6.420586,11.534850,6.124171,6.225453
1008.019531,6.883144,7.921357,6.974456,7.437383
1008.023438,17.812903,9.750146,5.053579,10.143969
1008.027344,11.351260,18.053976,9.874354,11.806269
1008.031250,2.672312,6.128641,10.733795,14.240290
1008.035156,14.229012,4.732019,12.442198,7.090855
1008.039062,10.937571,3.894817,5.826864,8.940332
1008.042969,7.718215,6.037582,2.459455,5.464329
1008.046875,1.583162,-0.454604,-7.936024,4.234192
1008.050781,6.736864,-0.001335,2.636282,-1.753976
1008.054688,-2.815950,-10.706265,-1.519564,-4.201747
1008.058594,-9.226330,-12.815931,-4.063530,-0.387738
1008.062500,-11.708240,-9.957669,-3.705142,-9.217118
1008.066406,-11.589664,-6.768631,-10.902031,-10.365734
1008.070312,-9.157301,-10.530632,-14.511178,-7.578165
1008.074219,-6.954409,-11.549574,-12.720114,-14.359102
1008.078125,-7.598090,-2.058102,-17.275589,-16.905197
1008.082031,-5.588301,-11.374147,-9.782487,-5.852693
1008.085938,-5.424275,-10.863720,-1.539658,-0.500283
1008.089844,-9.424547,-3.532931,-5.489780,-2.734502
1008.093750,-3.421396,-0.462041,-6.415817,-5.273439
1008.097656,-7.965109,7.197947,-0.038325,-3.898015
1008.101562,6.336824,-0.020111,6.021480,-0.383136
1008.105469,8.263388,5.387466,-2.682351,1.477904
1008.109375,15.436768,3.881376,-2.300625,11.472497
1008.113281,9.207484,4.691457,1.920864,7.692925
1008.117188,7.007889,10.499792,7.305184,-2.155403
1008.121094,12.443617,8.988930,14.181418,13.544005
1008.125000,13.197026,2.939335,11.500576,9.552856
1008.128906,6.124061,7.882606,9.273355,8.009164
1008.132812,11.980624,15.675103,11.698157,4.109132
1008.136719,12.020377,-0.674920,8.377427,4.543326
1008.140625,1.078047,3.961712,8.432868,-1.628552
1008.144531,0.843699,7.451992,-0.146340,-0.796855
1008.148438,2.869591,-8.844116,1.829819,-0.531507
1008.152344,-7.525644,-1.552578,0.436199,-2.210829
1008.156250,-4.276743,-6.815631,-1.325252,-2.776895
1008.160156,-8.859771,-7.404348,-12.518539,-7.870053
1008.164062,-12.708861,-7.623934,-8.024545,-11.688966
1008.167969,-14.234880,-10.010056,-4.336575,-16.657309
1008.171875,-11.149042,-6.357091,-4.481077,-6.586580
1008.175781,-9.346891,-6.744032,-14.225976,-8.671115
1008.179688,-13.204087,-14.179976,-12.097418,-11.617749
1008.183594,-13.406585,-4.272828,-15.645634,-11.262565
1008.187500,-11.253306,-7.820636,-6.612956,-3.226065
1008.191406,-6.834330,-7.765946,-0.284152,-4.021914
1008.195312,-0.999832,-2.322229,-3.022716,-10.288410
1008.199219,-1.266191,-3.454673,-2.820324,-1.483842
1008.203125,-1.492988,2.043840,2.528018,-2.202043
1008.207031,1.668175,2.375902,0.522713,2.274045
1008.210938,12.042925,4.221290,3.906811,6.166664
1008.214844,12.462202,2.122452,8.530201,4.161019
1008.218750,6.355483,5.926089,11.739839,5.396649
1008.222656,13.517244,7.876517,13.442626,6.509810
1008.226562,1.182745,9.063409,13.431834,2.890575
1008.230469,10.780233,-2.004475,6.321981,10.586417
1008.234375,9.841426,4.801849,15.042991,8.817219
1008.238281,10.787743,1.621678,15.951124,6.180356
1008.242188,0.683998,11.773439,4.029494,2.796152
1008.246094,1.811371,-2.873607,3.850962,1.680716
1008.250000,-0.105150,-6.325551,-1.854612,-3.460904
1008.253906,1.439293,3.278983,0.331331,-9.328351
1008.257812,3.314189,-5.411759,-12.174825,-3.417727
1008.261719,-3.370014,-8.511806,-6.589468,-4.323405
1008.265625,-8.377028,-9.100404,-6.383379,-9.797106
1008.269531,-13.959218,-10.284266,-9.860292,-5.921692
1008.273438,-11.910139,-11.771718,-4.225660,-10.861174
1008.277344,-14.059801,-16.306766,-10.699360,-9.477304
1008.281250,-1.663275,-9.502207,-13.155704,-5.198693
1008.285156,-12.494042,-6.658094,-11.197499,-5.606760
1008.289062,-0.747633,-9.087738,-1.055454,-7.086743
1008.292969,0.139816,-8.810943,-6.069700,-6.385904
1008.296875,-4.404670,-1.458764,4.723992,-0.982362
1008.300781,2.005968,-0.720272,-2.443277,-1.967268
1008.304688,6.408405,3.828983,5.466649,3.843385
1008.308594,3.413354,11.160248,3.508721,9.786969
1008.312500,0.609290,11.367856,10.881643,13.365160
1008.316406,7.760797,11.415966,11.838153,5.570416
1008.320312,6.277064,9.086773,19.404310,5.071810
1008.324219,10.345814,7.626438,1.655501,4.144023
1008.328125,7.018140,10.074967,8.585981,9.268943
1008.332031,15.325269,17.870649,10.282155,-0.825166
1008.335938,5.302756,10.344092,5.690180,15.147928
1008.339844,9.638599,0.826047,1.686319,11.776932
1008.343750,0.341666,1.564664,8.361596,4.731933
1008.347656,6.521208,1.917781,3.844994,-1.472587
1008.351562,-5.847947,-0.411117,0.135627,1.049336
1008.355469,-4.205462,-6.851573,-9.604904,-2.272524
1008.359375,-6.012277,-1.551263,-6.571424,-5.986931
1008.363281,-11.845310,-5.519845,-7.270692,-10.806309
1008.367188,-15.022558,-14.062678,-9.856411,-10.001046
1008.371094,-9.428808,-11.379022,-8.633677,-7.992981
1008.375000,-12.315464,-10.871628,-10.418354,-10.184920
1008.378906,-8.534630,-12.819529,-6.643125,-10.626097
1008.382812,-6.136563,-1.899680,-12.189005,-8.756117
1008.386719,-14.494230,-6.896283,-2.329394,-8.009275
1008.390625,-0.872856,-2.782226,-5.551321,-6.388835
1008.394531,-1.885402,7.244623,-4.519207,-5.466013
1008.398438,-5.513884,-3.236704,3.422260,8.901370
1008.402344,4.439818,0.182550,-1.625328,4.581044
1008.406250,1.331822,0.263501,-3.542227,1.180997
1008.410156,7.558950,5.801102,4.371554,9.529475
1008.414062,5.055337,9.300977,16.219837,0.796888
1008.417969,12.042307,5.854922,14.392237,8.997358
1008.421875,5.503532,9.632349,1.990000,10.313603
1008.425781,7.074966,7.961359,14.283028,9.881600
1008.429688,8.245031,12.269017,15.051620,6.790565
1008.433594,10.337627,10.762837,6.700221,10.693463
1008.437500,10.532364,2.367457,7.930088,7.513161
1008.441406,1.606590,13.350151,7.017051,7.968101
1008.445312,0.373489,10.452055,5.929334,7.902738
1008.449219,-0.333655,8.157755,6.645215,0.371662
1008.453125,-0.660666,-4.465752,1.041224,0.535854
1008.457031,-8.811613,-0.375472,-3.103963,-1.889377
1008.460938,-2.216044,-5.441936,-13.587072,0.182790
1008.464844,-4.690343,-5.303767,-9.377491,-7.338571
1008.468750,-13.202640,-11.210913,-11.864987,-8.681277
1008.472656,-17.824270,-7.808969,-7.481723,-10.756227
1008.476562,-10.030323,-15.358119,-11.575377,-9.959989
1008.480469,-15.203432,-15.860224,-5.921516,-8.565126
1008.484375,-12.764728,-5.814106,-3.746494,-10.688246
1008.488281,-2.863274,-5.198807,-7.339327,-16.470181
1008.492188,-6.477888,-1.515811,-8.658455,-3.731098
1008.496094,2.728605,-0.441616,-8.443790,0.769822
1008.500000,2.511313,-2.886817,-0.598999,-2.697377
1008.503906,13.071180,-2.156391,3.116381,-3.611592
1008.507812,4.159177,3.362730,4.672948,6.883965
1008.511719,10.647604,6.314342,12.010716,14.644765
1008.515625,8.636069,16.082393,1.862280,3.990473
1008.519531,9.736106,13.654923,9.923288,5.678183
1008.523438,13.330171,9.457419,11.566237,8.720901
1008.527344,12.808549,11.430089,11.976342,10.189003
1008.531250,3.242760,13.553187,13.708590,6.601687
1008.535156,3.151059,6.606716,16.675231,12.644990
1008.539062,11.743059,11.223293,12.133737,7.724619
1008.542969,1.537687,8.468750,8.332096,-0.167343
1008.546875,7.118959,0.315769,0.911003,-0.857887
1008.550781,-1.048381,-0.607928,-1.830297,3.089438
1008.554688,-4.156608,4.680473,-4.570624,-4.495440
1008.558594,-2.901574,-8.211704,-2.433485,-6.506264
1008.562500,-9.851989,-9.738285,-7.198129,-11.193273
1008.566406,-11.645325,-15.390833,-9.338955,-9.415517
1008.570312,-13.396704,-12.130029,-10.301721,-8.824315
1008.574219,-3.428405,-13.299217,-17.424228,-13.111999
1008.578125,-10.776452,-5.439731,-4.458233,-9.140799
1008.582031,-11.973958,-8.839140,-11.347691,-8.360927
1008.585938,-11.555486,-0.905405,-9.922824,-1.880056
1008.589844,-4.917003,-6.160526,-6.250334,-4.905584
1008.593750,5.674244,-4.635799,2.381485,-0.080006
1008.597656,-5.351920,0.604526,-3.238936,0.104914
1008.601562,5.730046,-6.372478,-3.145913,-1.274676
1008.605469,2.287228,1.363745,-2.811159,6.723875
1008.609375,7.302162,8.332593,6.201866,8.207821
1008.613281,16.415578,14.808910,11.595399,0.452813
1008.617188,11.407514,8.373265,18.865139,12.208318
1008.621094,1.381416,17.385426,10.519639,6.690435
1008.625000,10.295651,7.430182,9.179477,10.129155
1008.628906,6.783083,12.665985,7.174018,10.634232
1008.632812,13.074522,14.993615,6.467732,6.927430
1008.636719,0.784522,3.754511,7.216318,8.901904
1008.640625,2.695077,4.846446,0.208161,4.676463
1008.644531,13.089397,4.063499,-2.924966,7.443335
1008.648438,7.553074,-1.866110,-4.269937,7.884955
1008.652344,-1.040936,-0.724842,-3.437479,-12.503873
1008.656250,-1.607262,-2.131915,-2.809294,-1.925342
1008.660156,-7.872206,-8.215143,-7.052700,-7.414689
1008.664062,5.591090,-2.245169,-6.062711,-1.611060
1008.667969,-8.553333,-11.015106,-7.453299,-8.927848
1008.671875,-12.769831,-14.347289,-13.418510,-14.762188
1008.675781,-8.215981,-14.291294,-9.529367,-11.608227
1008.679688,-5.665452,-11.769019,-0.788548,-9.621641
1008.683594,-14.724185,-10.377615,-9.330352,-7.571980
1008.687500,-4.276229,-15.128951,-2.107504,-6.718922
1008.691406,-12.103269,-10.483426,-2.155979,-1.715996
1008.695312,-3.297626,-0.405890,-3.021450,-0.489244
1008.699219,-4.737356,2.408594,-0.777861,2.355379
1008.703125,0.123433,5.847943,0.140028,-2.846239
1008.707031,-0.946083,0.637108,5.168831,15.484869
1008.710938,3.390110,15.942203,11.450852,7.460275
1008.714844,2.897340,8.847778,13.503758,4.620582
1008.718750,8.818632,6.602543,12.734009,10.830392
1008.722656,12.073639,10.992609,10.366571,15.936462
1008.726562,2.968197,7.629064,11.809028,17.542449
1008.730469,4.629052,9.866302,8.117609,9.836174
1008.734375,15.105470,9.810425,2.171676,5.330565
1008.738281,5.036454,10.124551,3.326562,2.912471
1008.742188,1.951758,8.354338,10.338384,5.223857
1008.746094,3.300191,1.792825,3.467036,-3.140604
1008.750000,-2.020393,1.813131,0.053026,-4.509956
1008.753906,-0.613197,-5.386935,-3.674412,-6.501177
1008.757812,-3.649919,-1.620995,-6.237695,-4.705406
1008.761719,-5.182970,-2.558496,-6.008765,-3.576267
1008.765625,-12.638912,-9.572678,-9.084619,-10.921281
1008.769531,-1.982235,-13.127142,-9.623296,-8.977691
1008.773438,-7.134007,-6.808986,-15.672812,-16.623656
1008.777344,-10.880391,-7.158501,-9.897660,-4.351893
1008.781250,-8.615221,-9.386217,-10.028120,-8.527936
1008.785156,-11.998495,-4.411787,-6.932631,-11.515701
1008.789062,-11.458783,-4.024557,-7.676918,-4.221788
1008.792969,-7.584252,-4.254272,-1.104997,1.196239
1008.796875,2.807999,4.244635,4.083939,-6.105554
1008.800781,-8.370146,-2.831469,6.877515,-3.604513
1008.804688,3.000336,-2.474733,-4.347303,4.026717
1008.808594,5.072777,7.136635,12.081920,2.358359
1008.812500,8.201570,12.588733,5.305880,3.503871
1008.816406,7.448753,0.565933,11.832810,9.779284
1008.820312,5.785176,-0.029342,10.938116,8.562008
1008.824219,4.783124,12.662039,2.418485,7.940723
1008.828125,8.189639,10.515517,12.074109,9.113253
1008.832031,10.374783,7.689783,8.576110,6.475607
1008.835938,12.454757,8.424172,7.856246,11.109518
1008.839844,1.980356,12.290548,3.680597,9.297454
1008.843750,-3.162396,2.191840,-0.404883,6.516973
1008.847656,-3.168961,1.231457,0.583856,5.535409
1008.851562,2.733124,-6.236155,0.619689,-9.558840
1008.855469,-7.157334,0.698312,-4.331627,-5.120475
1008.859375,-3.528332,-3.017428,-4.992057,-9.096200
1008.863281,-9.671148,-4.769708,-12.118894,-0.117466
1008.867188,-13.066542,-6.858579,-15.124495,-8.197120
1008.871094,-9.330496,-7.170740,-5.433179,-14.744470
1008.875000,-13.970964,-7.333186,-6.223557,-7.770470
1008.878906,-7.131058,-12.535724,-10.268233,-11.615449
1008.882812,-6.639056,-6.969687,-0.721735,-12.968496
1008.886719,-13.348585,-10.926177,-8.483957,-12.952703
1008.890625,-3.649891,-16.350459,-6.376630,-6.267876
1008.894531,-2.987060,-1.057289,-1.225906,1.038731
1008.898438,-1.919301,-1.015589,3.516515,1.280358
1008.902344,7.906123,-3.697031,0.130653,-9.114969
1008.906250,6.296151,7.255343,6.260116,3.486265
1008.910156,11.755023,5.129854,5.288079,2.653378
1008.914062,14.568706,9.470218,9.287557,6.812369
1008.917969,14.679166,9.852545,9.207979,4.934401
1008.921875,1.877905,16.377329,13.557823,14.038877
1008.925781,15.603894,15.660952,8.863753,8.623490
1008.929688,8.663723,7.776168,18.214710,12.485940
1008.933594,6.512054,10.043364,7.775935,11.267154
1008.937500,2.960544,7.743454,11.498930,12.734461
1008.941406,12.357772,3.877537,7.436608,7.825707
1008.945312,3.078075,1.623149,2.774035,-1.214304
1008.949219,3.131749,7.459728,0.829684,6.057402
1008.953125,-5.506882,-1.571637,2.139924,0.762046
1008.957031,2.562736,-4.326602,-10.879340,-0.707533
1008.960938,-5.398046,-8.691777,-6.830995,-6.000023
1008.964844,-8.635517,-10.300917,-0.283673,0.885172
1008.968750,-7.747607,-7.572326,-10.725853,-11.951450
1008.972656,-13.753668,-8.323484,-6.795127,-7.881126
1008.976562,-9.419128,-7.355661,-5.697592,-12.664374
1008.980469,-2.428152,-7.724767,-7.926969,-16.159696
1008.984375,-8.007614,-9.203892,-9.507725,-6.224700
1008.988281,-10.454051,-7.967450,-8.063720,-7.469421
1008.992188,-2.779381,1.468074,-3.852831,-0.718203
1008.996094,2.813513,-0.380925,1.677568,-2.586867
1009.000000,2.183559,-1.360399,-3.572942,2.239619
1009.003906,11.075858,2.983773,5.251431,8.396750
1009.007812,8.216401,3.507201,6.161324,7.451072
1009.011719,10.938055,10.671044,3.478845,3.196083
1009.015625,10.641152,7.314450,7.831063,9.460288
1009.019531,5.853783,15.116335,9.239833,19.114923
1009.023438,14.197703,3.515651,7.531282,9.358748
1009.027344,5.544183,11.185639,4.201380,5.992164
1009.031250,11.553786,6.872331,11.135585,7.048011
1009.035156,9.655120,2.413700,9.418262,7.283365
1009.039062,7.211933,7.488262,13.201157,-4.345021
1009.042969,3.269771,3.416629,7.336614,0.038880
1009.046875,4.607650,1.631715,3.606122,-0.916167
1009.050781,-8.935870,-5.910658,-4.368648,0.977534
1009.054688,-2.771228,1.880916,-5.982840,-4.351225
1009.058594,0.108280,-4.834948,-3.496973,-4.587133
1009.062500,-10.138166,-11.925053,-9.461892,-12.160488
1009.066406,-5.977367,-9.826104,-2.008846,-7.871523
1009.070312,-10.901185,-8.039529,-3.416249,-7.088423
1009.074219,-7.814785,-7.979650,-7.688880,-9.591374
1009.078125,-12.680204,-12.442436,-8.636136,-10.174159
1009.082031,-12.956516,-8.246242,-10.610861,-5.577663
1009.085938,-14.968181,-5.146101,-11.552452,-6.581230
1009.089844,-10.968552,-2.290247,-5.763832,-7.163528
1009.093750,-3.746027,-7.199727,-7.721000,-5.792940
1009.097656,-0.565181,-1.186119,-7.887274,-4.164693
1009.101562,-4.592452,7.062973,3.804848,4.401336
1009.105469,6.134089,7.733226,0.073510,-2.608619
1009.109375,0.796638,12.483524,9.418192,8.990986
1009.113281,10.366214,15.623083,10.986926,7.211691
1009.117188,7.144181,4.382206,1.383218,7.906901
1009.121094,13.657812,12.982888,8.305690,2.280692
1009.125000,6.613897,9.264816,11.238791,15.329880
1009.128906,7.734234,13.274209,9.758573,10.716808
1009.132812,6.879738,12.723454,8.459111,0.925429
1009.136719,12.516842,3.675672,12.506213,8.306637
1009.140625,4.898226,9.201757,5.203294,6.803931
1009.144531,2.483212,1.853759,7.986431,2.567653
1009.148438,5.452118,-4.970566,3.211173,4.473144
1009.152344,-1.976503,-1.664678,-9.476518,-3.648879
1009.156250,-0.135671,-6.146990,-13.095652,-4.348801
1009.160156,-9.745125,-5.669661,-0.733542,3.117144
1009.164062,-8.995886,-12.607253,-14.787794,-11.726407
1009.167969,-17.047639,-13.658316,1.352180,-11.748449
1009.171875,-3.395053,-16.120181,-14.805634,-7.027898
1009.175781,-12.200658,-5.344257,-7.687768,-7.946560
1009.179688,-7.359943,-14.820925,-15.137746,-6.492185
1009.183594,-0.735601,-6.769071,-1.858126,-13.062963
