timestamp,TP9,AF7,AF8,TP10
1000.000000,1.529331,-3.482592,3.950232,-0.547526
1000.003906,1.502763,5.696518,2.701632,1.132267
1000.007812,9.760746,7.240293,7.127026,12.129070
1000.011719,4.158095,7.990777,8.151519,5.711416
1000.015625,5.943942,11.122263,8.605129,6.522624
1000.019531,10.796735,8.028279,5.991557,7.782411
1000.023438,8.116683,7.663545,-1.135522,8.683346
1000.027344,12.123220,8.614609,14.130039,2.659618
1000.031250,15.245118,6.550771,9.129025,6.691686
1000.035156,9.106187,12.286848,7.826045,11.853868
1000.039062,-2.363412,7.958819,9.973423,6.892574
1000.042969,9.348766,6.101664,6.899983,-2.444999
1000.046875,7.485231,1.502539,7.021820,5.838305
1000.050781,3.682607,-6.166685,-6.784043,2.695289
1000.054688,-6.715034,-3.924526,-10.828104,0.548270
1000.058594,1.125726,-4.531065,-5.633167,-6.306272
1000.062500,-4.011735,-11.234136,-10.260736,-15.242656
1000.066406,-5.358900,-7.466366,-7.216770,-0.594654
1000.070312,-6.932535,-11.425665,-11.131493,-3.985712
1000.074219,-13.032458,-7.000171,-3.854738,-10.699104
1000.078125,-10.509859,-15.897499,-16.027452,-9.064050
1000.082031,-9.982286,-6.661719,-2.593410,-12.096934
1000.085938,-10.964647,2.684409,-6.502913,-5.353796
1000.089844,-11.563508,4.384841,1.358442,1.420022
1000.093750,-8.968556,-2.785700,-1.914342,6.682780
1000.097656,-1.775550,-3.807753,-8.800444,-0.575869
1000.101562,2.068732,0.721763,0.828431,-3.420649
1000.105469,1.488676,9.045716,-1.857725,5.356887
1000.109375,2.840836,9.848109,12.236123,5.070546
1000.113281,1.848488,3.930213,9.148843,3.590854
1000.117188,10.444896,9.163112,2.033127,11.520852
1000.121094,8.216182,10.794457,13.297112,9.312131
1000.125000,9.816560,12.182790,17.545541,7.476707
1000.128906,16.582009,2.659677,1.373558,17.077075
1000.132812,13.461312,0.967985,2.747103,15.663049
1000.136719,12.379509,2.013121,7.743140,5.239689
1000.140625,8.359524,2.424151,2.727183,4.660033
1000.144531,0.540839,1.668465,-1.351728,-0.650847
1000.148438,-0.995417,-0.883343,3.931338,4.437285
1000.152344,-5.476051,1.410563,2.609995,-0.580018
1000.156250,-3.146872,-8.416520,-8.974646,-0.254241
1000.160156,-4.644593,0.376891,-5.733207,-8.127877
1000.164062,-18.953045,-10.283120,-8.592602,-18.762218
1000.167969,-14.598840,-17.073495,-12.894423,-4.020966
1000.171875,-7.147941,-8.510424,-14.743376,-16.750252
1000.175781,-3.790496,-13.947320,-10.061111,-11.819493
1000.179688,-16.998766,-8.906693,-7.771547,-11.915018
1000.183594,-8.235016,-5.067208,-3.949211,-11.151962
1000.187500,-7.364342,-7.882930,-8.183223,-8.953917
1000.191406,-7.472360,-3.952480,-1.404378,-3.389924
1000.195312,-9.750936,1.244204,-5.849931,-0.756045
1000.199219,4.677977,-12.817527,-0.748376,-2.130049
1000.203125,-4.241553,5.845636,8.964535,5.606626
1000.207031,2.055356,12.212283,3.438337,8.801972
1000.210938,10.511023,9.583713,9.631150,10.796058
1000.214844,4.755923,14.111234,5.944394,5.657348
1000.218750,5.401327,14.694562,11.682666,3.750589
1000.222656,14.580513,8.344909,13.573354,4.374500
1000.226562,7.519495,3.392569,6.593832,3.970873
1000.230469,13.582419,7.887258,1.266236,11.115465
1000.234375,6.945565,0.546428,5.552622,4.143071
1000.238281,12.595204,9.192657,4.373423,7.120347
1000.242188,6.213947,3.984904,4.462636,4.539443
1000.246094,2.757369,7.346177,3.037684,2.561143
1000.250000,-5.416265,-0.714414,-6.576773,0.427102
1000.253906,-7.121805,1.546932,-5.351496,-1.363519
1000.257812,-6.366608,-2.541896,-6.715165,-7.053476
1000.261719,-5.571093,-6.643900,-7.165787,-7.974596
1000.265625,-2.237333,-4.403350,-11.513143,-6.415898
1000.269531,-3.552001,-7.908662,-8.551467,-14.861140
1000.273438,-9.082062,-8.058332,-7.723533,-7.537410
1000.277344,-7.483011,-9.885927,-7.448031,-16.406616
1000.281250,-9.825637,-14.671222,-3.423688,-10.004675
1000.285156,-8.517329,-5.205329,-16.189767,-6.282262
1000.289062,-11.894872,1.195566,-9.169023,-6.004211
1000.292969,-6.815426,-7.843615,-1.994541,-9.983910
1000.296875,2.249526,0.833404,2.005291,-0.423003
1000.300781,1.424421,3.883612,6.892449,6.240234
1000.304688,5.918376,1.741620,-3.917801,0.598064
1000.308594,-0.801524,12.273050,11.033606,9.225890
1000.312500,10.789413,2.704605,13.216649,9.922462
1000.316406,10.037613,9.691705,8.465474,11.695393
1000.320312,5.124373,13.749979,4.948318,9.837246
1000.324219,12.253187,4.644926,8.200023,15.227004
1000.328125,8.967412,8.876308,1.426331,13.955950
1000.332031,18.580024,14.856854,15.010084,6.408350
1000.335938,1.415514,10.397356,3.879534,7.271398
1000.339844,3.734243,10.458232,15.061900,5.999790
1000.343750,-0.244200,4.569637,4.691086,-0.282387
1000.347656,1.018955,-0.607656,8.284375,6.695632
1000.351562,-2.906460,-3.192501,-7.752592,3.129732
1000.355469,-9.627613,-2.838956,-8.002550,-3.265917
1000.359375,-4.426539,-10.692717,-3.404381,0.219900
1000.363281,-8.178670,-0.139107,-3.295814,-15.834236
1000.367188,-12.871320,-5.853759,-0.976325,-11.593691
1000.371094,-5.829246,-7.900193,-14.201106,-14.945569
1000.375000,-3.344548,-10.779177,-14.678624,-12.623585
1000.378906,-12.357705,-14.054351,-12.405604,-8.933924
1000.382812,-10.287119,-7.865491,-11.580216,-15.635144
1000.386719,-10.511180,-5.730134,-8.300720,-17.670022
1000.390625,-9.853072,-5.641876,-3.207973,-5.800936
1000.394531,-2.762441,-6.172366,-7.430987,-10.449269
1000.398438,1.463156,-5.259412,3.058175,-2.404917
1000.402344,0.438296,-4.829820,3.034294,-0.609835
1000.406250,8.264130,6.480975,7.314352,8.020347
1000.410156,3.222445,6.562088,7.813384,6.126831
1000.414062,3.991678,11.786840,7.585095,14.841657
1000.417969,4.651963,0.185912,10.814156,13.071079
1000.421875,8.626775,17.085110,4.284318,10.901653
1000.425781,12.135011,9.866781,13.321345,6.216220
1000.429688,7.726107,17.182503,11.433672,2.129993
1000.433594,12.238170,12.637197,3.935632,8.364395
1000.437500,7.853152,14.190211,7.705995,11.457344
1000.441406,5.554820,5.321723,5.853765,3.920448
1000.445312,0.094554,0.782012,4.962947,8.460486
1000.449219,-0.535100,0.855064,-3.794087,6.343410
1000.453125,-7.777105,2.057391,0.727078,-3.663840
1000.457031,-5.511285,-10.874862,-9.356161,-4.584149
1000.460938,-8.516939,-4.543402,-0.727633,-1.925333
1000.464844,-12.653247,-8.008147,-5.384261,-11.494318
1000.468750,-4.846965,-10.904643,-9.998235,-9.600730
1000.472656,-10.596149,-10.638707,-12.154854,-15.492081
1000.476562,-14.362153,-9.382884,-11.989278,-16.441088
1000.480469,-12.378130,-8.476470,-14.390453,-7.978049
1000.484375,-5.738312,-10.054573,-8.655789,-4.278084
1000.488281,-6.050238,-3.527029,-8.565126,-8.345614
1000.492188,-7.638650,-6.048262,-4.512339,-1.903911
1000.496094,-0.955791,0.182888,-6.090282,-1.654293
1000.500000,3.438061,10.386729,7.621782,2.533548
1000.503906,2.231486,3.977290,13.013377,1.762336
1000.507812,2.002383,2.728649,5.991317,-0.832041
1000.511719,4.700731,5.476934,7.553951,5.194869
1000.515625,6.169736,9.846651,9.517799,9.015012
1000.519531,11.884522,4.887679,14.158743,1.184811
1000.523438,10.238428,12.519649,17.112604,13.421700
1000.527344,12.593172,10.835892,9.228909,13.810317
1000.531250,10.541027,16.801408,1.363298,13.878916
1000.535156,15.898873,4.249021,3.997326,7.153470
1000.539062,-0.821403,2.454124,3.468787,4.405753
1000.542969,6.502006,9.041194,4.013738,5.164562
1000.546875,4.001570,-3.126327,0.271209,1.632278
1000.550781,-2.775755,-2.483004,-4.458051,-5.445200
1000.554688,-11.942841,-0.333250,-1.021159,-6.061388
1000.558594,-14.928432,-10.183641,-4.932493,0.706200
1000.562500,-14.840553,-7.004936,-3.332798,-6.733190
1000.566406,-3.861113,-6.350009,-4.414040,-10.453560
1000.570312,-7.505743,-16.668145,-14.142964,-13.789863
1000.574219,-9.621052,-3.167357,-8.246227,-5.613629
1000.578125,-11.262167,-12.404019,-14.146380,-2.923825
1000.582031,-11.714203,-11.182497,-18.241962,-8.742176
1000.585938,-7.404936,-8.211035,-0.887015,-6.490867
1000.589844,-14.432135,-7.394391,-1.550896,-4.855524
1000.593750,0.234046,-0.670471,-4.522522,-2.558419
1000.597656,-2.014587,1.909305,-1.345512,0.330258
1000.601562,0.351565,0.770922,0.309741,6.069409
1000.605469,3.886102,2.884340,9.889414,2.702102
1000.609375,2.365823,5.115175,6.616082,14.991571
1000.613281,6.459738,9.700907,9.656414,3.487888
1000.617188,8.310207,6.992158,9.484508,10.049553
1000.621094,8.227964,10.860849,6.779452,14.110884
1000.625000,13.788330,15.375777,8.098695,10.216047
1000.628906,16.925166,14.480227,14.147320,3.804156
1000.632812,7.403753,9.460662,8.893377,12.475967
1000.636719,7.586252,8.251215,10.186435,0.170941
1000.640625,6.637427,7.220592,0.700318,6.161403
1000.644531,2.336397,1.657454,3.621035,1.767181
1000.648438,3.724041,1.542515,-1.990647,-2.524586
1000.652344,-2.294920,3.372380,-3.821561,1.735463
1000.656250,-0.165480,-3.536085,-0.893127,-6.611136
1000.660156,-8.365705,-12.106277,-8.321324,-6.302936
1000.664062,-11.853707,-6.148676,-2.253488,-7.681323
1000.667969,-8.350545,-7.566483,-7.637846,-6.705597
1000.671875,-9.043945,-9.531477,-12.127144,-2.775221
1000.675781,-12.809566,-12.027074,-16.216980,-8.048943
1000.679688,-8.895882,-12.038199,-6.773174,-13.640143
1000.683594,-5.560444,-3.071430,-10.897652,-7.834235
1000.687500,-10.720227,-4.849119,-12.470998,-7.389310
1000.691406,-2.907317,-5.488784,-4.319781,-6.774895
1000.695312,-4.118596,1.026128,2.258315,-4.226648
1000.699219,-3.260335,4.365247,0.393075,4.968876
1000.703125,-4.134250,-1.294481,1.893063,7.096414
1000.707031,8.288087,6.859462,13.779103,4.791115
1000.710938,4.701920,5.880764,10.541788,11.283507
1000.714844,10.820502,1.513747,7.252307,9.916517
1000.718750,7.016247,3.498749,13.472876,8.650210
1000.722656,4.467188,10.714840,7.390389,11.251972
1000.726562,8.495086,10.292281,13.391330,2.951404
1000.730469,9.408218,13.724927,5.337515,15.039793
1000.734375,11.760437,3.313288,1.450027,11.209512
1000.738281,4.874717,9.184681,9.608373,4.258433
1000.742188,9.412895,-1.442606,10.176429,1.683484
1000.746094,9.319481,-2.140850,7.161821,3.053289
1000.750000,1.157579,-6.405011,-1.301423,-2.313320
1000.753906,-8.242399,-2.660287,-4.461036,-4.185761
1000.757812,-1.939803,-11.208930,-5.939642,-5.920810
1000.761719,-5.491463,-5.734101,-12.189557,-9.097895
1000.765625,-19.100493,-7.718646,-7.170680,-4.297817
1000.769531,-7.558282,-15.936696,-5.933134,-12.212378
1000.773438,-15.421725,-11.555076,-11.347360,-11.107147
1000.777344,-10.558581,-10.853238,-8.100217,-8.766843
1000.781250,-11.567864,-12.158985,-19.658112,-2.142487
1000.785156,-6.774940,-11.516532,-2.661159,-2.122925
1000.789062,-6.291570,-8.050243,-7.179218,1.736713
1000.792969,-4.401686,-2.199434,-0.092565,-6.318914
1000.796875,5.475206,-1.416592,-7.230731,-0.397466
1000.800781,-3.524817,2.801516,2.195078,-2.507464
1000.804688,1.116466,3.842429,2.452676,0.026324
1000.808594,6.052233,6.215399,11.797236,3.634026
1000.812500,8.925903,7.899059,6.210797,7.088441
1000.816406,4.162594,-0.219850,12.456627,14.942320
1000.820312,11.508805,11.350400,10.070739,13.221696
1000.824219,11.641289,10.227672,12.557488,9.214818
1000.828125,11.915573,6.189828,17.591396,10.146733
1000.832031,8.961487,9.026143,8.946093,11.368372
1000.835938,6.050175,8.005577,10.130970,8.426690
1000.839844,3.133820,0.635903,7.839807,2.040839
1000.843750,1.604886,0.831396,8.336828,4.284403
1000.847656,2.806563,0.879553,-2.836428,3.569434
1000.851562,-5.492099,0.591234,2.423478,-1.659889
1000.855469,0.618882,-11.196038,-4.615685,-1.359211
1000.859375,-5.041171,-6.876781,-5.179491,-5.579396
1000.863281,-9.196808,-4.724072,-16.852533,-4.404508
1000.867188,-9.008027,-11.067001,-8.038756,-11.334280
1000.871094,-15.603694,-13.078133,-4.672858,-15.270429
1000.875000,-5.061066,-5.787647,-13.685294,-7.876836
1000.878906,-8.456829,-4.791118,-5.962724,-10.098795
1000.882812,-9.454084,-8.771270,-7.000146,-9.010962
1000.886719,-1.231838,-2.342626,-5.469272,-5.687353
1000.890625,-9.544731,-6.246103,-6.213266,-8.901941
1000.894531,-1.835158,4.853543,-1.898510,1.765089
1000.898438,-9.468974,3.299907,-1.723985,1.847532
1000.902344,0.984859,-5.263760,4.313476,9.272140
1000.906250,-3.115451,6.758321,0.728530,7.544464
1000.910156,8.271111,7.389654,9.691423,5.620169
1000.914062,7.699086,3.646090,13.104287,6.379217
1000.917969,5.273254,12.521277,11.016820,10.605055
1000.921875,10.200202,9.241523,5.835573,13.419415
1000.925781,3.475778,8.778443,3.120228,9.129101
1000.929688,12.922704,10.615156,10.083895,11.993863
1000.933594,2.743488,5.377544,9.598787,12.176291
1000.937500,12.517150,10.486517,8.026255,6.622892
1000.941406,3.904707,-1.993537,0.518142,5.289722
1000.945312,4.145719,3.533531,4.711618,7.328184
1000.949219,-0.367024,0.913793,-4.673182,1.577022
1000.953125,2.831327,4.941120,1.215978,1.505253
1000.957031,-3.697689,1.206392,-7.098882,-10.859253
1000.960938,-11.320295,-9.366317,-11.353243,-11.184063
1000.964844,-4.229147,-11.417685,-16.042552,-14.650872
1000.968750,-17.376998,-6.501489,-3.053206,-2.553890
1000.972656,-3.143601,-9.127363,-21.652263,-5.156365
1000.976562,-10.093347,-6.016925,-14.151427,-19.077554
1000.980469,-5.133074,-8.079135,-11.706088,-9.320199
1000.984375,-7.179453,-12.566909,-10.960893,-13.857522
1000.988281,-7.294401,-10.672270,-3.142744,-4.894096
1000.992188,-1.274238,-4.264996,0.720000,-11.423456
1000.996094,-9.121690,-5.099444,-3.647583,-5.856102
1001.000000,3.203837,1.634892,-3.062662,1.012707
1001.003906,5.552900,-3.422729,5.402541,3.118326
1001.007812,6.275401,5.121365,4.417198,4.366177
1001.011719,5.672201,9.458389,11.192128,2.963207
1001.015625,7.926994,4.998716,3.824879,15.118341
1001.019531,16.078424,15.862969,14.229234,4.016465
1001.023438,5.277138,12.961879,16.103907,7.286683
1001.027344,17.700034,13.257788,7.599143,9.496784
1001.031250,7.849709,9.089800,11.873059,7.229411
1001.035156,-0.748081,8.262447,11.271891,7.624170
1001.039062,7.663943,5.691633,-0.169875,9.760219
1001.042969,1.010947,5.160862,1.236659,6.093984
1001.046875,4.010367,6.060427,-0.909712,6.126343
1001.050781,-7.683291,7.544338,-1.822663,-0.329608
1001.054688,-3.132914,1.154368,-4.029333,-1.955471
1001.058594,-6.569218,-10.303675,-3.528068,-8.880283
1001.062500,-8.936233,-9.587569,-5.724697,-3.548978
1001.066406,-9.832711,-9.017735,-8.337164,-11.898122
1001.070312,-9.549505,-7.882236,-15.742656,-12.174524
1001.074219,-15.324469,-14.480781,-9.914498,-12.708391
1001.078125,-16.298092,-5.001659,-8.131514,-6.662254
1001.082031,-9.927165,-10.757093,-10.460982,-10.616394
1001.085938,-6.599914,-8.594441,-13.585788,-2.828784
1001.089844,-3.220392,-6.235058,-10.978467,-3.087383
1001.093750,-0.423019,-0.750471,-0.832142,-8.868766
1001.097656,-1.425434,3.243345,7.684935,-1.352537
1001.101562,1.480702,-6.458014,4.212723,-2.017932
1001.105469,1.707993,2.748237,1.265111,5.065578
1001.109375,12.111900,4.413937,6.039366,6.586089
1001.113281,2.354632,7.167205,9.529576,3.485456
1001.117188,9.564802,7.734096,10.814856,8.830229
1001.121094,6.867073,5.094159,6.213035,11.411151
1001.125000,13.578602,6.900782,7.887076,7.807122
1001.128906,3.054879,8.290202,13.600745,9.238860
1001.132812,7.891155,11.177892,8.049330,6.736434
1001.136719,11.285817,6.532513,2.111906,2.629242
1001.140625,5.440051,1.416058,11.208298,4.294177
1001.144531,11.407697,-5.934121,11.138064,0.436428
1001.148438,2.795239,3.187023,0.300967,-4.543631
1001.152344,2.999649,3.008046,-0.105362,-10.205055
1001.156250,-9.152719,-10.871635,-0.210875,-6.629991
1001.160156,-8.961124,-2.225279,-2.767541,-12.842580
1001.164062,-12.894813,-6.943843,-2.456300,-9.371044
1001.167969,-0.055536,-9.939490,-3.878839,-13.779394
1001.171875,-13.144067,-12.362562,-10.559624,-9.610850
1001.175781,-9.347708,-8.490274,-7.126954,-9.623331
1001.179688,-12.707233,-14.588997,-13.484584,-10.201997
1001.183594,-4.811218,-9.399661,-6.180947,-7.989102
1001.187500,-9.937915,-10.128083,-4.030308,-0.029412
1001.191406,-7.039819,-6.978354,-9.440661,1.945554
1001.195312,-1.123336,-5.446283,-2.279572,-4.696853
1001.199219,2.391723,-3.208326,5.295903,3.796155
1001.203125,-4.647401,4.106468,5.684871,-0.922524
1001.207031,7.183823,6.679184,0.124847,10.784467
1001.210938,4.996662,14.368191,5.648954,11.419739
1001.214844,10.919506,2.739703,-2.164623,5.455366
1001.218750,8.732832,10.395512,5.793617,14.719530
1001.222656,6.882237,13.229947,15.359185,13.089491
1001.226562,2.216311,11.212620,11.512503,13.148873
1001.230469,9.271151,17.143706,7.064166,12.890232
1001.234375,16.099172,10.955507,11.601975,15.345494
1001.238281,9.361785,6.214057,5.245494,5.565769
1001.242188,5.348879,8.943112,9.203767,1.100925
1001.246094,3.552492,5.025013,-1.914707,7.534860
1001.250000,-1.192776,-1.510080,-0.458199,0.209330
1001.253906,-7.176779,4.534878,-7.004222,2.182390
1001.257812,-5.091475,-4.151421,-8.741995,-1.330048
1001.261719,-13.062026,-8.440665,-8.472402,-4.927096
1001.265625,-7.192208,-11.281004,-13.915338,-9.757969
1001.269531,-1.608526,-7.426752,-14.247857,-7.886863
1001.273438,-11.091792,-11.569888,-12.131319,-9.110215
1001.277344,-9.506197,-3.486196,-6.056028,-8.434467
1001.281250,-7.199179,-12.848995,-13.049881,-13.396164
1001.285156,-14.120343,-10.215399,-13.410917,-5.668742
1001.289062,-8.581576,-8.109915,-5.244203,-10.062460
1001.292969,2.003427,-3.857744,-7.603778,-5.553382
1001.296875,-0.310268,-1.508618,-8.277794,-6.755462
1001.300781,-2.244135,-0.104808,-3.122816,-5.927714
1001.304688,0.557663,4.669778,0.413057,10.050745
1001.308594,4.240865,6.349874,5.745442,7.579310
1001.312500,7.255065,4.472136,4.861195,-2.442522
1001.316406,10.506450,4.450860,4.277519,14.917738
1001.320312,4.378228,6.910140,7.826192,15.006773
1001.324219,11.753978,11.380406,6.446826,8.867436
1001.328125,14.520183,11.141240,9.665471,13.279838
1001.332031,7.159032,8.175507,11.662735,14.315434
1001.335938,2.208838,10.486796,10.135675,15.874379
1001.339844,-1.772994,5.558398,-0.406688,4.865357
1001.343750,5.822358,-0.766376,-2.912387,8.827564
1001.347656,-0.518948,-0.203024,6.976342,-0.858145
1001.351562,-3.014276,2.538505,3.955453,-2.332342
1001.355469,-4.033436,-3.914330,-0.655054,-2.314218
1001.359375,-2.973057,-8.805990,-9.749455,-8.152244
1001.363281,-11.386749,-10.598104,-3.483388,-13.231491
1001.367188,-12.454940,-8.434102,-9.153519,-4.408567
1001.371094,-11.144519,-9.550731,-14.893690,-14.313012
1001.375000,-11.331485,-5.506293,-10.277553,-6.932510
1001.378906,-11.023504,-16.709536,-6.481763,-10.469909
1001.382812,-10.100713,-13.037894,-7.381828,-11.195862
1001.386719,-4.509747,-6.602205,-4.258360,-8.170856
1001.390625,-10.305840,-8.673857,-0.148984,-1.522476
1001.394531,4.688619,-6.520794,-4.382487,-0.348546
1001.398438,1.548333,-2.592155,-0.175960,-4.006445
1001.402344,2.308105,-2.380130,1.421263,-2.538398
1001.406250,2.601298,1.971154,2.208494,5.424463
1001.410156,7.248336,-2.320342,3.592947,7.308742
1001.414062,9.532509,11.883643,14.967248,9.213540
1001.417969,7.976674,8.815246,15.492090,4.907542
1001.421875,14.367955,11.654928,6.836923,8.869692
1001.425781,6.675704,11.362532,10.484275,0.342655
1001.429688,15.913141,8.764980,7.443311,10.003636
1001.433594,7.237876,13.345406,8.626878,3.280042
1001.437500,0.865741,14.937619,11.167611,10.712191
1001.441406,7.871982,1.683352,7.206750,1.309377
1001.445312,1.091851,8.789188,4.016097,2.277013
1001.449219,1.899772,0.992304,-0.430990,4.949377
1001.453125,0.258695,-0.517213,-7.730865,-0.098994
1001.457031,-3.384901,-1.577859,-6.408198,-14.313924
1001.460938,2.912385,-1.561285,-9.703812,-4.745292
1001.464844,3.290711,-10.839681,-2.646264,-10.764722
1001.468750,-6.451677,-15.667350,-3.912108,-13.495928
1001.472656,-9.545588,-13.491636,-9.313490,-13.376283
1001.476562,-14.688394,-9.683161,-1.419717,-11.061386
1001.480469,-8.638713,-13.095637,-4.078157,-5.653602
1001.484375,-10.485655,-14.748096,-2.004177,-7.232644
1001.488281,-6.407529,-9.618583,-3.803524,-10.020366
1001.492188,-4.090667,-2.862169,-5.918957,-4.107798
1001.496094,2.973155,4.509489,-0.537177,-4.038370
1001.500000,0.730177,-6.548377,7.124179,-4.215249
1001.503906,1.606241,-3.719349,3.689350,4.621362
1001.507812,9.322580,8.974353,6.516626,8.933029
1001.511719,14.216458,7.659635,2.507693,6.829064
1001.515625,15.561624,9.780988,9.158186,8.985090
1001.519531,11.620975,15.709821,9.248949,11.525445
1001.523438,15.385009,7.394143,11.267560,9.570995
1001.527344,3.881293,7.914828,6.857538,10.149117
1001.531250,7.640235,11.250700,15.296249,9.387825
1001.535156,9.108998,2.967794,4.872801,9.160682
1001.539062,8.932948,4.804378,5.706690,1.559457
1001.542969,7.609923,9.836526,5.275416,1.294728
1001.546875,-2.074385,3.481091,4.050083,-0.767568
1001.550781,1.375488,2.113060,5.153235,1.142576
1001.554688,-2.771239,-1.187924,-7.184476,-3.274348
1001.558594,-3.396969,-4.762646,-6.195251,-1.201665
1001.562500,-15.419960,1.714918,-12.424983,-12.778915
1001.566406,-4.150958,-6.917754,-13.149717,-12.822279
1001.570312,-9.058574,-13.689694,-3.281930,-8.978414
1001.574219,-8.132267,-8.789516,-8.837293,-3.686710
1001.578125,-16.887376,-12.875263,-10.965079,-5.375727
1001.582031,-14.765568,-1.969742,-10.775740,-5.902155
1001.585938,-18.376586,-11.473568,-4.578145,-4.117339
1001.589844,-10.676040,-11.314783,-0.038320,1.305457
1001.593750,1.499687,2.683144,-6.349665,-1.187051
1001.597656,-3.220722,-10.839084,-2.260453,2.797657
1001.601562,2.506930,-3.983460,1.622228,3.947989
1001.605469,2.029347,2.208255,8.851722,2.012575
1001.609375,4.159338,7.992718,5.958008,5.949927
1001.613281,3.384566,8.342681,15.217863,7.640149
1001.617188,-0.488582,6.923420,10.556813,11.646611
1001.621094,7.750530,5.015487,8.743757,15.133039
1001.625000,10.309661,4.048242,7.227110,11.249222
1001.628906,12.076178,9.600286,7.737164,3.823787
1001.632812,6.581891,7.280191,2.884548,6.375594
1001.636719,6.900198,4.101715,6.435922,11.749353
1001.640625,10.244255,1.004242,5.105889,7.703727
1001.644531,2.670461,0.903100,1.136653,10.471049
1001.648438,-1.054611,4.028625,1.606894,3.611976
1001.652344,-0.254429,-2.746487,1.694429,-4.175961
1001.656250,-0.078533,-6.825920,-3.699702,0.380369
1001.660156,-5.592063,-5.728041,-2.236394,-5.015441
1001.664062,-0.229594,-9.089619,-11.059063,-5.235046
1001.667969,-4.648221,-4.653446,-15.176179,-13.103796
1001.671875,-0.376340,-16.345855,-14.697364,-17.445041
1001.675781,-7.963989,-8.829204,-8.384546,-7.900434
1001.679688,-11.368740,-5.175120,-11.973087,-9.191847
1001.683594,0.793200,-6.266499,-2.213598,-8.657043
1001.687500,-13.466567,-4.162066,-3.116364,-2.697247
1001.691406,-1.979877,-11.993671,2.299008,-5.032075
1001.695312,-2.567144,-0.115547,5.106934,-1.383213
1001.699219,-0.470129,-3.868544,-6.281735,1.331346
1001.703125,7.051080,-4.867874,2.317784,0.171142
1001.707031,7.060260,0.539437,8.743426,6.882354
1001.710938,6.010999,7.808899,4.464423,7.051312
1001.714844,-1.243245,9.489255,4.289008,12.870252
1001.718750,11.898801,12.344271,1.641675,8.095945
1001.722656,11.203210,16.569601,13.174180,10.685406
1001.726562,16.875251,1.625554,10.205693,4.803380
1001.730469,7.998767,11.203893,11.412246,9.118204
1001.734375,11.781101,6.940160,9.828167,14.395729
1001.738281,7.644828,10.362453,11.225141,8.757569
1001.742188,1.215202,8.983564,8.176855,6.983548
1001.746094,4.342789,4.872686,2.181994,-4.057470
1001.750000,0.001272,-1.771432,-0.606398,-5.794944
1001.753906,1.494373,3.235560,1.244971,-1.586881
1001.757812,-5.177044,-4.855501,-2.833627,-2.229181
1001.761719,-5.558269,-19.840214,-14.713252,-13.530006
1001.765625,1.092111,-11.171730,-8.388059,-12.447237
1001.769531,-14.625152,-3.745737,-6.980912,-4.009679
1001.773438,-12.434321,-12.620849,-9.961091,-9.006435
1001.777344,-12.141055,-10.176968,-6.370814,-9.106253
1001.781250,-12.298899,-1.074754,-5.618776,-5.672792
1001.785156,-14.524656,-7.934865,-15.092708,-7.671564
1001.789062,-7.040773,-5.708202,-9.470204,-4.866882
1001.792969,-5.159699,1.277660,1.884682,-3.187255
1001.796875,-7.983403,-8.329360,0.467883,-4.220509
1001.800781,4.958910,-4.292550,6.255878,0.858523
1001.804688,6.982072,5.165320,-0.689685,4.521216
1001.808594,1.536766,4.225269,4.070991,4.545746
1001.812500,3.911129,4.511194,-0.033899,6.086120
1001.816406,9.390437,9.181504,12.790665,6.947209
1001.820312,7.980481,17.656071,15.532765,11.770326
1001.824219,12.760817,15.264922,9.211930,7.894899
1001.828125,10.874806,12.806004,2.182388,8.322570
1001.832031,9.813965,12.566748,3.898585,14.435944
1001.835938,8.728150,14.262990,0.285344,7.851242
1001.839844,11.409746,0.369192,4.725943,4.877942
1001.843750,1.960192,-1.663820,3.699311,0.446170
1001.847656,1.654551,-5.294414,0.431674,-7.111889
1001.851562,-1.303290,-4.922589,-2.078215,-1.576682
1001.855469,-1.354684,-7.081250,-4.018518,-2.673537
1001.859375,-7.297262,-8.960077,-7.843328,-10.738514
1001.863281,-9.702998,-10.832169,-12.309183,-10.241091
1001.867188,-0.990209,-8.224285,-5.922814,-8.844742
1001.871094,-11.256777,-12.163569,-11.169707,-12.874904
1001.875000,-17.092858,-8.080801,-4.779041,-10.057090
1001.878906,-23.050116,-12.601646,-2.079396,-9.674411
1001.882812,-8.892271,-11.213817,-3.729672,-7.407438
1001.886719,-9.471281,-5.980056,-9.655096,-2.971717
1001.890625,0.046584,-0.664201,-8.951186,-8.437568
1001.894531,-6.066741,-8.202274,7.826759,-8.421734
1001.898438,0.628925,-0.498555,1.790656,-0.596895
1001.902344,9.468302,-4.314487,0.812899,3.412372
1001.906250,8.089994,3.889768,5.928663,0.463538
1001.910156,8.695037,2.114478,9.245161,0.465934
1001.914062,5.752243,10.315501,12.439940,11.161151
1001.917969,9.339724,6.572975,13.816965,9.323548
1001.921875,14.440867,11.258508,11.258576,2.751697
1001.925781,6.634396,11.373185,15.865905,14.454832
1001.929688,2.264831,5.229304,9.396013,14.336295
1001.933594,8.983764,3.423758,2.411004,8.178502
1001.937500,7.266552,5.925350,6.017257,6.083882
1001.941406,2.152175,2.126338,7.760921,6.170360
1001.945312,4.899251,10.656776,3.679750,0.756004
1001.949219,-2.393834,-0.146106,-5.766444,3.022954
1001.953125,-1.321952,-8.058645,-2.379657,-8.735318
1001.957031,-4.742913,-4.972998,-5.238372,-2.129080
1001.960938,-0.564569,0.276581,-2.572000,-10.613375
1001.964844,-8.765047,-3.817904,-13.101815,-11.202158
1001.968750,-7.938897,-3.008406,-3.616890,-6.990403
1001.972656,-14.427930,-15.060832,-9.556772,-8.599495
1001.976562,-12.393264,-16.333036,-9.056674,-17.875311
1001.980469,-13.783927,-10.457340,-9.628195,-8.502246
1001.984375,-15.672920,-9.789683,-4.352566,-10.111988
1001.988281,-4.947325,1.214384,-7.313356,-9.336894
1001.992188,-10.906146,-2.822168,0.347992,-4.696762
1001.996094,2.811973,-3.503786,-0.978375,-2.120163
1002.000000,-3.128952,-1.492640,0.461070,2.248242
1002.003906,-0.709260,6.499009,2.465308,-1.448326
1002.007812,7.878521,7.729847,10.987870,1.109446
1002.011719,6.740666,14.946712,4.713063,-0.062857
1002.015625,11.402244,13.639286,4.313782,15.201026
1002.019531,-2.842795,2.834094,12.376223,0.099799
1002.023438,8.461492,2.260351,2.936706,3.751917
1002.027344,4.737895,5.632177,4.180529,9.346763
1002.031250,8.269794,12.743566,7.135108,18.397993
1002.035156,14.360248,5.047466,9.428529,6.676080
1002.039062,-1.205737,6.661709,2.119959,0.115573
1002.042969,-0.685232,4.838606,7.646049,3.293633
1002.046875,5.513545,1.551202,5.906235,-1.603203
1002.050781,-2.505282,-7.776028,-0.990673,3.097208
1002.054688,-6.677164,-0.306913,-13.299349,-0.956805
1002.058594,-1.252493,-0.976592,-4.516550,-5.797401
1002.062500,-2.781014,-2.749753,-4.908026,-6.327554
1002.066406,-13.261888,-8.160562,-14.031607,-10.968717
1002.070312,-11.851031,-7.942696,-13.130039,-11.148634
1002.074219,-6.963070,-16.108585,-10.843677,-15.433436
1002.078125,-13.770026,-20.561678,-7.570635,-5.339384
1002.082031,-15.527335,0.526138,-13.568519,-1.925620
1002.085938,-11.263146,-2.102649,-7.987704,-4.219494
1002.089844,-11.633403,-2.622330,1.877049,-0.629456
1002.093750,-12.517211,-1.956712,-4.804420,-7.903548
1002.097656,-2.201893,5.415286,6.755654,4.333351
1002.101562,3.799386,3.206242,4.623276,-1.594886
1002.105469,-4.995484,1.280617,1.626988,1.106592
1002.109375,6.684422,6.244530,5.222427,9.294587
1002.113281,5.432394,10.578947,-1.790068,8.823193
1002.117188,3.391254,2.541828,8.044344,4.571885
1002.121094,6.703009,5.202938,6.690817,13.577220
1002.125000,6.857136,3.453255,10.699789,8.948760
1002.128906,-0.077237,8.996200,12.420640,9.669547
1002.132812,9.275465,11.755369,12.095655,3.832803
1002.136719,6.076599,4.249413,-1.459104,7.323773
1002.140625,5.275017,2.308556,3.536243,15.988087
1002.144531,1.013732,3.941857,-1.415588,2.559976
1002.148438,10.701467,2.403432,2.305059,6.513940
1002.152344,-0.370180,-3.200388,1.155493,-2.026906
1002.156250,-2.456504,-3.604332,-0.999405,0.059644
1002.160156,-11.783350,-6.105082,-5.189727,-2.697583
1002.164062,-15.331357,-7.943485,-8.288572,-9.679785
1002.167969,-6.212781,-9.772095,-8.368813,-9.715142
1002.171875,-16.739730,-10.375349,-9.126952,-6.700854
1002.175781,-11.247137,-1.956144,-9.259863,-5.411675
1002.179688,-11.153618,-10.467424,-3.203726,-4.415632
1002.183594,-4.193487,-8.953537,-2.526650,-8.682340
1002.187500,-5.379146,-4.599171,-14.687444,-4.447917
1002.191406,-10.899698,-0.831904,-6.995828,-9.083438
1002.195312,-0.512521,-10.308573,-1.439108,0.002981
1002.199219,1.459192,-2.111745,0.184838,-1.881196
1002.203125,-2.581025,0.065621,-1.130649,2.035889
1002.207031,-2.315832,6.401217,10.238175,7.135748
1002.210938,3.155726,9.633262,2.320642,7.892817
1002.214844,4.445419,10.061251,6.691075,11.757575
1002.218750,17.894033,3.476504,4.950704,2.753695
1002.222656,10.758970,8.775710,10.342121,10.655832
1002.226562,15.213738,17.898040,11.914340,6.174020
1002.230469,5.367456,0.497174,14.257428,8.940962
1002.234375,9.040691,11.779147,4.318512,6.276973
1002.238281,8.901605,0.845629,10.821901,9.417883
1002.242188,5.663872,8.908050,7.665483,0.758409
1002.246094,6.077373,0.487311,1.723174,3.116797
1002.250000,5.739700,2.041567,1.215166,0.746084
1002.253906,-2.058389,5.888681,2.136145,-1.238449
1002.257812,-3.926070,-8.063907,-6.117358,-6.962424
1002.261719,-9.738138,-6.246732,-8.366464,-10.607912
1002.265625,-9.826570,-10.144824,-9.200708,-10.841991
1002.269531,-10.758006,-14.653517,-8.966192,-8.339089
1002.273438,-8.037495,-1.201677,-15.658290,-10.466932
1002.277344,-9.204899,-16.898777,-4.656221,-11.966607
1002.281250,-9.744688,-6.365199,-12.329623,-6.358043
1002.285156,-9.367540,-7.459097,-4.607394,-3.404793
1002.289062,-6.883050,-11.664963,-9.958657,-6.709676
1002.292969,-1.500958,-5.332130,-2.448971,-5.666781
1002.296875,8.736601,2.707468,-2.307407,-6.663235
1002.300781,1.986867,5.188721,0.117849,0.408291
1002.304688,-2.103532,2.293162,6.412439,5.024044
1002.308594,10.541780,4.128595,8.149953,-2.758255
1002.312500,0.301617,8.458222,3.710888,8.833750
1002.316406,10.545849,9.611047,5.812457,13.458226
1002.320312,7.042500,8.775177,11.682825,6.896058
1002.324219,9.485072,14.354708,8.625894,4.953791
1002.328125,8.499337,10.611397,15.398103,8.187892
1002.332031,6.790118,8.907069,9.875814,8.892235
1002.335938,13.372363,1.407502,5.476461,6.883898
1002.339844,3.775252,13.579888,9.258193,8.199984
1002.343750,5.431210,0.719597,1.822693,4.743610
1002.347656,-0.128830,-11.429280,2.803162,2.463667
1002.351562,-1.472423,2.185097,-3.026803,-10.855554
1002.355469,-0.841508,-7.829290,-0.695197,0.025516
1002.359375,-4.938097,-2.129780,-5.355415,-3.966431
1002.363281,-12.894612,-6.058748,-11.045651,-14.453977
1002.367188,-6.127821,-12.146564,-2.082166,-12.597821
1002.371094,-8.397502,-11.980831,-7.165448,-6.783923
1002.375000,-7.882314,-4.692489,-15.065436,-7.798690
1002.378906,-13.290343,-7.649656,-5.532928,-5.880077
1002.382812,-4.357696,-15.404480,-10.936118,-7.090670
1002.386719,-10.324542,-8.461624,-6.574125,1.151590
1002.390625,-2.164085,-6.802474,-4.231348,-2.055284
1002.394531,-1.285064,-8.809687,-5.600553,1.456039
1002.398438,-6.024516,-9.126460,0.202292,0.041575
1002.402344,-0.749257,5.850942,-5.345211,15.219004
1002.406250,2.748743,6.581483,0.977793,-5.583599
1002.410156,0.163636,1.788685,10.814427,-1.398722
1002.414062,2.260606,4.954482,11.800125,7.269466
1002.417969,6.261162,8.972655,10.780836,9.993544
1002.421875,8.673038,14.991512,13.629888,4.640727
1002.425781,9.362589,12.996519,7.671216,8.012432
1002.429688,16.266818,12.739426,12.712594,9.683085
1002.433594,16.479667,3.948344,9.619956,4.811432
1002.437500,5.290524,11.004907,19.408132,8.942210
1002.441406,4.986785,5.513187,0.023747,6.962961
1002.445312,0.701149,-5.423040,7.426386,6.758790
1002.449219,-0.798484,-0.863501,-0.148093,3.271252
1002.453125,-6.074519,-5.641536,3.123047,-0.231855
1002.457031,-6.693140,-11.725108,-3.670725,-5.635858
1002.460938,-7.966280,-8.810979,-6.209324,-10.454073
1002.464844,-8.569950,-14.265421,-10.586350,-8.504212
1002.468750,-4.005218,-3.870143,-5.093211,-6.878531
1002.472656,-9.157181,-18.538803,-11.123492,-6.693432
1002.476562,-15.295628,-7.536312,-10.781173,-7.587381
1002.480469,-8.915235,-5.529969,-13.947614,-12.182913
1002.484375,-7.449465,-6.297175,-9.230871,-11.887491
1002.488281,-8.789268,-3.252126,-4.700335,-3.522066
1002.492188,-5.132996,1.916628,-2.517677,-6.806545
1002.496094,0.715868,-4.819199,0.275167,-1.652718
1002.500000,2.978154,-10.418829,0.234430,-3.145632
1002.503906,2.630410,2.691044,-2.803534,6.215792
1002.507812,0.481140,1.999092,3.765935,2.341921
1002.511719,6.812474,7.199540,7.747716,-0.994059
1002.515625,4.966427,8.026299,13.503548,7.026148
1002.519531,0.520447,8.553245,9.783442,7.814430
1002.523438,10.139857,14.211576,9.070970,9.701421
1002.527344,8.451930,9.063888,7.870607,9.364291
1002.531250,12.245687,10.894250,7.145130,5.415900
1002.535156,9.829538,8.350028,5.940956,9.343500
1002.539062,0.061091,6.574144,-0.058566,10.826617
1002.542969,2.512318,0.803532,5.243330,0.958015
1002.546875,-1.387106,1.938291,5.994213,-3.328059
1002.550781,-0.908730,-5.612865,-2.300783,-2.896249
1002.554688,-3.895972,0.753743,-0.311729,8.693937
1002.558594,-7.993674,-3.175735,-6.182010,-12.814842
1002.562500,-12.158070,-7.224372,-12.261765,-8.693626
1002.566406,-4.187840,-9.756406,-2.115300,-12.394416
1002.570312,-8.020428,-11.164479,-6.342256,-11.116104
1002.574219,-17.115479,-7.067571,-8.697633,-7.507681
1002.578125,-9.660966,-15.684597,-11.240237,-8.539603
1002.582031,-4.837850,-9.138243,-12.511247,-11.818308
1002.585938,-5.478453,-9.730394,-12.414024,-8.838181
1002.589844,-9.772619,-0.396419,-7.803477,-3.590039
1002.593750,-6.893718,-6.201517,-8.320277,-3.346550
1002.597656,3.277089,5.610433,-1.447795,0.975708
1002.601562,8.993729,8.071348,-1.270941,-0.357915
1002.605469,3.775675,-0.326023,7.047774,3.254589
1002.609375,6.019578,-0.671170,-2.886224,3.468145
1002.613281,9.424526,0.663879,2.509314,8.766841
1002.617188,13.571795,8.679401,12.098550,6.212498
1002.621094,7.319373,7.033499,15.108500,9.682330
1002.625000,18.500821,14.699905,2.053858,6.356555
1002.628906,6.659392,14.070400,12.773607,14.670083
1002.632812,5.196288,8.192215,13.987322,8.386087
1002.636719,11.162120,9.166282,13.005261,6.935466
1002.640625,8.461485,3.577606,6.244785,6.360308
1002.644531,-1.361007,-1.072235,0.518078,-0.763383
1002.648438,8.059610,2.543488,5.279738,-2.372712
1002.652344,-1.500852,4.831780,-0.945079,-4.550752
1002.656250,-6.390783,-4.780058,-8.024794,-10.857914
1002.660156,-3.395549,-5.292796,-2.691805,-7.713344
1002.664062,-7.139460,-1.321339,-3.364030,-2.554811
1002.667969,-12.633284,-7.889329,-7.550753,-7.037485
1002.671875,-11.251216,-16.730012,-9.560047,-6.887691
1002.675781,-11.248533,-10.631082,-6.119254,-13.295864
1002.679688,-8.892446,-11.865342,-8.437253,-12.215705
1002.683594,-6.061321,-7.362768,-3.490015,-15.238178
1002.687500,-3.367369,-3.231728,-5.283887,-9.095960
1002.691406,0.031201,-0.532770,-1.788095,1.682982
1002.695312,-4.843360,0.477252,-0.671296,2.561167
1002.699219,-5.401701,1.684134,1.355854,4.970464
1002.703125,3.440993,-1.803901,3.256991,4.098121
1002.707031,4.975524,4.227619,3.593190,9.880003
1002.710938,14.064017,3.260965,6.170521,16.949258
1002.714844,3.962961,8.851705,5.828075,14.413272
1002.718750,14.706843,9.425710,3.152322,5.492785
1002.722656,12.847218,8.223563,12.097964,6.906376
1002.726562,5.237726,10.594607,6.911342,12.631336
1002.730469,10.453735,9.634889,11.037465,13.370352
1002.734375,10.384521,13.035330,7.224796,8.823848
1002.738281,7.156241,-2.765028,10.370270,3.813562
1002.742188,6.880606,-3.242551,3.678295,1.284564
1002.746094,7.287575,0.893544,2.373221,4.272816
1002.750000,-4.910545,5.108051,6.205005,0.628340
1002.753906,0.279992,-7.248276,-1.055753,2.089798
1002.757812,-7.531716,-2.777652,-2.823444,-4.848987
1002.761719,-0.731820,-4.819201,-8.044273,-15.262269
1002.765625,-5.360779,-12.160454,-10.564715,-12.109058
1002.769531,-8.981260,-5.919907,-8.398038,-3.883914
1002.773438,-11.611224,-18.054354,-9.748763,-14.407120
1002.777344,-4.974602,-16.086007,-17.567544,-5.769245
1002.781250,-10.351588,-11.068704,-18.020131,-13.470657
1002.785156,-10.895736,-10.661447,-14.426649,-9.821400
1002.789062,-11.012575,-4.424042,-6.826844,-10.670482
1002.792969,-5.047648,-3.079205,-7.989372,-2.608657
1002.796875,1.065081,-1.825223,-2.941753,3.484686
1002.800781,1.630063,-6.213406,2.693540,-3.470372
1002.804688,5.607568,10.331774,2.976235,1.847715
1002.808594,9.952224,8.648988,5.580799,5.934094
1002.812500,11.941694,4.437768,8.394631,9.775981
1002.816406,9.307229,8.553781,7.382956,12.846772
1002.820312,8.752199,6.916401,12.203713,12.425075
1002.824219,10.033753,10.352145,3.050178,14.103033
1002.828125,11.043527,13.554293,3.649304,6.483773
1002.832031,7.798659,13.493694,10.828807,5.379422
1002.835938,3.757451,6.600508,2.469712,10.762488
1002.839844,8.637668,3.174695,4.464074,1.734498
1002.843750,9.588733,-1.944466,13.166956,2.118990
1002.847656,4.953192,8.171671,4.981335,3.517744
1002.851562,-5.456344,-2.002266,2.274387,1.705068
1002.855469,0.264534,-3.759505,-7.594738,6.396617
1002.859375,-2.683881,-14.446282,-7.619717,-1.183257
1002.863281,-8.752062,-9.151224,-6.553964,-7.392640
1002.867188,-10.665933,-8.361813,0.142193,-6.925859
1002.871094,-14.557544,-4.027312,-16.419360,-9.929018
1002.875000,-8.631145,-13.808333,-12.422754,-13.651195
1002.878906,-9.872035,-8.766162,-5.330029,-9.250427
1002.882812,-3.859100,-1.020850,-3.676309,-2.388437
1002.886719,-3.899705,-7.454875,-10.218202,-8.396805
1002.890625,3.086014,-5.904602,-6.017164,-9.709576
1002.894531,-4.548267,-0.191676,-5.978261,-3.189506
1002.898438,-4.846304,-1.504289,2.037949,-4.272556
1002.902344,-0.301963,-0.424834,0.146657,2.043587
1002.906250,1.888655,8.004405,-1.142899,4.715793
1002.910156,11.942372,7.494370,4.444166,8.443572
1002.914062,8.324391,9.172469,10.539922,8.007652
1002.917969,11.004370,8.345126,7.720937,8.604777
1002.921875,14.007664,14.513546,10.706839,11.940301
1002.925781,10.927055,6.942189,5.904277,6.092522
1002.929688,14.174837,11.809130,5.599014,5.959956
1002.933594,13.958864,7.354353,5.330947,9.718469
1002.937500,8.147210,9.700584,8.098887,9.536563
1002.941406,5.811472,4.641299,9.411646,5.983539
1002.945312,-4.250205,3.883763,2.889955,3.210290
1002.949219,-4.070749,-1.898563,0.034752,2.989571
1002.953125,-6.285405,-4.609884,-4.787295,-1.320203
1002.957031,-7.800629,-13.402669,-5.691887,-8.398510
1002.960938,-7.337369,-5.831811,-7.713250,-0.570055
1002.964844,-2.537609,-13.810625,-0.975759,-11.212712
1002.968750,-9.556839,-8.024491,-8.652129,-11.672676
1002.972656,-2.129266,-6.904388,-5.317293,-13.651463
1002.976562,-7.276348,-14.575024,-7.966131,-7.599975
1002.980469,-10.449306,-3.815581,-8.224372,-19.191124
1002.984375,-12.594904,-10.302414,-7.841859,-11.713767
1002.988281,-6.064428,-1.735486,-9.066867,-0.752671
1002.992188,-0.530238,-1.594806,-5.123907,-4.811198
1002.996094,-9.533290,-6.550953,-3.936395,-0.346192
1003.000000,-3.420557,0.190170,-0.659736,3.516710
1003.003906,1.146160,5.265868,2.324214,4.263451
1003.007812,4.251150,5.039793,2.520809,8.940924
1003.011719,5.418588,7.021317,9.205608,0.983089
1003.015625,11.893321,14.464175,1.537909,12.054191
1003.019531,4.635028,10.743682,7.168253,14.352379
1003.023438,12.142953,10.544607,8.104283,5.437468
1003.027344,9.091163,5.657135,17.884114,10.297689
1003.031250,2.787861,5.930517,15.360616,10.185447
1003.035156,9.783596,2.452483,8.156956,2.864504
1003.039062,1.448366,6.004976,1.961142,7.887779
1003.042969,1.415455,10.848701,-4.268112,4.666944
1003.046875,-4.622433,-7.778818,9.012505,-2.867689
1003.050781,7.803447,2.777661,-2.738942,-2.413318
1003.054688,-4.428217,2.356481,-3.961186,-2.990945
1003.058594,-8.360275,-8.964536,-5.885517,-3.912732
1003.062500,-7.274762,-3.737991,-4.805440,-3.039709
1003.066406,-9.724570,-8.241916,-15.877104,-7.242642
1003.070312,-8.206823,-16.470184,-11.716886,-9.658914
1003.074219,-8.944386,-6.748949,-3.388475,-20.279395
1003.078125,-9.879173,-6.478945,-6.164524,-13.304926
1003.082031,-9.129347,-11.597756,-9.985342,-6.723593
1003.085938,-5.852894,-13.177576,-14.271169,-1.115562
1003.089844,-5.677691,-3.822269,0.910674,-1.760740
1003.093750,-3.512766,0.800127,0.121404,-9.805741
1003.097656,-1.629436,-2.986795,-6.769730,0.892628
1003.101562,0.583179,-1.480719,8.686813,-1.721669
1003.105469,2.014216,2.185892,3.011882,6.669699
1003.109375,3.171681,13.502397,1.789072,-0.092678
1003.113281,5.914168,0.205215,8.092399,3.047148
1003.117188,6.131457,7.564458,11.629194,7.822680
1003.121094,9.599975,11.405439,14.464817,7.190758
1003.125000,9.053194,9.450683,16.038587,18.394371
1003.128906,8.038999,8.373429,12.629982,12.901476
1003.132812,15.038471,8.171051,11.482499,9.593126
1003.136719,11.321691,7.625691,10.114046,6.447952
1003.140625,5.804120,4.197967,1.266317,5.615621
1003.144531,2.810907,3.534045,5.031872,5.885091
1003.148438,-0.002286,2.227337,-2.663215,-1.679898
1003.152344,-3.875782,1.059743,3.173440,-1.095621
1003.156250,0.126598,-8.314040,3.338148,-5.216359
1003.160156,-5.748349,-7.303890,-7.154665,-1.579973
1003.164062,-6.443259,-0.831602,-13.611124,-9.000054
1003.167969,-8.337750,-11.141994,-7.415122,-5.504180
1003.171875,-9.529235,-5.964789,-9.071883,-8.390816
1003.175781,-16.637434,-14.695626,-1.239836,-17.799539
1003.179688,-10.152507,-9.548648,-7.460446,-17.033428
1003.183594,-7.804836,-6.172391,-13.960948,-14.771281
1003.187500,-6.413129,-0.817108,-1.447465,-5.017500
1003.191406,4.139840,-2.704229,-3.249661,4.483078
1003.195312,-10.120258,-0.783297,-1.019961,-2.453786
1003.199219,0.668474,-1.939553,0.852309,-2.540285
1003.203125,-1.194022,-1.442944,-8.437176,-2.386851
1003.207031,3.535421,3.207613,0.875751,3.654958
1003.210938,13.919715,8.451635,10.733415,5.092895
1003.214844,10.285764,6.700973,8.237138,7.059575
1003.218750,10.575157,8.499655,7.764065,3.271791
1003.222656,9.386199,8.589401,8.398525,13.502672
1003.226562,6.704767,8.278733,10.842825,20.875831
1003.230469,8.673766,8.311587,9.706963,-1.582435
1003.234375,6.673810,9.164269,2.905230,11.993381
1003.238281,4.983166,6.560196,9.332731,18.249246
1003.242188,6.824676,10.715300,3.038753,8.604885
1003.246094,6.557221,2.007491,3.469483,6.501361
1003.250000,1.501074,-1.507571,-1.182749,1.603063
1003.253906,-4.571228,-6.063696,2.254869,2.611091
1003.257812,1.389646,-3.709761,-1.880584,0.467841
1003.261719,-6.862049,-4.638165,-10.904919,-8.008467
1003.265625,-8.539722,-7.663353,0.798074,-5.374413
1003.269531,-3.064925,-6.669058,-12.984498,-6.476853
1003.273438,-16.275633,-10.167543,-12.600526,-9.172699
1003.277344,-17.255291,-11.150030,-9.829948,-12.933413
1003.281250,-6.131947,-8.412159,-5.759464,-12.243881
1003.285156,-9.606205,-7.287016,-9.737684,-12.647924
1003.289062,-7.452630,-0.389276,-4.742847,-4.039967
1003.292969,1.806550,-5.941838,-4.067245,-1.849737
1003.296875,-8.934322,4.220647,0.750925,-1.009185
1003.300781,-1.096689,1.277638,1.810732,0.543694
1003.304688,0.429466,4.845140,0.753299,1.989480
1003.308594,3.430068,11.211581,8.020852,7.599758
1003.312500,3.378204,7.286268,6.619082,6.873471
1003.316406,8.218545,4.225786,5.741693,8.910471
1003.320312,8.292369,12.787472,10.149281,11.122501
1003.324219,6.349758,6.800213,5.545902,6.482170
1003.328125,11.509527,8.557508,10.905390,6.764642
1003.332031,4.324056,8.576469,6.005539,7.571581
1003.335938,4.844883,4.181257,8.480607,6.002896
1003.339844,6.528546,2.814392,3.970436,4.676719
1003.343750,3.249220,2.390439,8.590492,0.308588
1003.347656,4.832342,5.181235,3.211836,-1.306022
1003.351562,-3.685128,0.586776,2.051439,-8.336457
1003.355469,-3.616259,-5.576386,-4.988531,4.632128
1003.359375,-6.243517,-2.531970,1.917378,-4.259453
1003.363281,-2.920515,-10.109766,-8.170143,-8.950923
1003.367188,-6.832441,-16.230754,-6.352262,-4.985347
1003.371094,-9.091365,-1.721874,-3.931491,-10.697963
1003.375000,-6.374870,-12.996850,-8.769236,-5.169493
1003.378906,-9.454951,-7.039483,-9.015665,-15.866413
1003.382812,-6.788434,-9.080840,-12.298408,-1.948286
1003.386719,-4.267363,-17.100854,-9.281381,-12.810521
1003.390625,-8.553223,-7.827742,-1.907337,-11.257321
1003.394531,-7.024729,-5.684459,-3.237185,0.510065
1003.398438,5.209812,-7.115778,0.421563,-3.332204
1003.402344,8.014985,-3.976769,-1.276748,7.351004
1003.406250,7.251163,3.432609,0.441575,-3.444648
1003.410156,2.919781,5.705339,1.262344,6.668057
1003.414062,6.316362,5.476814,2.713298,10.466384
1003.417969,3.697222,6.073198,13.929609,11.257350
1003.421875,13.196843,6.779381,13.850922,6.831992
1003.425781,9.215701,11.023104,12.354460,11.345046
1003.429688,9.113574,20.127904,6.984247,12.577050
1003.433594,15.578347,8.723939,7.717911,0.178919
1003.437500,11.820375,-5.183236,7.850505,9.767020
1003.441406,9.542538,1.037397,8.176729,0.927300
1003.445312,2.604362,-3.074174,11.487887,3.603803
1003.449219,-1.112326,6.902340,-1.171904,4.726180
1003.453125,-5.294949,-6.177940,-4.607129,5.654982
1003.457031,-7.855793,-3.210192,-5.686178,-0.835048
1003.460938,-11.096409,-5.532769,-3.578424,-3.235341
1003.464844,-3.262410,-10.336378,-10.905710,-7.710666
1003.468750,-9.824669,-5.376027,-13.398712,-4.723264
1003.472656,-0.956247,-12.107962,-12.633461,-8.594387
1003.476562,-11.148938,-13.350106,-13.220640,-3.280302
1003.480469,-9.696523,-5.465977,-14.495291,-12.066856
1003.484375,-9.928744,-7.911857,0.595345,-5.944109
1003.488281,-7.684649,0.887071,-9.348686,-7.937775
1003.492188,-7.890128,-2.102930,-5.646319,-1.463623
1003.496094,3.239128,-2.515606,-9.099383,-3.325925
1003.500000,8.421542,-2.688819,-6.893790,5.915649
1003.503906,-2.912255,9.123738,0.772984,3.391864
1003.507812,10.989513,5.983323,6.772258,2.457316
1003.511719,6.876746,7.548318,3.561225,9.965072
1003.515625,13.760862,5.048085,12.066132,8.751177
1003.519531,7.764213,9.815916,13.036269,18.571015
1003.523438,16.766871,6.774843,8.843303,13.406382
1003.527344,3.223613,11.784403,11.353705,8.938820
1003.531250,10.947115,8.172957,5.074579,15.653329
1003.535156,12.063029,6.854033,2.030041,9.668912
1003.539062,8.672405,9.609932,2.319261,5.017558
1003.542969,2.359798,0.268141,4.050109,0.513030
1003.546875,5.083227,-1.544149,6.370638,1.433802
1003.550781,-0.774160,-6.964047,0.184032,5.318358
1003.554688,6.768918,-4.237514,3.271723,-3.809462
1003.558594,-11.635897,3.973404,-4.208171,-5.894614
1003.562500,-5.547839,-7.202677,-4.382212,-11.511561
1003.566406,-11.644069,-13.482436,-9.267418,-7.292381
1003.570312,-6.305573,-9.579573,-12.432238,-11.455459
1003.574219,-8.697284,-9.862230,-10.897300,-9.999803
1003.578125,-15.075903,-8.910972,-13.332258,-14.751025
1003.582031,-9.722434,-11.569069,-8.008039,-11.560440
1003.585938,-6.733220,-5.235452,-6.507627,-8.608021
1003.589844,-4.485055,-9.110705,2.448602,-5.982985
1003.593750,-2.515209,-5.192364,-5.601421,-5.507131
1003.597656,-1.570234,-2.671272,-4.215121,-2.682065
1003.601562,1.416050,3.763922,1.599987,-0.245052
1003.605469,3.399660,2.166828,6.594045,7.448073
1003.609375,1.988732,-0.550092,7.411369,3.162746
1003.613281,10.014553,9.996705,3.647691,10.661789
1003.617188,13.726846,5.300714,17.293909,4.291540
1003.621094,5.968105,13.919143,11.849582,13.903730
1003.625000,11.557117,10.238656,5.939531,12.736940
1003.628906,-1.176042,14.016422,12.397283,4.628709
1003.632812,-0.251292,2.996875,7.494331,9.927259
1003.636719,-2.329030,9.514411,-0.990716,6.490534
1003.640625,12.248817,4.389647,4.231920,9.034446
1003.644531,10.264672,1.757028,6.657697,2.322129
1003.648438,4.466027,-9.430980,2.440061,-8.812816
1003.652344,-0.659478,0.960703,0.306941,0.649506
1003.656250,-8.097958,-14.069829,-1.527946,-5.578788
1003.660156,-6.524549,-3.151448,-10.292775,-11.114213
1003.664062,-7.534239,-15.537143,-13.553754,-9.743735
1003.667969,-10.070779,-19.897758,-6.018851,-7.662698
1003.671875,-12.361117,-8.035381,-13.536237,5.194664
1003.675781,-8.055045,-6.902534,-18.243328,-5.266308
1003.679688,-7.400205,-10.040281,-5.709120,-12.509213
1003.683594,-8.840900,-12.573189,-13.290220,-11.795703
1003.687500,-5.257160,-5.644526,-13.322343,2.402028
1003.691406,-12.770330,-17.404633,-6.423458,-7.057440
1003.695312,-2.651396,-0.518777,3.152351,-5.283897
1003.699219,6.678796,3.042546,-2.195738,-1.487156
1003.703125,0.570513,2.388953,4.345273,4.474050
1003.707031,4.801531,-0.781843,-1.100776,1.434630
1003.710938,3.743129,6.499889,6.729752,8.480883
1003.714844,6.410168,6.637706,2.427918,5.410291
1003.718750,3.945571,7.622162,13.672883,9.979611
1003.722656,14.150381,12.343015,11.045439,5.924948
1003.726562,3.853124,9.051258,11.982202,6.722997
1003.730469,5.211074,8.741766,11.252359,13.640144
1003.734375,7.160310,20.607887,5.363455,18.650293
1003.738281,9.203514,8.566173,6.307509,9.902244
1003.742188,1.994758,3.352002,2.754685,6.932941
1003.746094,9.421438,4.365015,3.817879,2.192205
1003.750000,-1.197754,3.893963,-3.335572,7.638289
1003.753906,-2.808557,-4.633122,3.891789,-2.132360
1003.757812,-6.766174,-2.796340,-4.454067,-3.497456
1003.761719,-9.013609,-7.479690,-10.950370,-6.237607
1003.765625,-2.926372,-7.318719,-20.149707,-6.274414
1003.769531,-10.697160,-9.322171,-3.681472,-11.963963
1003.773438,-4.842397,-15.848259,-8.839713,-2.271776
1003.777344,-1.862880,-13.212142,-9.667561,-6.614680
1003.781250,-14.007676,-4.666072,-5.922511,-8.644509
1003.785156,-7.377970,-4.362681,-9.459286,-7.908074
1003.789062,-7.623056,-5.159093,-0.748502,-7.881477
1003.792969,1.230744,-9.977876,-5.721443,-6.299153
1003.796875,-1.346896,-1.428950,-9.296152,-4.330998
1003.800781,1.277187,-6.360810,4.763108,2.252054
1003.804688,1.953688,9.010874,2.262087,2.932332
1003.808594,8.117265,3.182368,-4.237300,6.246681
1003.812500,4.325438,3.752387,0.502115,7.946058
1003.816406,-2.099120,11.191134,1.977571,2.996517
1003.820312,11.888792,9.617241,7.901653,6.238644
1003.824219,17.004922,5.547034,11.707617,2.954192
1003.828125,13.721024,13.069586,7.475898,10.805821
1003.832031,2.298169,-0.425910,14.337678,6.986319
1003.835938,1.324989,7.185577,10.533868,16.918811
1003.839844,3.371681,8.996333,10.210319,4.538816
1003.843750,6.906428,2.936191,-2.695503,5.547164
1003.847656,-1.295267,2.739813,2.803188,2.014539
1003.851562,-5.539473,7.453350,-5.797938,-2.652562
1003.855469,1.207452,3.587657,-2.045565,-4.575820
1003.859375,-2.603689,-4.246124,-2.996357,-0.189977
1003.863281,-4.993646,-9.282947,-12.247916,-5.533165
1003.867188,-4.919357,-4.604249,-9.324475,-12.088886
1003.871094,-9.947579,-11.086124,-15.375091,-6.562832
1003.875000,-10.350585,-9.588294,-20.781542,-10.947646
1003.878906,-7.972485,-4.698081,-2.786432,-9.069773
1003.882812,-7.545474,-9.867695,-4.458568,-7.519724
1003.886719,-6.530129,-8.013588,-6.308890,-4.640157
1003.890625,-1.281606,-5.673579,-4.982340,0.511649
1003.894531,-9.750963,-5.500027,-0.122446,4.754177
1003.898438,2.635879,3.718973,-0.205872,-6.506289
1003.902344,-0.908193,3.108911,5.637172,5.104408
1003.906250,6.801223,2.117982,6.956896,4.628720
1003.910156,5.893717,9.087290,12.673097,8.022782
1003.914062,2.299440,9.728697,13.926557,11.093563
1003.917969,10.499627,12.612711,6.437518,6.417070
1003.921875,12.995033,8.938406,14.047338,9.599770
1003.925781,9.807780,6.369361,6.575615,12.514471
1003.929688,4.251886,9.166968,12.011270,12.132218
1003.933594,0.473887,6.495087,-0.963880,2.050486
1003.937500,4.743790,7.590207,1.870096,8.379066
1003.941406,6.903399,4.470178,-3.623484,1.722326
1003.945312,6.981148,5.025779,3.539620,-5.990247
1003.949219,4.057239,1.225610,4.831727,-0.063000
1003.953125,-1.999507,-5.056401,-3.952159,-3.801656
1003.957031,-2.674530,0.077997,-3.881448,-3.468257
1003.960938,-11.516110,-5.136069,-3.209721,-6.182173
1003.964844,-6.761643,-2.229795,-3.827646,-7.462604
1003.968750,-18.112001,-11.019455,-6.876755,-9.646220
1003.972656,-6.482337,-8.383978,-15.210850,-10.804644
1003.976562,-12.241410,-7.276136,-2.869966,-12.422301
1003.980469,-4.191892,-6.318287,-12.133378,-2.043805
1003.984375,-8.508282,-17.411900,-11.416507,-13.811882
1003.988281,-5.356586,-2.138006,-7.313365,0.213892
1003.992188,-10.987614,-0.688835,0.943160,-8.319857
1003.996094,1.211663,-2.553219,-1.127387,-7.376309
1004.000000,4.387881,3.920743,-0.873374,-6.213546
1004.003906,2.203942,-1.664302,9.180596,3.954452
1004.007812,8.116468,5.951891,-0.258486,8.393990
1004.011719,-1.519707,3.837532,6.488574,2.831049
1004.015625,4.055911,16.514303,10.495192,9.457991
1004.019531,0.776097,14.716325,15.801686,0.969006
1004.023438,7.808215,1.991791,12.279983,13.422808
1004.027344,12.430122,9.791645,8.434921,18.425354
1004.031250,17.892901,8.534089,19.886387,11.346064
1004.035156,10.416158,2.280091,7.584132,1.691887
1004.039062,11.200911,8.198987,3.473416,13.194862
1004.042969,8.415468,7.418277,0.318110,17.691304
1004.046875,-0.063297,-0.401629,0.884873,-1.782554
1004.050781,3.590149,-2.866232,-4.822224,-7.685080
1004.054688,-2.121976,3.672932,2.204977,-3.525184
1004.058594,-2.254534,-10.321895,-1.911411,-0.555262
1004.062500,-2.150785,-7.799961,-2.859364,-14.980213
1004.066406,-6.567387,-10.978650,-12.578901,-9.090278
1004.070312,-3.161502,-9.324280,-8.038433,-17.830805
1004.074219,-11.933664,-10.199749,-14.569679,-15.208952
1004.078125,-14.298371,-7.617557,-6.891230,-3.548360
1004.082031,-21.264148,-11.548647,-4.224550,-9.983804
1004.085938,-7.022468,-15.801773,-8.122385,-7.945171
1004.089844,-3.289272,-8.179915,-4.952619,-7.025529
1004.093750,-1.170519,-1.152606,-5.867282,4.400961
1004.097656,1.238497,3.639067,-0.343628,-5.850055
1004.101562,1.242876,-6.394992,-2.693004,-8.367301
1004.105469,9.396358,12.044448,4.633298,3.369703
1004.109375,6.016333,1.089831,4.062405,5.384614
1004.113281,10.820122,8.511270,5.099552,3.648816
1004.117188,13.105914,3.850662,12.460565,9.658099
1004.121094,7.353859,14.704276,4.275898,19.551331
1004.125000,18.682833,13.268354,10.722593,6.351508
1004.128906,12.632720,8.934688,10.688255,12.213515
1004.132812,6.116687,4.641939,8.391208,11.647491
1004.136719,9.715648,3.780936,6.678696,14.980951
1004.140625,3.593013,-8.984075,6.382917,3.080400
1004.144531,3.093510,4.776641,2.289271,2.088043
1004.148438,0.509647,2.293295,1.082631,-3.512496
1004.152344,2.205294,-2.406250,0.672512,-5.482788
1004.156250,-5.846509,-8.907386,0.122250,-2.519413
1004.160156,-2.574220,-13.703154,-13.848165,-4.277400
1004.164062,-2.690960,-3.725309,-12.091784,-7.307873
1004.167969,-8.061963,-11.376369,0.235195,-6.123784
1004.171875,-0.774929,-10.415548,-7.334566,-8.247302
1004.175781,-3.255457,-5.389773,-1.390700,-14.190499
1004.179688,-4.602080,-1.465678,-10.983577,-14.082729
1004.183594,-9.302478,-9.272793,-8.962168,-4.479254
1004.187500,-6.115649,-11.470504,-3.233552,-3.560174
1004.191406,-5.769697,-8.139673,-6.870474,-1.852963
1004.195312,-2.186359,-1.810676,-6.353234,-2.087701
1004.199219,-0.608146,-4.073656,-4.817906,-4.558608
1004.203125,3.473531,1.647539,2.014978,-7.078748
1004.207031,8.402423,4.759303,-0.034569,7.624544
1004.210938,7.041095,1.784299,8.018696,7.543441
1004.214844,10.199167,6.167865,7.219800,1.106319
1004.218750,11.715786,8.676726,8.770913,0.167248
1004.222656,10.458376,3.587179,10.384869,7.497150
1004.226562,6.617357,1.970890,13.386828,7.976300
1004.230469,4.198778,13.439435,5.410050,13.278428
1004.234375,5.619439,1.070526,6.024237,5.517399
1004.238281,9.092204,2.979575,4.226772,7.141664
1004.242188,3.231538,5.773847,1.438193,3.239270
1004.246094,1.333934,2.948036,0.987512,-2.405860
1004.250000,-1.243649,-1.653494,-2.896334,1.572133
1004.253906,-3.544089,1.145047,-7.122519,-0.631239
1004.257812,-0.511887,-4.391532,4.892940,-6.237428
1004.261719,-12.076936,-7.623905,-6.758418,-13.556910
1004.265625,-11.482543,-10.140575,-9.627349,-6.175901
1004.269531,-7.252374,-5.501105,-9.094623,-7.979644
1004.273438,-9.123244,-12.860347,-12.773757,-7.133931
1004.277344,-9.258454,-7.960052,-12.615888,-6.035860
1004.281250,-10.052215,-14.264380,-8.188969,-9.317324
1004.285156,-9.589241,-6.435142,-9.458161,-12.854828
1004.289062,-2.937291,-5.748828,-2.906685,-9.788230
1004.292969,-10.032839,-15.273881,3.412870,-3.455135
1004.296875,-2.056784,-2.869611,-7.216237,-4.253425
1004.300781,-1.675879,3.856966,-0.356572,3.033338
1004.304688,3.919911,2.870600,0.719892,14.765831
1004.308594,4.860237,5.540227,2.282111,12.224245
1004.312500,11.636656,5.539848,7.571060,6.686905
1004.316406,3.439020,3.057769,11.935137,10.109116
1004.320312,8.825513,10.845580,9.560254,13.857978
1004.324219,11.830929,8.428002,10.459351,14.554401
1004.328125,13.341580,7.162037,10.918761,8.273473
1004.332031,6.532164,12.320388,4.547916,9.848499
1004.335938,5.755193,7.537824,8.549543,4.339352
1004.339844,8.986387,8.464097,8.489008,5.876698
1004.343750,-0.222582,7.639013,4.760759,-1.307546
1004.347656,2.413922,3.449670,-7.189719,-0.521344
1004.351562,-9.894197,2.217175,5.971394,6.446420
1004.355469,-0.474394,1.056266,-9.015879,-9.505602
1004.359375,-12.210512,-8.661267,-0.129914,-0.541197
1004.363281,-8.320458,-14.804230,-7.777413,-10.809041
1004.367188,-9.183555,-7.902735,-13.602334,-6.559860
1004.371094,-12.908221,-15.894567,-4.428840,-14.427602
1004.375000,-11.251938,-6.321690,-3.371521,-11.383023
1004.378906,-9.551680,-4.719043,-6.322545,-3.787425
1004.382812,-7.363706,-7.183081,-7.841532,-9.429775
1004.386719,-7.086727,-8.844618,-11.791692,0.369741
1004.390625,-11.508738,-6.834050,-5.948747,-0.528636
1004.394531,-8.489046,-3.316242,-1.253420,-6.623737
1004.398438,3.691160,2.357937,3.710566,-6.628130
1004.402344,4.433396,-0.169406,-2.218550,-2.350898
1004.406250,1.224055,7.351614,4.400418,5.078668
1004.410156,2.938169,9.978391,2.704347,9.879655
1004.414062,15.291152,7.847242,13.206457,0.560273
1004.417969,8.222087,5.417460,9.274498,11.308086
1004.421875,6.039341,5.313018,10.977893,9.635069
1004.425781,12.407498,15.297032,2.485244,10.674218
1004.429688,9.501998,6.992155,12.943829,11.893833
1004.433594,5.771262,7.243790,10.673258,6.408939
1004.437500,9.915640,4.560018,2.985353,12.839427
1004.441406,3.031990,5.306851,6.421152,2.517301
1004.445312,-2.271399,0.609527,0.577182,7.203306
1004.449219,4.462549,0.804489,3.128809,-6.267038
1004.453125,-16.195130,-3.964146,-0.446149,2.385993
1004.457031,-7.741463,-0.702475,-8.692953,-4.805801
1004.460938,-12.281278,-6.610689,-7.437960,-7.942293
1004.464844,-10.935924,-10.070504,-5.349580,-9.320413
1004.468750,-10.217071,-5.767035,-6.293436,-12.716411
1004.472656,-7.874335,-9.678054,0.615756,-11.480609
1004.476562,-3.957635,-10.967273,-17.337317,-13.232260
1004.480469,-6.011210,-5.971279,-4.206411,-7.180397
1004.484375,-2.827431,-4.238572,-4.184867,-10.364456
1004.488281,-3.711192,-6.809742,-6.687115,0.308825
1004.492188,-3.699039,-11.418309,-8.593002,0.550607
1004.496094,-5.230058,-1.790891,0.164881,-6.127396
1004.500000,-0.085812,-6.413223,1.821479,-3.733496
1004.503906,-3.011096,3.346350,-1.831255,-3.569939
1004.507812,-4.568591,3.702982,1.123032,11.947902
1004.511719,3.518360,5.182310,2.977290,7.315549
1004.515625,12.001568,9.512177,3.850521,10.295787
1004.519531,8.893103,10.650494,11.501533,3.225470
1004.523438,4.519569,8.473276,6.498324,9.376149
1004.527344,11.303380,13.790143,10.566032,11.344096
1004.531250,8.151330,13.887643,10.676693,9.419220
1004.535156,10.329933,10.516156,2.172891,3.784045
1004.539062,3.424950,6.402504,2.441663,12.700903
1004.542969,-6.933745,2.531470,3.183328,0.002369
1004.546875,1.769157,0.495062,5.186764,3.609518
1004.550781,2.534802,1.402503,-2.611273,-1.969651
1004.554688,-2.446751,0.266372,0.668659,-2.978380
1004.558594,-9.848071,-6.445705,-7.258039,-6.370343
1004.562500,-5.573677,-5.922354,-5.529819,-3.744561
1004.566406,-5.735349,-11.933674,-13.515334,-11.191865
1004.570312,-12.579848,-13.812908,-3.388146,-12.653860
1004.574219,-5.497119,-6.972595,-16.554707,-10.164570
1004.578125,-9.336223,-8.676087,-5.685443,-9.073130
1004.582031,-11.157086,-2.797959,-5.227652,-9.979306
1004.585938,-5.685076,-8.408537,-10.223843,-10.914678
1004.589844,-7.056277,-1.593422,-4.707584,-7.715753
1004.593750,-9.376842,1.070320,-2.613389,1.002005
1004.597656,-0.902266,-4.483124,-1.117116,-3.973771
1004.601562,0.684149,-4.290167,-0.579518,-3.003754
1004.605469,6.276902,10.542084,10.664438,8.586519
1004.609375,9.266901,5.326460,8.533498,5.159345
1004.613281,9.713581,5.940321,8.032547,11.335589
1004.617188,10.048300,2.537193,5.501845,7.535497
1004.621094,18.348142,5.070204,12.611285,8.774165
1004.625000,7.908583,11.363151,9.314086,8.659686
1004.628906,12.162805,18.982080,9.582692,4.202115
1004.632812,9.099832,7.834158,5.839848,7.105815
1004.636719,10.255219,10.698531,1.027741,5.222112
1004.640625,3.658261,1.700179,7.637845,4.580470
1004.644531,-2.795365,-0.460471,7.256938,-0.993458
1004.648438,2.165086,-0.175215,1.128217,3.516233
1004.652344,-1.166246,-0.992857,-0.230494,-7.443139
1004.656250,-8.927031,-3.052730,-2.944488,-5.471340
1004.660156,-8.354340,-6.282255,-4.364295,-7.093020
1004.664062,-13.869492,-2.623833,-6.415048,-5.845465
1004.667969,-11.463181,-9.096984,-1.352023,-10.633452
1004.671875,-6.044262,-17.304386,-4.895967,-16.497256
1004.675781,-15.564535,-5.775240,-8.038809,-8.269944
1004.679688,-11.617178,-10.630427,-12.064582,-9.771525
1004.683594,-17.299285,-9.684406,-16.967012,-9.854021
1004.687500,-12.838465,-5.708091,-5.242439,-9.632013
1004.691406,0.093331,-2.004745,-6.486758,-3.579383
1004.695312,-4.002415,1.980676,3.831262,-8.344937
1004.699219,5.806522,0.706909,0.213629,1.390959
1004.703125,-3.022075,3.543191,2.304967,1.804689
1004.707031,7.614002,10.874173,8.541515,9.017261
1004.710938,3.073352,4.419249,5.745401,-2.527816
1004.714844,6.302357,3.254615,5.105019,9.839107
1004.718750,12.214279,18.153838,10.471103,11.644802
1004.722656,14.223329,10.985309,14.165714,0.226709
1004.726562,16.172329,9.945521,12.611394,6.652636
1004.730469,11.170920,12.814831,6.293077,14.040484
1004.734375,12.105586,15.429713,8.887534,10.485328
1004.738281,1.426925,4.311854,0.702654,3.236559
1004.742188,12.613532,0.701848,0.486490,6.484042
1004.746094,3.480890,4.263869,4.778478,0.148606
1004.750000,1.278674,-2.659987,-1.664512,-2.642940
1004.753906,-6.716033,3.868854,-6.226017,-9.517448
1004.757812,-6.609884,-0.073800,-11.795618,-4.710471
1004.761719,-12.866018,-4.162102,-11.160508,-3.582883
1004.765625,-13.198108,-15.428199,-13.435722,-12.402611
1004.769531,-2.486301,-11.614204,-8.009016,-8.127741
1004.773438,-14.805770,-9.398272,-9.918116,-4.268803
1004.777344,-10.008588,-12.628001,-17.737082,-13.288459
1004.781250,-10.938064,-6.864761,-7.923723,-8.780093
1004.785156,-5.821594,-6.967243,-10.847175,-6.266481
1004.789062,-8.182865,-9.485609,-1.681109,-10.132176
1004.792969,-7.923809,-7.500251,-10.365704,-4.185586
1004.796875,-3.361410,1.387837,-3.326162,-3.686683
1004.800781,-6.303565,2.167727,0.167150,8.409522
1004.804688,-2.296592,2.446579,9.047811,0.677653
1004.808594,8.425611,0.961373,2.922705,0.266194
1004.812500,4.289792,4.922926,7.097653,12.345128
1004.816406,2.751277,3.547471,16.002457,13.208665
1004.820312,8.157504,5.205458,16.230884,11.212666
1004.824219,6.557072,5.555832,4.972770,18.914514
1004.828125,7.817541,13.447044,9.561801,7.240930
1004.832031,13.556841,9.616732,13.378261,11.376439
1004.835938,5.278258,8.258090,3.846904,7.082284
1004.839844,8.213457,15.047650,13.377584,7.004586
1004.843750,9.204638,2.439815,11.928903,1.777167
1004.847656,8.898741,2.415674,-1.905105,-0.110553
1004.851562,3.809490,-7.043594,3.063759,-0.586452
1004.855469,-2.760792,-4.451041,-6.763653,5.986735
1004.859375,-6.044765,-6.574235,-10.069556,-6.724770
1004.863281,-5.072831,-2.342676,-4.203839,-6.795263
1004.867188,-7.735343,-9.444552,-18.445379,-1.065077
1004.871094,-14.921228,-10.262168,-11.691566,-12.894111
1004.875000,-6.470313,-14.652051,-6.620392,-17.577534
1004.878906,-6.701986,-12.687525,-10.049865,-12.216995
1004.882812,-10.910883,-10.668537,-7.134361,-3.615511
1004.886719,-8.583683,-10.376624,-9.009757,-8.654121
1004.890625,-7.966826,-3.983650,-5.703562,0.875911
1004.894531,-0.812459,-3.847371,-3.091657,-6.400847
1004.898438,2.439125,0.916891,-2.937123,1.074707
1004.902344,1.353849,4.447460,1.528685,-1.080142
1004.906250,3.944357,8.639893,4.111783,4.444925
1004.910156,0.934652,7.830328,5.670794,8.968975
1004.914062,1.436743,2.852287,9.456416,10.720885
1004.917969,14.148536,13.455770,6.039872,13.337043
1004.921875,8.859111,5.699214,7.796380,-0.393825
1004.925781,13.911011,10.278401,5.290917,7.794841
1004.929688,14.957076,11.422604,5.815999,7.550659
1004.933594,14.847922,5.140357,5.784830,6.597464
1004.937500,3.547794,2.106150,13.714187,12.767274
1004.941406,2.455265,3.562786,8.502334,6.764103
1004.945312,2.551401,5.423387,-4.739035,-1.244662
1004.949219,5.270763,-1.652978,-0.360290,5.421032
1004.953125,-11.076544,-4.616618,-1.152004,1.079305
1004.957031,-5.906612,-6.239989,-5.716891,-7.906528
1004.960938,-0.792395,-10.532014,-4.886428,4.352420
1004.964844,-8.071929,-13.779864,-5.920434,-11.040896
1004.968750,-10.847036,-13.286050,-8.591288,-10.835931
1004.972656,-4.904614,-8.812044,-12.798910,-4.878289
1004.976562,-7.345700,-11.783722,-7.771349,-7.848010
1004.980469,-4.030087,-9.839556,-16.292097,-6.205232
1004.984375,-14.490442,-10.363527,-15.272040,-3.624404
1004.988281,-12.885113,-6.581267,-7.430005,-9.179237
1004.992188,-6.206557,3.861332,-8.235697,-0.253955
1004.996094,-4.777920,-2.738168,-1.366739,-3.942007
1005.000000,-6.588262,-0.168197,0.493227,-2.824103
1005.003906,-3.298153,3.715408,2.433775,3.662260
1005.007812,7.748605,9.209123,3.760335,2.526873
1005.011719,10.424887,5.861625,10.323290,3.270621
1005.015625,5.423565,9.641604,9.205929,2.443353
1005.019531,2.302395,5.361960,10.332094,5.964387
1005.023438,11.839440,3.915456,13.553033,9.549416
1005.027344,19.949785,15.905653,5.593079,11.920915
1005.031250,11.210472,9.008790,11.433508,9.687981
1005.035156,1.262002,14.901122,8.791598,3.693319
1005.039062,4.387016,6.925966,9.583620,0.408334
1005.042969,7.788524,-2.591429,5.870620,3.690054
1005.046875,3.561590,5.904099,3.297898,0.897467
1005.050781,4.318970,-0.274598,-8.367911,-0.683833
1005.054688,-5.174790,-7.451255,-6.068386,-2.836325
1005.058594,-1.981383,-12.921721,-2.997670,-4.198588
1005.062500,-8.333609,-5.507154,-12.054172,-11.861790
1005.066406,-11.144951,-10.988029,-8.412484,-10.109519
1005.070312,-6.154197,-9.624625,-13.442983,-16.092613
1005.074219,-6.244002,-15.861050,-8.111254,-12.055459
1005.078125,-6.953141,-13.031066,-8.781300,-16.785701
1005.082031,-11.325060,-6.809810,-8.013131,-11.286529
1005.085938,-8.393943,-5.391022,-14.952979,-10.665627
1005.089844,-2.555165,-11.957515,-7.210507,-10.123358
1005.093750,-8.662145,-3.400025,-2.160586,-0.330401
1005.097656,-3.381149,3.387033,-7.666806,3.960597
1005.101562,0.619930,-1.488543,5.669711,1.749806
1005.105469,3.452749,1.472304,-0.891889,2.702422
1005.109375,5.060129,3.291294,7.088392,9.586291
1005.113281,9.846828,4.640987,8.610508,3.740446
1005.117188,6.662893,6.875447,15.878923,15.247690
1005.121094,15.453486,6.813070,7.356777,12.910781
1005.125000,9.382492,17.699235,13.418459,5.864731
1005.128906,9.207845,11.841095,5.235278,17.276724
1005.132812,9.367315,9.393039,10.560508,5.144143
1005.136719,1.752395,4.164423,10.395606,5.146099
1005.140625,4.591219,3.927616,4.497469,9.147219
1005.144531,5.354155,-1.355643,4.250691,-0.618995
1005.148438,8.466666,4.942754,5.524820,-2.774316
1005.152344,-0.093460,-4.957597,-6.444133,-0.706409
1005.156250,-1.348968,-5.819583,-2.842507,-3.117279
1005.160156,-1.452505,-3.544065,-7.004110,-1.109987
1005.164062,-4.912186,-15.082223,-12.545472,-7.595471
1005.167969,-4.324093,-13.242889,-11.283990,-5.203088
1005.171875,-15.576310,-0.191956,-12.754962,-9.531007
1005.175781,-2.412627,-11.085329,-11.076073,-5.857133
1005.179688,-15.053938,-14.193024,-9.257348,-4.691644
1005.183594,-7.496090,-4.200093,-7.496335,-19.485698
1005.187500,-14.172203,-2.824504,-8.181500,-12.797333
1005.191406,-4.825267,-3.953835,-4.716248,-4.710906
1005.195312,-11.371781,-2.295034,-3.291930,-5.485731
1005.199219,0.746688,-5.022618,-5.580762,6.147743
1005.203125,7.255022,5.286765,3.725371,2.282493
1005.207031,0.491003,3.699761,-0.153783,10.722537
1005.210938,10.481907,3.311106,7.595307,3.924749
1005.214844,11.347591,8.931444,6.623537,5.182895
1005.218750,13.508421,7.557448,8.638312,10.869981
1005.222656,13.105176,16.431388,16.703906,8.467275
1005.226562,12.240220,11.095390,6.111257,10.681416
1005.230469,3.842651,10.057615,1.080778,11.123563
1005.234375,6.828184,9.306820,11.087606,10.598105
1005.238281,1.590705,5.589660,11.043808,0.362587
1005.242188,1.501263,2.833078,5.721978,6.758185
1005.246094,2.195862,6.270597,0.097095,-3.225803
1005.250000,-0.891577,-0.840931,-4.383296,1.696680
1005.253906,-0.233193,-1.680875,-2.728608,-3.183576
1005.257812,-2.110210,-1.577516,-7.713868,-10.338679
1005.261719,-2.652631,-7.680716,-8.398031,-0.189704
1005.265625,-10.362435,-5.580494,-2.869411,-9.068151
1005.269531,-13.130438,-8.328884,-11.269338,-10.511086
1005.273438,-6.104919,-12.460327,-10.810161,-7.006123
1005.277344,-5.587013,-9.658825,-12.828860,-7.776227
1005.281250,-17.524437,-9.274242,-12.847403,-9.926781
1005.285156,-1.630995,-11.087127,-2.056831,-15.554163
1005.289062,-4.744984,-7.140579,-5.975205,-5.978894
1005.292969,0.225294,-4.686953,-2.710877,-4.571049
1005.296875,-0.365735,-1.954035,3.130220,-0.740962
1005.300781,-2.207171,-2.927671,-0.783963,4.918430
1005.304688,8.099351,2.622876,7.085828,4.246656
1005.308594,8.462533,9.075584,4.943086,7.594485
1005.312500,4.007279,8.087206,7.351406,4.452038
1005.316406,9.162045,11.932298,6.197641,8.719575
1005.320312,4.457042,11.768062,9.020445,5.718628
1005.324219,12.341405,11.724289,5.932916,17.633749
1005.328125,13.918834,13.866407,3.275002,9.281060
1005.332031,9.299583,12.364612,8.064848,11.619522
1005.335938,11.420473,2.686341,8.591807,6.475457
1005.339844,10.969694,4.433370,3.411508,9.975644
1005.343750,0.648309,4.769123,5.201424,5.285920
1005.347656,-2.486868,4.719351,3.879391,0.291138
1005.351562,2.998759,5.658011,-3.433955,-2.325425
1005.355469,1.848852,-2.814893,-9.346725,-6.970506
1005.359375,-8.743405,-6.538620,-8.549805,-4.854146
1005.363281,-4.762513,2.556915,-2.610062,-7.177514
1005.367188,-13.452699,-8.504821,-10.857011,-10.528475
1005.371094,-5.306193,-16.103354,-9.767309,-7.081139
1005.375000,-6.865830,-12.757355,-8.582684,-4.816563
1005.378906,-7.369827,-16.020722,-5.387368,-13.970897
1005.382812,-8.927914,-13.400964,-8.407809,-15.169918
1005.386719,-2.455943,-3.684481,-3.585471,-8.678522
1005.390625,-7.009964,-4.874090,-0.597352,0.462756
1005.394531,0.371331,-0.317624,-5.172800,-8.381431
1005.398438,3.384694,-1.804855,-1.561771,-1.032509
1005.402344,-2.036801,-3.179425,-3.667523,5.311823
1005.406250,4.142559,1.503822,11.471640,2.754971
1005.410156,0.700752,-3.065928,7.047735,-0.603818
1005.414062,9.783225,8.949117,3.464920,6.233067
1005.417969,7.796275,10.133630,8.424511,14.234330
1005.421875,14.912513,6.536785,8.419657,6.811494
1005.425781,11.438908,6.785144,12.471147,11.736187
1005.429688,12.830446,16.507097,15.966168,4.692944
1005.433594,9.815461,5.391376,11.209546,11.032782
1005.437500,11.093756,1.618905,10.467218,10.748645
1005.441406,3.525559,9.158678,8.007181,9.424959
1005.445312,5.855184,-2.185272,2.247779,0.981349
1005.449219,-3.918848,9.391788,-2.678535,-2.957588
1005.453125,-3.073732,-5.079888,-4.351398,6.175492
1005.457031,3.241220,-1.953518,-9.174786,-4.186014
1005.460938,-5.274167,-10.783474,-5.950992,-6.445929
1005.464844,-7.647371,-5.792885,-10.577603,-14.065854
1005.468750,-7.660114,-12.598632,-12.650083,-3.383367
1005.472656,-5.384428,-9.413040,-15.598263,-11.915200
1005.476562,-9.267072,-2.541557,-8.416218,-12.951955
1005.480469,-3.979781,-17.613324,-8.033028,-4.798840
1005.484375,-0.349713,-13.102384,-12.204282,-13.406479
1005.488281,-6.980171,-9.351985,-11.051112,-12.349892
1005.492188,-9.876211,-10.686661,-1.345591,-14.243610
1005.496094,0.444733,-0.145288,-2.620369,5.812719
1005.500000,0.326195,-4.306541,-2.883114,-2.224513
1005.503906,-5.002625,3.731529,4.398057,7.505939
1005.507812,-2.179082,5.430881,4.767875,3.435981
1005.511719,2.931506,6.160819,2.127079,8.714388
1005.515625,9.910901,3.056295,7.799878,13.999704
1005.519531,6.446853,15.601977,11.656085,14.588714
1005.523438,7.502532,10.814568,17.537343,18.892737
1005.527344,16.004582,12.898760,13.515403,11.799742
1005.531250,4.369193,9.885978,10.146464,3.519657
1005.535156,7.779800,7.502222,3.384829,10.686165
1005.539062,1.729910,0.909738,1.277822,1.444946
1005.542969,7.788858,6.443315,7.282010,11.064442
1005.546875,2.411779,3.441069,-1.248713,8.756517
1005.550781,10.266712,-6.424985,6.132279,0.547771
1005.554688,-5.154251,-3.062097,-1.075039,-1.408201
1005.558594,-7.736670,-0.055427,1.934284,0.694789
1005.562500,-6.320135,-3.357748,-2.205570,-7.643101
1005.566406,-3.470051,-7.085536,-6.329847,-0.869546
1005.570312,-8.941062,-8.800385,-3.273730,-10.808408
1005.574219,-8.074743,-7.656832,-9.221899,-9.217351
1005.578125,-10.414162,-11.664237,-14.668568,-12.138280
1005.582031,-7.010711,-12.802635,-12.714763,-6.462245
1005.585938,-3.252058,-10.073597,-9.012794,-11.430633
1005.589844,-9.699315,-3.887666,-1.158833,-9.438562
1005.593750,0.009254,-11.240815,-4.509979,2.166042
1005.597656,-0.271761,-1.799078,-4.003532,-1.846716
1005.601562,2.470945,1.061007,5.769075,0.575952
1005.605469,2.890944,7.804117,10.666133,16.064027
1005.609375,0.660244,5.347041,8.226039,6.187510
1005.613281,10.201912,10.716370,3.947683,8.779445
1005.617188,9.532474,4.949734,11.123613,6.540529
1005.621094,6.846621,14.897488,11.174783,5.947915
1005.625000,13.498389,11.190569,5.597236,8.418289
1005.628906,2.614254,13.777577,10.269959,5.896223
1005.632812,12.186071,11.552589,8.840884,9.679900
1005.636719,7.451497,4.317329,8.426602,6.120489
1005.640625,0.838625,8.403336,7.873644,6.039842
1005.644531,0.041232,3.851113,7.399104,0.575217
1005.648438,-1.013469,5.850371,1.002178,-3.563303
1005.652344,-5.301625,0.909232,0.708948,-7.821664
1005.656250,3.422678,-2.568621,-8.305293,0.725388
1005.660156,-5.800136,-0.916088,-11.424323,-5.608992
1005.664062,-14.889645,-4.258346,-8.162088,-3.117803
1005.667969,-12.464828,-5.058847,-11.366155,-5.933407
1005.671875,-5.959109,-10.371009,-16.132623,-12.939578
1005.675781,-13.070614,-10.511650,-8.172748,-7.846973
1005.679688,-9.030324,-11.564969,-3.136586,-17.340436
1005.683594,-9.932077,-1.947685,-9.083899,-5.764095
1005.687500,-6.882001,-0.150316,-9.801150,-6.577808
1005.691406,-6.810637,-5.143366,-9.631159,-4.967886
1005.695312,-0.864104,-6.630740,-6.533353,-3.207651
1005.699219,-4.934632,1.282889,4.359078,-6.699419
1005.703125,-0.232266,12.281806,0.597762,4.245079
1005.707031,11.110800,6.986080,8.244533,3.953587
1005.710938,2.388268,1.021172,4.284669,11.596937
1005.714844,11.255229,5.062145,8.176280,7.204503
1005.718750,8.199971,15.798145,6.473378,6.977319
1005.722656,6.145191,13.819675,9.602949,12.858078
1005.726562,8.690367,9.302396,16.921666,12.124525
1005.730469,7.731749,8.775206,9.942870,8.230486
1005.734375,7.036101,-0.327340,7.575558,13.360040
1005.738281,2.313769,0.869720,7.092959,8.826659
1005.742188,4.780216,8.327091,3.965786,5.002885
1005.746094,3.338584,1.916363,1.486758,-0.197283
1005.750000,-0.109803,-0.626052,1.631431,1.052198
1005.753906,0.881228,-8.588702,-13.674689,-5.053509
1005.757812,-4.775710,-11.085377,-8.597543,-7.087974
1005.761719,-5.070066,-10.609142,-14.545347,-13.480960
1005.765625,-3.407868,-12.955289,-12.961526,-9.200228
1005.769531,-11.158945,-8.500147,-8.756610,-17.239943
1005.773438,-13.591718,-6.701018,-16.825511,-13.472097
1005.777344,-7.144312,-3.983986,-8.119285,-13.155146
1005.781250,-5.119879,-12.653650,-5.254084,-6.507946
1005.785156,-9.270644,-7.174816,-7.914313,-9.907204
1005.789062,-7.377178,-6.892916,-4.293387,-1.159296
1005.792969,-0.298383,-6.810957,-5.901775,-5.278879
1005.796875,-0.902755,-1.094922,2.837227,1.104707
1005.800781,-4.861102,2.914618,-4.430553,-0.036747
1005.804688,1.069502,1.125473,-3.923006,4.159593
1005.808594,12.531257,5.967181,1.671903,11.298307
1005.812500,9.051500,4.708361,8.810337,5.154300
1005.816406,11.597580,1.111676,2.634069,7.264010
1005.820312,10.165657,6.225681,8.140809,14.343217
1005.824219,11.718103,9.564136,7.402420,13.511187
1005.828125,6.724697,4.081540,3.433954,10.033994
1005.832031,5.055881,12.189763,4.197880,8.196335
1005.835938,12.531609,12.912167,8.901052,6.046497
1005.839844,5.976650,3.863916,6.211746,0.285113
1005.843750,4.685629,0.765331,3.817297,4.117816
1005.847656,1.164629,8.194574,1.250058,0.933432
1005.851562,-7.352576,2.354592,3.257984,-0.019765
1005.855469,0.218816,-5.435531,-9.711333,-3.606903
1005.859375,-13.179284,-4.868108,-9.862008,-4.459393
1005.863281,-8.450471,-8.968277,-13.678110,-5.709638
1005.867188,-11.411581,-10.781574,-9.428585,-10.229514
1005.871094,-16.175034,-8.805230,-9.251242,-5.974096
1005.875000,-0.021231,-7.674843,-13.003384,-13.547052
1005.878906,-4.880902,-18.361755,-20.012412,-7.424381
1005.882812,-9.563492,-1.580860,-10.681526,-8.457315
1005.886719,-4.568197,-10.100702,-5.300588,-7.069891
1005.890625,-9.560661,-9.479387,-8.183041,-8.771904
1005.894531,-11.671930,-12.125371,-7.540904,-3.237585
1005.898438,-2.307373,-2.265106,1.644098,-1.655743
1005.902344,2.616592,-3.782756,-3.160710,3.285904
1005.906250,-1.521895,6.342008,7.421815,3.090212
1005.910156,5.195176,4.037152,4.735531,-0.359130
1005.914062,1.388929,8.990972,13.586320,5.288237
1005.917969,0.139304,15.274941,8.372074,9.724008
1005.921875,12.757759,8.222765,14.742769,8.370660
1005.925781,9.809288,9.770677,7.928885,9.800545
1005.929688,-0.256484,8.577212,10.688258,10.764500
1005.933594,11.244220,9.169152,10.013389,14.052185
1005.937500,3.055904,6.876255,3.933865,6.109776
1005.941406,10.316089,0.628856,7.746891,5.181531
1005.945312,4.084556,4.101864,10.480233,8.596831
1005.949219,-2.349064,-5.047109,-0.587352,-6.058008
1005.953125,2.231377,-0.722813,-6.452072,-9.868427
1005.957031,-11.880192,-4.239895,-2.795302,1.647761
1005.960938,-10.243272,-7.789728,-13.799043,-1.058539
1005.964844,-1.762975,-6.836545,-1.965015,-10.689252
1005.968750,-15.641714,-12.822340,-20.387744,-10.945720
1005.972656,-11.093043,-11.761580,-19.447493,-2.246858
1005.976562,-11.630402,-6.021855,-4.888557,-13.124263
1005.980469,-9.007034,-13.995850,-2.744479,-5.212887
1005.984375,-15.527025,-1.380412,-11.586052,-13.168503
1005.988281,-7.156980,-4.252126,-7.138630,-8.830734
1005.992188,-4.969933,-6.221005,-4.195433,-9.426513
1005.996094,-6.612254,-9.943926,-8.852528,-2.345509
1006.000000,1.635799,-5.502528,1.836238,1.892816
1006.003906,2.801765,-1.906712,-0.191235,-1.648492
1006.007812,1.075715,12.955489,13.044115,3.595990
1006.011719,10.216505,4.651552,9.577454,-0.348528
1006.015625,12.354235,7.349524,8.590275,12.178450
1006.019531,5.680455,2.998714,15.631425,13.074768
1006.023438,9.871428,10.622173,18.306877,9.223074
1006.027344,10.404763,13.266197,0.385151,11.302298
1006.031250,1.131268,11.146254,10.198994,9.744476
1006.035156,7.763126,7.216407,4.890947,5.418705
1006.039062,6.077303,13.744373,9.477587,9.161360
1006.042969,-1.317991,1.913134,8.399264,-1.490043
1006.046875,-3.305029,0.491667,-3.355997,1.670111
1006.050781,2.840935,-4.642447,3.944029,-2.351487
1006.054688,2.932280,-4.587279,-4.780949,-6.798354
1006.058594,1.165342,0.967321,-4.103884,-7.403254
1006.062500,-3.934580,0.781837,-4.865012,-11.591968
1006.066406,-8.144213,-10.174820,-7.369627,-11.209736
1006.070312,-14.549746,-9.444997,-7.993980,-15.950886
1006.074219,-12.015607,-12.070387,-7.275555,-7.875316
1006.078125,-13.527663,-4.829767,-6.732121,-3.753596
1006.082031,-8.207264,-10.406989,-11.305223,-8.130150
1006.085938,-7.920440,-2.611126,-4.866147,-0.295553
1006.089844,-6.773033,-0.340870,-13.488968,2.295225
1006.093750,-13.004566,-5.049214,-2.274153,-5.755260
1006.097656,-3.398525,-4.871753,-10.153723,0.746842
1006.101562,2.856571,0.108917,1.854247,2.028430
1006.105469,-1.456316,4.295973,4.682406,5.404337
1006.109375,-3.595237,-0.402754,3.739342,8.972493
1006.113281,12.975366,2.928466,6.206615,5.169078
1006.117188,12.084902,10.056810,3.836342,8.675426
1006.121094,9.911186,9.506692,13.863708,1.885191
1006.125000,11.303954,14.131398,20.537290,6.808043
1006.128906,9.573354,14.121873,8.686284,16.581270
1006.132812,8.337249,12.242534,7.448391,5.259187
1006.136719,8.486912,3.858172,6.148722,1.675180
1006.140625,2.220078,9.895859,12.819907,5.015621
1006.144531,9.786623,9.223290,0.209533,2.873822
1006.148438,-2.045181,-0.007991,-8.110888,-1.866268
1006.152344,-2.175380,1.039210,2.471733,-3.007380
1006.156250,-6.075778,-6.474259,-3.870470,0.759985
1006.160156,-2.051358,-3.648520,-6.479335,-8.923673
1006.164062,-10.584128,-8.304400,-3.819973,-7.497351
1006.167969,-10.337090,-2.982998,-11.738211,-6.588992
1006.171875,-10.537725,-17.001115,-8.823322,-11.484458
1006.175781,-8.537822,-14.869540,-17.211026,-17.587586
1006.179688,-9.052502,-6.452803,-10.153398,-8.888868
1006.183594,-9.295751,-10.629103,-9.771013,-1.401522
1006.187500,-14.294684,-0.314237,-7.904580,-6.997318
1006.191406,5.516458,-11.440011,0.377616,-1.353827
1006.195312,-0.507410,1.302342,-3.764465,-6.837386
1006.199219,-4.952509,-3.613587,9.962273,-0.574316
1006.203125,5.331732,5.128148,8.283658,9.296063
1006.207031,1.419845,5.672605,7.733897,4.951572
1006.210938,6.340416,7.033752,6.171315,13.362150
1006.214844,10.935798,0.803121,3.194141,3.933517
1006.218750,10.179809,5.725733,11.032834,8.916175
1006.222656,9.495690,11.265081,7.609785,13.219359
1006.226562,8.165394,11.560151,11.671213,9.812146
1006.230469,13.662438,13.463952,13.565940,3.542489
1006.234375,15.156422,-1.788141,10.107696,6.533169
1006.238281,9.446885,4.259371,8.895131,16.720982
1006.242188,2.887581,-2.016221,4.537563,0.526507
1006.246094,-1.314500,2.018311,-2.314272,3.156195
1006.250000,0.609526,-2.685470,3.595712,-2.231658
1006.253906,2.889553,0.845966,-9.021041,-5.421790
1006.257812,-0.379070,-2.042994,-10.113067,-4.249517
1006.261719,-2.115218,-5.429518,-6.709691,-5.625150
1006.265625,-6.973334,-5.218115,-5.846715,-7.124625
1006.269531,-4.042924,-6.689409,-1.831329,-14.235916
1006.273438,-12.477900,-10.032815,-16.337382,-7.800365
1006.277344,-16.185258,-7.419144,-13.852771,-2.290816
1006.281250,-11.974925,-16.392142,-8.675363,-9.259415
1006.285156,-11.799110,-8.907309,-8.840774,-19.464427
1006.289062,-9.110265,0.345536,-11.745601,-10.555650
1006.292969,-1.592176,-3.246867,-2.219895,-2.684023
1006.296875,-4.990323,-6.341768,-1.777404,1.433276
1006.300781,3.014384,3.945870,-3.056304,4.518210
1006.304688,2.225464,2.407286,-0.121320,-5.926497
1006.308594,-0.179968,4.633441,5.519386,12.145789
1006.312500,4.598023,5.138515,8.522067,8.815470
1006.316406,8.346728,6.824794,3.711097,10.080344
1006.320312,13.315480,10.915574,3.560122,12.593072
1006.324219,2.075214,11.350086,17.550565,10.184787
1006.328125,8.855487,13.471750,11.036910,15.773390
1006.332031,4.090716,9.132345,13.721341,9.941676
1006.335938,-1.496613,12.745610,7.186961,3.935096
1006.339844,10.931525,1.369183,2.091353,4.901910
1006.343750,11.871388,3.184313,6.872724,7.482779
1006.347656,10.520115,8.061708,1.684883,-1.794003
1006.351562,0.817015,1.302058,-1.595131,-2.048151
1006.355469,3.014601,-4.955054,-6.177102,-0.569029
1006.359375,-9.543079,3.928061,-4.365511,-9.663157
1006.363281,-6.029298,-7.485364,-3.877122,-5.806658
1006.367188,-3.168145,-13.584951,-3.175565,-8.921328
1006.371094,-11.728001,-8.623698,-7.631577,-10.346346
1006.375000,-2.513348,-5.714638,-15.908291,-4.937208
1006.378906,-5.253843,-11.959496,-13.004153,-12.668436
1006.382812,-16.726215,-6.588733,-8.103274,-4.108351
1006.386719,-9.652671,-3.547350,-9.238890,-9.026438
1006.390625,-5.030576,-5.581394,-6.817843,-12.741448
1006.394531,3.763745,2.422874,-3.721890,-8.448363
1006.398438,7.145407,2.045880,-4.919634,-4.389155
1006.402344,2.564607,4.444757,1.538496,2.434417
1006.406250,6.490153,-1.081594,3.180903,6.754460
1006.410156,7.521482,-0.549970,4.295632,8.274113
1006.414062,10.616755,0.332021,1.504555,5.645516
1006.417969,4.498796,11.829217,8.402948,6.516807
1006.421875,12.261726,8.909410,5.313782,11.121272
1006.425781,11.712540,11.953858,14.724364,7.815318
1006.429688,12.057993,10.906628,14.908450,4.383382
1006.433594,1.797113,7.505967,8.292333,9.312448
1006.437500,0.037574,8.358165,-0.172055,9.432580
1006.441406,-2.833486,4.846128,-0.879394,3.478770
1006.445312,0.918329,9.310695,-1.293778,1.767564
1006.449219,5.940843,6.182828,-2.960577,0.287900
1006.453125,0.431401,-3.410481,2.297159,-5.463097
1006.457031,-0.815882,-6.881983,-6.644020,-1.292738
1006.460938,-4.354934,-1.402254,-9.032541,-2.386337
1006.464844,-7.268687,-8.304832,-11.659776,-12.968755
1006.468750,-10.277898,-2.702893,-9.540669,-8.193530
1006.472656,-9.294891,-10.288619,-15.890272,-8.362756
1006.476562,-10.318813,-3.006585,-15.477152,-9.386414
1006.480469,-10.605022,-13.670199,-9.891958,-8.435099
1006.484375,-8.373056,-4.475876,-13.072039,-7.209402
1006.488281,2.011037,-0.461980,-3.161440,-11.259612
1006.492188,-6.824570,-6.393198,-1.615987,-4.880402
1006.496094,-7.628321,3.335596,3.000140,-9.001499
1006.500000,1.717094,2.906517,2.172786,-6.651994
1006.503906,2.069029,2.596163,-0.241015,-0.699293
1006.507812,-1.651311,9.648783,12.862796,2.444849
1006.511719,7.271988,6.458468,6.887638,5.990832
1006.515625,5.379226,0.775008,9.002535,4.912986
1006.519531,10.474897,12.364869,14.281204,-0.672305
1006.523438,7.666521,11.335836,6.288893,7.370646
1006.527344,10.042178,3.146255,18.510067,5.124060
1006.531250,8.789067,9.582317,9.383855,12.164033
1006.535156,3.413790,8.789557,3.989793,14.880749
1006.539062,2.340981,5.158260,-2.408382,8.715965
1006.542969,10.953784,3.590731,5.211498,9.502864
1006.546875,2.921837,4.913579,4.355273,-1.575779
1006.550781,-0.371280,5.180833,-6.492963,-1.245244
1006.554688,-5.512767,-2.739713,-3.800433,-5.435800
1006.558594,-10.415857,-1.836333,-5.459049,-7.694072
1006.562500,-6.220734,-4.657070,-11.999122,-10.188582
1006.566406,-12.476253,-8.584780,-12.641582,-15.478972
1006.570312,-10.111269,-8.959476,-8.894158,-10.625657
1006.574219,-20.698585,-12.167435,-7.785909,-3.210394
1006.578125,-7.864036,-12.296720,-10.701289,-15.596305
1006.582031,-10.927467,-10.619598,-5.956361,-3.993464
1006.585938,-12.557187,-11.744286,-10.092906,-2.914029
1006.589844,-1.006047,1.545322,-8.935216,-10.919376
1006.593750,-6.149381,-3.815931,-1.304847,-5.930313
1006.597656,-2.014027,1.412043,0.622108,-7.758754
1006.601562,8.269425,1.905708,-3.662678,-1.634668
1006.605469,6.185426,-2.093264,-2.235918,4.897786
1006.609375,-4.522798,7.459716,1.675240,6.100395
1006.613281,6.128096,6.754358,2.612694,3.455414
1006.617188,11.645294,11.276406,9.718481,9.771759
1006.621094,15.222788,16.447809,6.367846,9.357792
1006.625000,1.786804,3.389351,3.414618,16.595062
1006.628906,10.395897,6.787604,10.989856,1.842125
1006.632812,5.564608,9.373096,12.117112,6.330742
1006.636719,9.077128,4.409916,3.295232,4.495099
1006.640625,5.523428,0.826149,2.802930,10.496471
1006.644531,4.951829,5.741811,4.968642,-2.591376
1006.648438,-1.323298,-0.694983,2.202034,11.815821
1006.652344,1.793701,-6.169562,-7.671921,-0.462010
1006.656250,0.325620,-6.705568,-0.909804,-2.456711
1006.660156,-8.464682,-3.268898,-4.292867,-0.749178
1006.664062,-13.350597,-9.003723,-5.535143,-7.873181
1006.667969,-12.506001,-5.222332,-8.200020,-5.079271
1006.671875,-10.824768,-8.972637,-5.167645,-5.466273
1006.675781,-10.824278,-4.808128,-13.361460,-14.129306
1006.679688,-0.465257,-5.335962,-6.912645,-10.472140
1006.683594,-3.702994,-2.897053,-11.763515,-7.728377
1006.687500,-3.713130,-8.223648,-7.764135,-9.617072
1006.691406,-1.233985,-1.269360,-5.234583,0.408015
1006.695312,4.328841,-6.045016,-2.450486,-9.722563
1006.699219,-4.683666,3.510843,-2.196897,0.473949
1006.703125,-4.040370,1.328540,-9.479539,14.450033
1006.707031,13.080903,4.757705,0.536949,4.559055
1006.710938,5.045909,-8.024852,10.071587,8.109884
1006.714844,11.292630,3.603537,7.367180,6.318199
1006.718750,8.217257,3.342851,8.994925,13.216204
1006.722656,10.316052,10.247873,11.177975,19.892752
1006.726562,12.246240,4.311689,13.342972,14.922785
1006.730469,9.156872,13.958447,10.419331,8.721362
1006.734375,9.787636,8.105185,2.252611,9.327751
1006.738281,12.318314,7.675655,8.669070,9.099163
1006.742188,4.835136,2.438141,2.980981,0.624565
1006.746094,1.799216,6.270342,2.591400,2.658159
1006.750000,2.479117,0.934632,0.949465,2.848559
1006.753906,-6.252549,-7.775847,2.109671,-7.738910
1006.757812,-1.454340,-4.616460,-3.041854,2.429832
1006.761719,-3.384888,-4.769555,-3.012961,-2.115296
1006.765625,-7.317211,-8.253336,-7.155989,-5.569850
1006.769531,-13.394129,-6.576159,-9.889517,-5.775878
1006.773438,-7.944044,-11.733850,-13.401004,-10.270259
1006.777344,-9.457231,-11.689425,-9.267886,-11.190395
1006.781250,-5.888436,-10.396084,-7.757652,-4.589105
1006.785156,-11.504027,-6.638717,-18.108728,-2.616016
1006.789062,-8.515779,-4.061740,-2.160050,-5.922395
1006.792969,-0.602623,-7.824990,-3.616451,-11.044289
1006.796875,-4.669700,-5.554420,-5.529937,4.601963
1006.800781,1.797709,2.749208,5.304043,2.680419
1006.804688,0.567480,1.087431,1.320422,1.838575
1006.808594,11.252361,10.806088,4.920618,8.071995
1006.812500,4.376062,4.055546,4.090361,4.386220
1006.816406,12.272575,11.339710,7.510700,12.347265
1006.820312,12.708853,10.123435,12.423258,5.625333
1006.824219,5.996637,14.080056,11.693255,14.102233
1006.828125,13.300300,14.387409,1.874411,15.894627
1006.832031,8.598152,13.698011,13.801426,8.977828
1006.835938,5.702142,4.783854,6.564433,12.676328
1006.839844,8.275738,4.510909,11.573884,5.396254
1006.843750,6.367159,2.106635,3.013539,3.814930
1006.847656,4.634807,1.151499,0.162203,5.273489
1006.851562,-2.226741,0.694637,4.440189,-4.242676
1006.855469,0.565134,0.333139,-0.093954,-2.010394
1006.859375,-11.317264,-10.946167,-9.613583,-4.832023
1006.863281,-12.337705,-4.185072,-6.006773,-5.105041
1006.867188,-14.082794,-14.851303,-5.202923,-15.527454
1006.871094,-9.962650,-16.235241,-9.038187,-8.898801
1006.875000,-13.212901,-11.352899,-5.695297,-14.838044
1006.878906,-1.144389,-10.429472,-6.422967,-8.417867
1006.882812,-8.495929,-2.670951,-7.732279,-14.289993
1006.886719,-4.755546,-6.134752,-6.493196,-6.425109
1006.890625,-7.924387,-8.364041,-6.422876,-2.393720
1006.894531,-0.042672,-1.663138,-2.802792,-3.394165
1006.898438,-2.810092,1.517396,-1.032767,-1.426009
1006.902344,0.330703,1.719002,2.269116,-0.356025
1006.906250,3.433635,3.787761,2.330666,4.553042
1006.910156,7.833284,3.455098,8.452808,2.104148
1006.914062,10.370513,8.615395,2.632802,9.400581
1006.917969,8.419238,8.354364,10.168888,9.186734
1006.921875,14.049444,14.291894,8.313713,13.815951
1006.925781,10.839424,9.440109,18.919004,6.088976
1006.929688,11.176905,5.256842,7.948926,11.820219
1006.933594,10.069066,7.340022,8.605737,9.267478
1006.937500,3.666846,0.964427,4.219827,9.701971
1006.941406,5.648677,-0.765204,5.342277,10.999992
1006.945312,3.833124,0.375973,0.729345,9.475185
1006.949219,-4.026518,-1.883773,4.805783,-3.409413
1006.953125,-0.418409,7.210311,-4.185660,-2.018434
1006.957031,-1.496391,-6.772724,0.376722,-12.059138
1006.960938,-4.534535,-4.834892,-7.887142,-2.050227
1006.964844,-9.271651,-6.480070,-7.318702,-19.118389
1006.968750,-2.385533,-7.867231,-6.512561,-8.126744
1006.972656,-8.688833,-15.581724,-6.961613,-10.464838
1006.976562,-4.910293,-11.049788,-9.385765,-3.656924
1006.980469,-10.626497,-10.182660,-3.329081,-14.411294
1006.984375,-5.855077,-2.886087,-2.531531,-10.076423
1006.988281,-5.071767,-8.689002,-13.412580,-8.922526
1006.992188,-8.617671,-6.250792,0.047319,-2.590791
1006.996094,-8.725464,-2.649556,1.439110,-8.227109
1007.000000,1.264061,6.899205,3.797579,6.005769
1007.003906,0.493311,2.564053,4.831181,-2.570923
1007.007812,1.821348,4.267517,-2.462768,9.570029
1007.011719,11.710816,4.237287,1.125240,5.802794
1007.015625,11.851334,5.675586,1.672587,16.912872
1007.019531,12.888993,5.782462,12.809431,10.203311
1007.023438,7.506682,14.012613,6.119067,8.389838
1007.027344,14.091786,17.572059,15.260959,7.142720
1007.031250,15.258466,1.388319,10.862611,10.930398
1007.035156,8.079168,9.846242,9.509578,7.534662
1007.039062,9.263764,2.796576,15.488218,7.936640
1007.042969,-2.261209,3.588792,4.387822,-1.354885
1007.046875,3.608939,1.884043,-0.726372,11.873497
1007.050781,-3.102120,3.748479,1.680068,6.148984
1007.054688,-2.315255,-2.537878,-7.712578,-3.392835
1007.058594,1.392671,6.480617,-6.455656,-2.866430
1007.062500,0.320910,-10.473031,-8.810893,-2.415373
1007.066406,-8.886236,-6.015666,-5.423359,-4.881987
1007.070312,-14.124857,-21.924948,-6.163075,-7.376281
1007.074219,-9.395418,-7.072196,-5.510196,-15.840529
1007.078125,-8.156438,-3.890744,-14.479692,-9.448462
1007.082031,-11.376062,-10.910231,-3.136586,-7.800241
1007.085938,-4.384010,-4.798837,-4.655151,-12.438864
1007.089844,0.461101,-4.347397,-8.152862,-11.147728
1007.093750,-1.926300,-3.189146,-4.914681,-6.895308
1007.097656,-7.364382,-2.279900,4.237962,-0.071362
1007.101562,5.199754,4.968370,-5.202685,-1.466470
1007.105469,4.157779,10.513131,-0.704884,-2.199149
1007.109375,3.592882,0.812389,5.983525,3.533051
1007.113281,9.949445,8.323504,10.589713,8.824579
1007.117188,8.594044,9.940093,4.370783,8.105258
1007.121094,11.506425,13.230572,11.731475,1.399246
1007.125000,13.673359,8.120860,4.270338,5.452851
1007.128906,13.746887,1.381947,7.932971,13.400475
1007.132812,9.500875,10.940825,3.751631,7.831669
1007.136719,0.901043,8.918814,4.441092,0.560966
1007.140625,-5.945742,13.320282,8.585746,6.868466
1007.144531,-1.014681,3.619297,-1.868236,1.020618
1007.148438,-8.534841,3.220756,3.079304,-4.149703
1007.152344,7.039314,-1.200427,-6.016104,-2.986336
1007.156250,-1.986781,-3.362774,-4.658485,-4.778296
1007.160156,0.838211,-6.466699,-11.362698,-6.652099
1007.164062,-2.948431,-7.030471,-6.572236,-7.658021
1007.167969,-10.679630,-7.322006,-14.366679,-9.736208
1007.171875,-10.350520,-14.267392,-9.612165,-8.986198
1007.175781,-15.660197,-11.888044,-10.950093,-7.372662
1007.179688,-10.165658,-11.449745,-11.507612,-10.626202
1007.183594,-8.139513,-12.612726,-9.208152,-12.235573
1007.187500,-11.157764,-9.425267,-9.791337,-4.765195
1007.191406,-7.043615,-2.823421,-3.824213,-3.582096
1007.195312,-3.806916,4.293211,-5.622029,-4.293528
1007.199219,1.178834,-2.288168,0.319461,-0.913079
1007.203125,2.049954,5.827558,-1.705448,-0.858194
1007.207031,2.480540,5.563509,0.768763,2.503762
1007.210938,1.083382,7.346746,2.300571,10.653301
1007.214844,9.367052,9.880125,9.966493,2.743222
1007.218750,11.514882,4.536794,8.743971,9.608399
1007.222656,12.099372,8.398396,11.403796,12.127542
1007.226562,13.649295,15.955505,9.359282,3.251135
1007.230469,12.164058,15.083184,7.212889,12.456278
1007.234375,9.273195,13.133922,4.096745,6.172778
1007.238281,0.174669,9.786511,0.095622,5.088157
1007.242188,6.738691,8.995634,4.002944,4.232703
1007.246094,1.147859,0.173051,3.170831,5.023495
1007.250000,6.660395,-0.795068,8.259724,-3.886705
1007.253906,-7.103836,-4.591283,-7.446511,-10.550554
1007.257812,-2.557234,-4.082829,-1.240760,-1.959287
1007.261719,-5.146705,-12.533416,-2.866293,-7.577547
1007.265625,-12.950276,-11.865922,-7.152512,-2.495545
1007.269531,-10.730034,-7.702702,-15.405407,-7.328625
1007.273438,-21.621476,-17.663780,-10.345525,-3.211439
1007.277344,-11.674032,-15.480879,-10.293953,-11.847103
1007.281250,-2.550458,-8.994010,-6.345588,-6.786631
1007.285156,-12.785237,-7.446692,-10.059590,-11.252737
1007.289062,-9.513592,-4.830074,-5.498208,-7.350880
1007.292969,-0.044792,-4.565577,-4.422080,-2.342341
1007.296875,-9.397896,0.736345,5.442506,-1.586391
1007.300781,-4.717046,-8.620973,-9.043004,5.050854
1007.304688,-3.532388,4.082835,0.765381,6.913459
1007.308594,5.738428,4.939865,5.991540,6.187898
1007.312500,7.223048,11.585939,13.505641,18.692558
1007.316406,5.525342,8.521282,0.173690,16.941493
1007.320312,1.755361,5.451504,8.097769,8.126815
1007.324219,17.222075,0.569049,14.491686,10.058996
1007.328125,14.774292,7.562636,5.679654,12.467961
1007.332031,2.456549,7.191758,8.695891,8.400972
1007.335938,-3.626661,2.191262,5.675322,6.996625
1007.339844,8.918361,5.751056,7.364482,7.654336
1007.343750,4.803960,7.061803,-0.490477,6.789117
1007.347656,3.434490,8.234751,-1.514789,-3.093233
1007.351562,-6.789959,0.096904,1.548643,1.309503
1007.355469,-8.685088,-2.636772,0.370226,-2.333388
1007.359375,-1.698478,-8.308551,-4.471403,-10.017101
1007.363281,-8.131524,-5.002655,-16.053793,-7.287877
1007.367188,-8.212459,-0.520796,-11.677102,-9.192235
1007.371094,-2.148325,-15.647668,-16.167095,-1.870621
1007.375000,-6.957898,-7.595920,-10.657857,-12.705600
1007.378906,-7.904357,-5.448723,-8.801044,-11.864911
1007.382812,-10.646267,-11.395514,-13.864382,-6.141489
1007.386719,-11.302345,-12.456698,-6.095719,-18.349878
1007.390625,-2.908211,-6.385106,-2.958126,-10.403802
1007.394531,-1.612957,-6.294887,-5.748314,0.496775
1007.398438,-3.473796,4.869701,2.522747,-3.839534
1007.402344,2.019458,-1.564336,4.230432,4.425245
1007.406250,4.792720,-4.678917,0.191059,4.721157
1007.410156,5.392509,9.491478,3.500299,1.993152
1007.414062,7.144624,13.186671,6.453854,0.799790
1007.417969,13.689578,10.845973,10.219806,8.848415
1007.421875,10.128182,12.217644,10.440354,11.409973
1007.425781,16.091452,7.042725,3.521801,11.792918
1007.429688,2.676332,11.870843,4.576000,18.596705
1007.433594,6.334329,13.442853,12.342232,7.274427
1007.437500,8.745103,6.428626,10.880449,4.408184
1007.441406,8.369851,5.157876,6.191501,1.847227
1007.445312,2.932968,-0.643101,-2.182013,3.350608
1007.449219,-2.281212,-4.901512,6.454561,2.043675
1007.453125,1.518964,-0.626404,0.346250,-3.694990
1007.457031,-5.648807,-1.585844,-1.823095,4.336822
1007.460938,-3.692423,-6.763664,-4.901814,-8.000182
1007.464844,-6.622735,-8.422040,-3.376969,-9.896887
1007.468750,-15.228784,-15.014180,-12.054753,-7.893202
1007.472656,-8.079597,-9.968654,-4.804091,-7.200098
1007.476562,-9.282874,-10.813836,-4.700732,-8.184810
1007.480469,-9.137742,-5.210427,-12.237412,-10.508477
1007.484375,-4.383979,-9.391291,-12.278477,-9.411095
1007.488281,-7.074788,-13.301988,-7.995767,-3.230288
1007.492188,3.990392,-12.730353,1.157408,-1.195100
1007.496094,-0.405547,-3.748391,0.114713,2.184197
1007.500000,2.380625,0.120657,2.036343,-2.610744
1007.503906,3.273509,1.085579,8.555775,-0.552771
1007.507812,-0.844807,3.964922,5.845773,12.465621
1007.511719,9.326292,3.847616,6.079873,10.123085
1007.515625,12.506976,16.352056,8.496015,9.414170
1007.519531,13.639339,9.867279,8.019889,15.287280
1007.523438,16.719627,10.883933,4.508507,9.088695
1007.527344,6.771303,6.555569,8.493993,9.511273
1007.531250,9.735753,12.356093,10.838231,5.302838
1007.535156,9.406287,9.135408,11.594734,12.285206
1007.539062,12.658190,4.875760,11.931885,9.416826
1007.542969,7.269243,-1.047505,-0.640696,-2.760149
1007.546875,3.838166,-1.803026,1.670662,5.381980
1007.550781,1.228332,1.736032,-9.162582,-1.874332
1007.554688,4.410345,-5.289140,-4.388625,-2.916614
1007.558594,-8.375165,-0.347148,-5.318256,-1.897334
1007.562500,-5.766031,-11.406686,-12.309974,-2.530140
1007.566406,-8.922776,-2.714033,-10.054697,-9.511693
1007.570312,-14.988762,-12.534879,-13.312607,-5.895942
1007.574219,-10.629729,-11.357545,-11.268431,-4.873471
1007.578125,-10.351521,-17.482842,-16.196607,-3.776581
1007.582031,-4.916432,-14.065335,-15.856424,-8.254691
1007.585938,-6.481023,0.128704,-14.424263,-5.460426
1007.589844,-12.683988,-3.304639,-8.532570,-1.362946
1007.593750,-7.880368,-9.706226,-5.536766,-4.481028
1007.597656,-1.081680,-2.076943,-1.555708,0.758313
1007.601562,10.033210,1.014247,-5.313684,-0.459794
1007.605469,1.053508,0.906356,2.036150,1.681918
1007.609375,2.990530,0.426784,-3.594107,7.514562
1007.613281,11.459597,4.462642,12.992846,4.857849
1007.617188,4.717212,11.903179,12.483538,11.531174
1007.621094,2.648429,7.797355,13.311285,9.917447
1007.625000,1.917969,15.691582,12.903043,2.862428
1007.628906,7.011690,12.870766,9.343748,15.248271
1007.632812,7.107345,9.538075,5.039183,7.249541
1007.636719,7.159243,10.139788,13.287986,7.844541
1007.640625,2.602430,1.011418,3.638084,3.201736
1007.644531,4.814222,1.226610,-1.791494,10.077425
1007.648438,0.454050,-0.238627,2.525543,-4.446985
1007.652344,-0.672751,-5.761527,1.322218,6.157125
1007.656250,1.454984,-1.233185,-7.866270,1.260639
1007.660156,-6.022863,-5.634088,-9.400851,-4.566122
1007.664062,-14.563049,-8.679511,-3.618116,-8.733359
1007.667969,-1.636037,-6.933042,-8.101256,-8.233278
1007.671875,-11.619386,-8.829345,-12.698493,-15.893004
1007.675781,-8.858310,-7.333200,-7.083238,-15.827339
1007.679688,-13.796980,-12.956273,-9.708656,-12.887670
1007.683594,-14.976644,-4.350202,-14.401741,-2.645057
1007.687500,-8.252809,-6.751098,-7.488215,-9.061691
1007.691406,-5.334543,-9.931037,-11.154981,0.801922
1007.695312,-6.502027,-2.157806,-3.198354,-4.933410
1007.699219,-4.314698,2.878139,0.660107,-1.153468
1007.703125,3.481638,3.618775,1.029923,2.754535
1007.707031,5.987344,9.435502,0.359483,6.856274
1007.710938,4.464513,6.711862,9.260934,-4.581050
1007.714844,10.851627,9.960125,12.526714,8.408539
1007.718750,11.446654,10.867521,7.327764,12.936760
1007.722656,5.503164,10.870796,11.068487,11.856240
1007.726562,14.748396,13.978568,21.368903,16.995803
1007.730469,14.206946,7.212259,9.891751,11.783051
1007.734375,10.346669,4.298356,5.464401,11.330100
1007.738281,4.184691,2.850718,9.963272,6.740645
1007.742188,4.594382,5.067578,16.302206,6.371776
1007.746094,1.556661,0.960147,6.672764,1.053212
1007.750000,-7.125168,2.105300,0.821762,-4.958468
1007.753906,1.341665,-1.511493,-4.968811,-3.990521
1007.757812,-9.882331,-4.419531,-5.893075,-8.351968
1007.761719,-11.170425,-7.349689,-9.548870,-1.039588
1007.765625,-5.570300,-6.592195,-15.463034,-3.148000
1007.769531,-4.909980,-12.429528,-9.290639,-8.148758
1007.773438,-1.691012,-13.022063,-7.290667,-11.081371
1007.777344,-10.811720,-6.753644,-10.640778,-10.981405
1007.781250,-8.937353,-14.688273,-11.687128,-9.944902
1007.785156,-8.638197,-12.828569,-12.628264,-18.829107
1007.789062,-6.338770,-2.995886,-6.203995,-6.651223
1007.792969,0.741292,-1.220470,-2.252824,-6.204045
1007.796875,-3.871208,2.736480,-0.138969,-2.652467
1007.800781,3.575713,4.332908,-2.339025,4.205199
1007.804688,2.813739,6.676551,5.033873,3.724950
1007.808594,5.660889,4.932887,-1.228159,8.174246
1007.812500,8.637713,5.455887,8.135106,6.269835
1007.816406,3.344704,14.480796,13.520728,11.099648
1007.820312,5.436727,7.352441,9.163520,7.126271
1007.824219,13.908485,8.551951,6.117076,10.322261
1007.828125,10.676539,6.245395,14.638003,17.072605
1007.832031,6.844954,11.697407,4.387140,9.820584
1007.835938,6.687399,2.845743,0.265748,2.137488
1007.839844,1.715275,7.306817,5.596478,6.745486
1007.843750,-3.525616,-4.900820,-5.799749,4.519618
1007.847656,0.849853,7.531234,10.917502,-1.314972
1007.851562,4.045221,2.741566,-1.667940,0.050572
1007.855469,0.513864,-3.659339,-3.701737,-0.055269
1007.859375,-7.788059,-6.928210,-7.066377,-2.116108
1007.863281,-2.824922,-10.732330,-6.733236,-11.436224
1007.867188,-2.814551,-14.877884,-11.597400,-13.452304
1007.871094,-8.777756,-10.584873,-1.831485,-10.265478
1007.875000,-9.444096,-13.014174,-9.748729,-8.012337
1007.878906,-5.898420,-10.199820,-10.925868,-8.251712
1007.882812,-5.708319,-4.778930,-12.237473,-8.197178
1007.886719,-14.049629,-2.898987,-5.222396,-5.931406
1007.890625,-3.134455,-3.244124,-8.881581,-2.863230
1007.894531,1.893336,-2.643425,-4.402256,-1.467018
1007.898438,-2.240249,-1.506394,2.077043,-0.760955
1007.902344,2.732259,3.279481,2.199933,2.664869
1007.906250,7.031692,8.206963,-0.066277,10.623579
1007.910156,3.637256,3.186425,9.053157,4.147685
1007.914062,2.706813,4.025080,2.949124,4.319230
1007.917969,11.387164,11.876338,12.943986,6.138237
1007.921875,13.051399,9.332687,7.281524,4.623846
1007.925781,10.524541,11.129495,17.930628,6.868126
1007.929688,8.694305,7.176050,12.404817,8.939328
1007.933594,8.961142,3.336449,7.307375,13.066813
1007.937500,5.608555,12.423410,3.922053,7.844315
1007.941406,3.549812,5.157039,5.996547,0.447403
1007.945312,3.772490,6.920147,6.941596,-5.429396
1007.949219,4.257880,-1.725272,-2.641804,2.728885
1007.953125,-1.814232,-8.840471,-1.580624,4.932908
1007.957031,-7.293372,-6.011717,-5.705804,-8.989895
1007.960938,-8.578294,0.082344,-7.772470,-1.736485
1007.964844,-14.186883,-11.644137,-13.706566,-6.492519
1007.968750,-9.758114,-8.308387,-5.479962,-6.284571
1007.972656,-13.052929,-8.352203,-8.987624,-15.306064
1007.976562,-5.270304,-10.382653,-11.129748,-8.158713
1007.980469,-9.947908,-12.415346,-8.417966,-4.269498
1007.984375,-12.254531,-10.525635,-18.806508,-13.205498
1007.988281,-0.055643,-1.721982,-5.641778,-7.332431
1007.992188,4.958798,-6.262846,-4.625430,-7.595445
1007.996094,-4.658997,3.350600,-2.908946,-6.165727
1008.000000,-8.075464,-2.007593,3.659042,-6.626480
1008.003906,3.557683,7.002547,-2.911494,4.211417
1008.007812,2.676577,3.112605,2.992037,-4.346210
1008.011719,6.851750,14.557610,1.965748,8.565093
1008.015625,12.365963,8.430618,15.372330,6.658701
1008.019531,16.502173,2.829832,11.228037,12.917619
1008.023438,5.695710,3.403118,8.586159,8.306650
1008.027344,4.986396,8.310225,10.385202,3.229970
1008.031250,17.379650,9.112512,6.779433,16.631829
1008.035156,7.506701,-0.260770,11.474741,9.615946
1008.039062,1.143535,-1.453015,-1.082212,5.774598
1008.042969,4.027483,4.054189,3.095445,8.611038
1008.046875,12.663298,-0.285265,9.813023,4.027828
1008.050781,-1.092844,-2.425127,-0.991182,0.006824
1008.054688,-6.778231,-2.822774,-3.054132,-0.013525
1008.058594,-5.882744,-1.694441,-3.861663,-7.850958
1008.062500,-6.604734,-7.864010,-0.806151,-13.054513
1008.066406,-9.611693,-12.729730,-6.527154,-12.558381
1008.070312,-6.852937,-8.603661,-10.527122,-6.739941
1008.074219,-17.353395,-14.804201,-7.534008,-14.306569
1008.078125,-6.151280,-16.484237,-14.349055,-8.199584
1008.082031,-4.151165,-14.330418,-5.003531,-4.230262
1008.085938,-17.318548,-4.619907,-11.311308,0.565989
1008.089844,-7.407374,-1.566904,-6.184897,-1.850860
1008.093750,-7.075973,-1.416039,-12.110827,-8.292685
1008.097656,3.016771,-3.617816,-2.430049,2.125153
1008.101562,0.693880,0.216012,4.622454,-1.700308
1008.105469,-0.188631,4.551212,1.255364,3.248309
1008.109375,5.883768,0.852846,11.263054,7.664870
1008.113281,6.646742,10.184907,15.351988,5.492736
1008.117188,19.580123,8.006889,7.537539,10.928583
1008.121094,7.961306,15.004732,5.124246,13.383013
1008.125000,5.401190,12.631736,7.777409,10.565683
1008.128906,6.648654,13.978292,14.618890,8.805609
1008.132812,7.075776,15.070123,8.782815,15.678317
1008.136719,4.310137,9.981385,4.019712,9.176088
1008.140625,2.649472,9.050579,8.617009,11.335030
1008.144531,1.786772,3.908895,-0.571743,4.541628
1008.148438,-1.574702,-1.391998,0.360445,-3.893259
1008.152344,-3.128495,-3.202145,5.046052,-1.961215
1008.156250,3.682479,-0.006554,-1.027528,-7.057870
1008.160156,-14.557856,-6.914279,-5.391189,-2.230102
1008.164062,-7.504374,-5.981171,-6.103623,-14.001954
1008.167969,-7.716757,-13.173966,-3.904889,-8.850943
1008.171875,-5.779039,-17.925598,-11.123363,-4.842934
1008.175781,-12.473237,-17.688041,-9.142783,-8.441562
1008.179688,-9.542389,-10.102798,-10.715521,-12.145591
1008.183594,-14.526720,-10.411194,-6.208080,-10.925742
1008.187500,-8.340192,0.079694,-14.650314,-10.142457
1008.191406,-10.526487,0.169555,-4.041442,-6.982961
1008.195312,0.478364,-5.060656,-4.178273,-8.481617
1008.199219,-6.482728,1.953097,2.402520,5.206851
1008.203125,2.484353,6.654860,-0.922688,0.088711
1008.207031,7.020094,1.854685,4.266373,1.230351
1008.210938,5.411692,5.142565,0.543665,4.674985
1008.214844,9.081847,5.896923,13.060860,9.983862
1008.218750,11.712867,-0.072249,2.198900,17.880883
1008.222656,4.121288,9.413155,11.124253,8.813780
1008.226562,20.428561,13.444792,6.436721,7.091575
1008.230469,13.059248,11.151069,15.232578,9.238191
1008.234375,3.091386,5.603242,5.428288,9.275621
1008.238281,13.874010,6.234292,6.279817,10.615911
1008.242188,6.272666,10.500283,8.794234,2.866331
1008.246094,-3.904743,9.710050,3.890008,5.608636
1008.250000,-1.842994,4.462425,3.877395,-6.146571
1008.253906,-5.985776,-4.229911,-7.304829,1.914196
1008.257812,-3.589346,-4.014494,-3.164162,-4.308196
1008.261719,-10.912280,-6.755051,-4.090468,-11.210478
1008.265625,-4.518878,0.924081,-6.231568,-5.994755
1008.269531,-8.742899,-5.522789,-7.217539,-16.927898
1008.273438,-1.360567,-9.146465,-10.367762,-5.518058
1008.277344,-11.549623,-8.075668,-12.268065,-4.427107
1008.281250,-13.502179,-11.008892,-9.056240,-5.236449
1008.285156,-10.998551,-5.768567,0.812430,-9.958004
1008.289062,-4.681337,-6.187527,-5.500692,-3.718624
1008.292969,-5.276079,-12.390935,-1.746214,-5.176741
1008.296875,-0.530474,-7.571874,1.396447,-3.559379
1008.300781,1.765171,-2.973133,3.879252,1.298102
1008.304688,6.633618,2.640715,1.222778,2.486382
1008.308594,0.516865,14.840707,9.259410,6.794733
1008.312500,7.993818,12.640622,15.567321,1.373578
1008.316406,12.063332,11.246496,4.541193,7.222810
1008.320312,-3.294617,6.702636,9.446196,11.485333
1008.324219,7.190509,8.445663,12.668849,6.525566
1008.328125,5.725092,7.362957,9.357142,9.105912
1008.332031,12.842851,12.204201,13.661692,6.381298
1008.335938,8.803511,2.580209,10.724720,7.798343
1008.339844,-0.722254,6.905474,6.327160,5.581858
1008.343750,-0.788309,5.263147,4.304128,-1.462045
1008.347656,3.876228,8.802418,-3.190618,-2.234684
1008.351562,0.606413,-2.717193,3.233797,-9.209990
1008.355469,-3.954322,-3.106585,0.014517,-0.937933
1008.359375,-6.029110,-7.117522,-3.577838,-5.390756
1008.363281,-16.235266,1.190036,-18.445014,-9.211947
1008.367188,-16.334602,-6.973289,-11.034929,-20.231223
1008.371094,-9.006978,-15.486009,-11.302349,-6.149685
1008.375000,-8.003534,-8.947086,-10.290672,-10.633125
1008.378906,-16.314000,-3.905165,-13.383949,-18.024441
1008.382812,-11.501348,-3.808545,-7.785932,-5.210718
1008.386719,-11.354234,-5.828110,-7.260967,-5.979939
1008.390625,-5.578553,-10.924785,-3.125900,-8.955850
1008.394531,-2.158994,-6.756968,-5.231209,-0.674370
1008.398438,0.008573,-0.763747,-4.234968,-2.947191
1008.402344,0.138917,2.642124,-2.046329,5.156804
1008.406250,9.577897,5.281326,0.095770,3.830208
1008.410156,15.154784,1.999262,2.553167,3.751815
1008.414062,9.910075,9.162624,5.284899,12.320373
1008.417969,9.642103,6.719751,15.388035,0.242347
1008.421875,1.189589,9.497146,12.948411,2.102412
1008.425781,6.239848,17.349980,18.650273,4.580644
1008.429688,12.181228,9.250462,4.646212,13.444170
1008.433594,10.823953,7.329615,12.623240,7.521031
1008.437500,2.305915,9.486022,6.430989,13.690872
1008.441406,5.915085,9.227793,5.305393,7.547773
1008.445312,5.538563,0.157950,5.644752,6.361242
1008.449219,0.815929,5.101783,1.262377,-14.362058
1008.453125,-2.006483,-2.777625,-2.093850,-5.894432
1008.457031,-8.067832,-2.964074,-7.427924,-0.315912
1008.460938,-10.812238,0.797178,-8.258402,-2.549432
1008.464844,-6.310873,-11.244988,-8.551831,-8.230777
1008.468750,-9.021267,-11.024207,-13.460929,-4.924459
1008.472656,-7.358895,-14.481547,-10.594052,-10.641871
1008.476562,-16.950744,-9.680113,-7.580162,-8.987755
1008.480469,-6.387582,-3.515050,-8.746714,-10.563257
1008.484375,-1.842786,-10.582829,-6.158570,-9.450028
1008.488281,-7.462203,-2.851048,-1.112839,-9.442426
1008.492188,-8.556773,-6.136563,2.129465,-5.848071
1008.496094,-4.549816,-8.150474,-8.317161,-5.002443
1008.500000,-6.577784,11.747370,-5.977983,-2.182526
1008.503906,-4.075440,5.738931,-5.193174,1.979783
1008.507812,1.935128,-1.291177,-2.267838,9.628650
1008.511719,7.081693,1.782616,9.958021,4.392145
1008.515625,12.847740,5.093713,11.303996,6.783553
1008.519531,6.387988,8.576511,21.227372,15.169947
1008.523438,8.462931,1.879996,17.576899,7.837045
1008.527344,7.921798,10.471496,5.344450,3.664966
1008.531250,8.664514,3.601025,11.818055,12.028255
1008.535156,8.424085,5.325395,5.186692,7.948141
1008.539062,6.180197,4.993873,-0.281050,5.026225
1008.542969,-4.913964,-1.077312,3.966171,11.723656
1008.546875,0.868763,1.174121,0.454947,3.931900
1008.550781,3.914859,-0.348660,1.966614,-3.528909
1008.554688,-4.092974,-9.674080,-4.887192,-8.064846
1008.558594,-4.946622,-0.639405,-4.902343,-10.671940
1008.562500,-5.411300,-5.920397,-2.311119,-5.824792
1008.566406,-8.784083,-3.833022,-4.336426,-12.333458
1008.570312,-12.917536,-11.254549,-16.710670,-1.618662
1008.574219,-12.647201,-16.363072,-8.880997,-13.951760
1008.578125,-15.141767,-7.078573,-11.235808,-9.374542
1008.582031,-10.102128,-9.922890,-6.157268,-5.373173
1008.585938,-5.570584,-2.174154,-11.105433,-2.210812
1008.589844,-6.358987,-7.149690,-6.628552,-9.247792
1008.593750,-8.950617,-1.881526,4.392175,-12.950193
1008.597656,-0.657801,-1.602132,1.062733,-6.425382
1008.601562,-0.104977,-5.622591,-1.273974,1.079511
1008.605469,10.570672,0.874570,1.354461,5.118870
1008.609375,9.174093,1.222357,-1.340953,5.486966
1008.613281,9.926413,10.976382,8.064806,7.831199
1008.617188,14.586452,10.454712,7.982376,12.127939
1008.621094,13.730764,8.874224,5.828011,6.645354
1008.625000,6.265023,8.715577,6.047118,6.788701
1008.628906,12.891444,13.408284,4.967151,12.963023
1008.632812,3.223681,11.940748,11.131979,2.361935
1008.636719,3.776937,8.519047,14.025421,4.314271
1008.640625,7.726422,-0.758176,6.883656,8.263115
1008.644531,-2.972827,2.367224,2.366841,1.965347
1008.648438,-7.972417,4.064394,1.704791,-4.571637
1008.652344,2.751189,-4.510845,-3.283167,-2.976552
1008.656250,-0.843178,-6.824592,0.670011,-4.677807
1008.660156,-3.497969,-9.792251,-9.739662,-5.793385
1008.664062,-10.041306,-4.641857,-9.709747,-4.960446
1008.667969,-9.203900,-9.907118,-11.612071,-11.742064
1008.671875,-9.313902,-13.778227,-7.996143,-10.884576
1008.675781,-12.160654,-5.890002,-8.065227,-10.324965
1008.679688,-15.210036,-7.956948,-5.790299,-8.807729
1008.683594,-10.023978,-12.129602,-6.627400,-13.260265
1008.687500,-12.085742,-10.869113,-10.316911,0.961479
1008.691406,-9.496329,4.906170,0.777256,-3.053363
1008.695312,-1.263217,-0.146623,-0.317252,-4.268596
1008.699219,-5.118118,1.124834,0.734812,-4.067597
1008.703125,-0.491539,0.317769,2.218347,-1.693315
1008.707031,2.489541,11.745195,2.600560,0.538747
1008.710938,2.692232,12.280135,10.651992,1.451320
1008.714844,6.217754,8.512286,15.944470,15.594642
1008.718750,10.785115,7.175492,5.210429,9.677998
1008.722656,12.340958,10.183163,14.728731,5.306207
1008.726562,7.179453,8.772631,5.118461,10.721829
1008.730469,7.981969,14.616223,15.064354,7.943930
1008.734375,7.113902,12.239721,5.805950,18.287548
1008.738281,15.297899,5.540109,-0.903136,12.274026
1008.742188,4.491893,-2.936593,10.492287,10.545705
1008.746094,5.713508,-2.930479,2.803162,2.459705
1008.750000,-2.488360,2.357004,3.346836,-0.673822
1008.753906,-1.281811,1.212231,-4.175893,-6.187183
1008.757812,-1.315260,-5.577078,-11.785822,0.609812
1008.761719,-7.293336,-13.326744,-6.517308,1.974102
1008.765625,-5.921393,-1.537647,-2.713875,-7.781896
1008.769531,-12.748638,-6.900777,-7.385319,-17.523402
1008.773438,-11.005424,-15.165610,-6.896530,-10.375104
1008.777344,-16.743072,-10.649959,-14.058387,-9.964601
1008.781250,-9.736040,-10.555229,-14.050505,-9.310917
1008.785156,-5.618899,-7.721200,-12.130232,0.061345
1008.789062,-5.406728,1.905475,-7.711360,-0.776349
1008.792969,-2.768203,-9.235150,-9.626025,-6.067712
1008.796875,-3.882336,0.073029,-1.406852,1.979679
1008.800781,1.853184,8.376467,7.266208,0.624989
1008.804688,7.134496,2.660626,4.103339,5.633305
1008.808594,8.363216,3.946803,11.600801,2.995993
1008.812500,7.880681,10.486245,8.263836,9.522550
1008.816406,6.972015,16.215154,8.507365,6.860669
1008.820312,4.677737,4.445486,13.875730,11.032253
1008.824219,7.996552,13.729575,17.496117,9.931428
1008.828125,14.632039,9.700880,7.727329,12.979800
1008.832031,9.661240,7.522961,1.442467,9.716329
1008.835938,11.216402,7.986071,9.990234,8.721789
1008.839844,4.542929,5.932105,2.853573,8.430691
1008.843750,7.639608,-0.604653,8.625981,6.384053
1008.847656,-0.193789,-0.270777,-0.584805,-4.069121
1008.851562,-1.510616,-1.755418,1.222631,2.768960
1008.855469,-2.902332,-3.105923,-2.834878,-4.876040
1008.859375,-9.089035,-5.572084,-1.168126,-4.100632
1008.863281,-8.068968,-4.813086,-9.245899,-8.721248
1008.867188,-2.322390,-7.782860,1.412626,-11.158509
1008.871094,-7.117548,-14.516929,-7.342627,-7.369263
1008.875000,-12.935699,-16.498615,-10.445821,-16.728687
1008.878906,-13.136620,-9.923065,-7.836884,-11.527429
1008.882812,-4.802501,-13.870590,-5.032827,-4.962261
1008.886719,-11.739375,1.620920,-3.598696,0.257319
1008.890625,-2.809041,-4.002802,0.628749,-8.283966
1008.894531,-11.857148,-2.837149,-2.357003,-3.587055
1008.898438,-4.151357,-7.437924,-2.739441,-2.882026
1008.902344,4.841525,2.310449,0.559052,9.324907
1008.906250,-1.693921,2.149585,-0.698452,-2.253010
1008.910156,0.119590,0.871507,10.224834,7.795014
1008.914062,9.274200,14.640563,8.132677,6.448445
1008.917969,7.160873,7.275789,1.356207,8.610142
1008.921875,12.276742,16.184692,9.533064,4.736883
1008.925781,14.626850,4.771990,0.071299,12.689858
1008.929688,12.039827,9.608558,8.285129,3.884271
1008.933594,11.796086,2.898408,11.870680,13.382732
1008.937500,4.405180,5.113345,1.368139,12.143749
1008.941406,7.203550,2.642219,-0.269689,5.512553
1008.945312,2.472963,-0.865209,-0.097532,3.117018
1008.949219,-3.530992,1.786975,-9.150525,-0.802728
1008.953125,-8.271028,3.794965,-1.902263,7.317225
1008.957031,-4.427383,1.225694,-9.091635,-0.183908
1008.960938,0.894166,-12.845713,-11.895974,-5.999076
1008.964844,-6.492268,-8.531995,-10.721708,-5.076615
1008.968750,0.890710,-8.141745,-11.259833,-12.430813
1008.972656,-3.533565,-8.575097,-13.703066,-9.844867
1008.976562,-14.679623,-9.336093,-6.545804,-5.745009
1008.980469,-9.000916,-16.600028,-3.456584,-6.323757
1008.984375,-15.758070,-6.023046,-0.582449,-8.904836
1008.988281,-5.467868,-7.966541,-14.104826,-6.132189
1008.992188,-2.923978,1.401134,-9.129704,-6.153492
1008.996094,-2.079908,3.082136,-1.467538,-7.909805
1009.000000,5.608283,0.055051,6.332553,1.076530
1009.003906,5.383827,5.634453,5.246688,0.961211
1009.007812,10.269866,6.989212,6.800661,2.034992
1009.011719,8.794389,0.602142,8.301207,9.735687
1009.015625,13.959792,5.336202,5.329406,0.314107
1009.019531,4.837006,10.265531,7.537558,5.356180
1009.023438,9.202543,14.567192,7.769786,8.116874
1009.027344,13.732322,7.040629,9.460418,3.569934
1009.031250,11.502093,7.905473,8.075517,10.828894
1009.035156,2.968714,0.290545,8.016869,6.151957
1009.039062,8.412483,8.350192,-0.312195,10.075227
1009.042969,-2.659422,2.456934,5.496346,12.055361
1009.046875,1.571223,-4.136254,0.463003,-6.391879
1009.050781,-2.671978,2.310541,0.388519,-0.123525
1009.054688,-1.690234,-5.766268,-0.195012,-6.855175
1009.058594,0.332950,-9.262168,-6.480397,-1.782021
1009.062500,-2.060990,-5.009161,-3.487439,4.734275
1009.066406,-10.275838,-15.368222,-14.376075,-6.414156
1009.070312,-6.601034,-4.526329,-7.744770,-4.200741
1009.074219,-3.737246,-4.745321,-1.258957,-11.978085
1009.078125,-3.491529,-9.612724,-4.577285,-13.003753
1009.082031,-11.506484,-0.021482,-13.760118,0.625605
1009.085938,-8.755394,-7.740470,-7.080093,-7.672536
1009.089844,-8.960697,-6.785264,-3.120869,-5.756633
1009.093750,-6.772140,-5.583863,-7.722173,-3.975781
1009.097656,0.003791,4.983365,-0.595262,-0.059814
1009.101562,7.000422,-3.085431,2.994591,-1.768286
1009.105469,-3.858248,2.074666,4.337566,8.644655
1009.109375,5.741215,4.811742,1.326545,10.233769
1009.113281,8.769508,11.565590,5.441199,5.171223
1009.117188,18.230764,14.488967,8.727044,4.018272
1009.121094,14.653441,10.420569,11.056337,9.658334
1009.125000,5.874075,10.163297,7.296473,14.576475
1009.128906,7.076411,8.565184,13.863681,4.802411
1009.132812,11.376883,6.520830,12.598780,13.386692
1009.136719,5.628924,7.912437,9.743873,13.386660
1009.140625,9.910386,-3.810366,7.813333,10.326735
1009.144531,-0.533809,9.694344,-0.713783,0.162564
1009.148438,-4.843095,-4.578757,-4.389150,3.132541
1009.152344,2.738102,-4.177616,1.524115,4.316006
1009.156250,-7.994818,-3.370379,-7.870808,-4.729803
1009.160156,-2.901967,-6.032969,-9.745756,-4.570118
1009.164062,-10.820752,-4.196718,-4.330939,-9.570970
1009.167969,-10.827876,0.710535,-6.647800,-4.427577
1009.171875,-8.906177,-4.899099,-15.657371,-11.110526
1009.175781,-13.012468,-4.201229,-3.046346,-11.602932
1009.179688,-5.495932,-16.369283,-13.654451,-6.315546
1009.183594,-8.002567,-2.103505,-13.918359,-14.630894
1009.187500,-2.185965,-7.655647,-8.241128,-2.900892
1009.191406,-0.523906,-12.311143,-4.529675,-1.669947
