timestamp,TP9,AF7,AF8,TP10
1000.000000,-2.105439,2.519286,0.149758,-6.241890
1000.003906,6.959840,5.104444,8.304754,8.231827
1000.007812,9.790566,-3.198125,3.198534,-2.861495
1000.011719,4.964138,2.712148,6.839610,1.802655
1000.015625,8.750288,7.887015,10.726613,6.735373
1000.019531,7.031123,4.217487,9.960924,15.268079
1000.023438,6.959414,10.098097,10.890526,10.981116
1000.027344,6.196986,15.390990,9.258258,7.112329
1000.031250,11.091515,5.329143,6.212182,12.237296
1000.035156,9.071369,7.217874,10.588296,7.361928
1000.039062,0.179137,4.730771,12.481669,0.431503
1000.042969,0.237554,-0.923135,7.897423,8.474212
1000.046875,3.871473,7.945164,4.279188,4.821581
1000.050781,-1.860196,5.437608,-3.116475,3.490815
1000.054688,-0.882876,-1.982941,-6.254077,-1.887186
1000.058594,-15.793927,-9.064799,-5.039952,0.866449
1000.062500,-9.176397,-8.994260,-0.907843,-5.238594
1000.066406,-14.545401,-5.103096,-9.544466,-9.392956
1000.070312,-5.730284,-4.430760,-2.748816,-7.574783
1000.074219,-12.416113,-12.339087,-8.095671,-1.821659
1000.078125,-7.224216,-14.623290,-9.460687,-8.376252
1000.082031,-9.677604,-13.080101,-11.258147,-6.648816
1000.085938,-9.504523,-7.818303,-13.563773,-12.034805
1000.089844,-9.013364,-7.801617,-8.168103,-4.761595
1000.093750,-4.868313,-3.100612,-13.348283,-5.948292
1000.097656,-0.672577,-5.151286,-0.550655,-5.252445
1000.101562,0.745717,5.495589,5.971191,-2.432498
1000.105469,11.834513,5.861493,4.834239,3.680926
1000.109375,7.354291,8.643367,8.156771,3.415703
1000.113281,4.946945,8.951127,10.825485,8.146703
1000.117188,6.705200,14.529051,8.044943,7.444795
1000.121094,2.923179,4.796244,9.262857,9.144494
1000.125000,12.807245,6.048468,11.896989,7.641640
1000.128906,7.753263,11.828541,11.961877,11.633975
1000.132812,14.140666,2.119066,8.498398,8.088885
1000.136719,2.059502,9.539132,9.673555,5.465335
1000.140625,1.987036,7.464907,6.494833,3.004615
1000.144531,5.287341,7.179008,7.529881,-0.017647
1000.148438,6.670932,1.912789,10.568864,3.378128
1000.152344,1.017361,-1.501429,-2.578330,2.270480
1000.156250,-0.061729,-11.104011,-0.933473,0.529788
1000.160156,-1.708286,-9.025047,-5.598715,-4.798010
1000.164062,-6.827560,-8.540383,-5.297550,-6.043878
1000.167969,-7.350702,-12.725659,-19.749157,-11.163126
1000.171875,-19.439011,-3.772229,-12.455110,-12.623343
1000.175781,-14.894075,-12.087749,-14.425747,-11.640785
1000.179688,-16.620673,-6.164533,-5.860105,-12.440817
1000.183594,-4.405777,-7.617165,-8.220923,-8.667903
1000.187500,-4.354303,-7.278668,-10.471491,-3.969057
1000.191406,-2.666477,-3.655798,-6.164078,-3.416574
1000.195312,3.474652,-4.219186,-3.951512,-5.481839
1000.199219,9.547241,1.976619,-0.842563,-1.286144
1000.203125,4.718110,1.624772,1.247614,-1.240148
1000.207031,9.773275,5.980675,9.111909,6.476544
1000.210938,7.170438,3.833433,5.898580,8.353779
1000.214844,14.450590,10.124441,8.917503,7.862603
1000.218750,12.149906,9.487683,9.244965,6.034806
1000.222656,12.622786,10.529539,11.868127,10.449016
1000.226562,10.197698,4.243343,6.445541,9.132425
1000.230469,8.346826,9.625671,13.277763,6.712791
1000.234375,0.945876,14.347888,4.540086,12.031143
1000.238281,-0.086546,8.847321,4.115389,5.175835
1000.242188,11.644982,10.068085,4.370410,9.699908
1000.246094,-2.216354,2.934599,-8.308243,2.862169
1000.250000,6.152096,0.185280,0.685864,-2.620214
1000.253906,1.472964,1.069788,-2.365705,-5.891277
1000.257812,0.626265,1.901014,-6.515714,-4.296468
1000.261719,-6.287113,-4.413018,-8.270723,-10.723937
1000.265625,-7.240692,-12.035633,-5.372450,-4.840212
1000.269531,-18.750554,-9.703761,-10.299320,-5.678898
1000.273438,-9.009318,-14.664193,-3.474470,-14.526344
1000.277344,-10.022833,-10.627454,-3.860122,-14.708968
1000.281250,-11.130282,-6.967247,-2.315920,-7.362416
1000.285156,-11.817343,-6.141858,-11.796907,-13.348899
1000.289062,-3.187497,-10.311813,-3.909408,-11.786184
1000.292969,0.563728,-6.860606,-1.889184,-4.584870
1000.296875,3.579036,-0.436716,0.950966,-3.967100
1000.300781,3.485518,-0.230863,0.463748,-4.663188
1000.304688,1.928124,-0.848897,-6.832296,-2.386646
1000.308594,6.552191,5.679026,0.953869,4.979002
1000.312500,10.049094,13.868660,9.499168,4.066556
1000.316406,9.855435,4.216827,3.039924,11.071211
1000.320312,12.600195,6.624751,9.351035,12.181518
1000.324219,7.449997,9.195950,11.669048,10.809454
1000.328125,7.986973,10.847095,8.451323,6.915147
1000.332031,4.319199,8.111407,9.951275,7.824473
1000.335938,7.124726,14.919268,6.041883,10.160289
1000.339844,7.786305,6.289634,2.888564,-1.848298
1000.343750,2.643275,2.808921,4.000806,2.597968
1000.347656,-2.887665,-3.932239,2.389357,2.454397
1000.351562,-1.585665,-0.807360,1.086520,1.412740
1000.355469,-3.097105,-5.254966,-7.129413,-6.364166
1000.359375,-6.071182,-9.881301,-11.291191,-7.210844
1000.363281,-10.140310,-10.105475,-8.494433,-7.733956
1000.367188,-4.233949,-8.803981,-7.815008,-6.358320
1000.371094,-13.154561,-6.327242,-13.475682,-19.658572
1000.375000,-9.583310,-7.204300,-9.115259,-9.143117
1000.378906,-13.415304,-17.550732,-14.146491,-6.799393
1000.382812,-10.125522,-3.693509,-12.721544,-8.082504
1000.386719,-2.698379,-6.900437,-13.723689,-7.843576
1000.390625,-7.766044,-2.482874,-7.120290,-5.054910
1000.394531,-5.922882,-8.772917,-11.591053,-3.935033
1000.398438,4.551687,0.101838,-1.490915,0.554460
1000.402344,8.143812,3.577496,9.559356,7.587626
1000.406250,-0.378094,9.614607,5.925654,6.223884
1000.410156,9.398568,1.734070,3.537696,9.002700
1000.414062,-2.123128,4.543298,2.385418,5.047729
1000.417969,4.678235,12.623228,9.377285,9.676749
1000.421875,18.566970,14.581912,8.049456,10.186959
1000.425781,5.816888,13.124676,15.415467,10.584214
1000.429688,10.584318,11.125291,13.216862,8.753396
1000.433594,6.992463,5.347742,12.353248,11.114144
1000.437500,6.968315,10.208772,6.426121,7.571399
1000.441406,8.282045,6.280047,5.621110,12.276301
1000.445312,7.643903,7.548749,-2.898929,5.613859
1000.449219,-3.289372,-3.895819,-2.800990,-3.612684
1000.453125,-6.878241,-6.419732,-11.874861,-4.690608
1000.457031,-9.745555,-2.585921,-5.949634,-11.470361
1000.460938,-3.524774,-4.102310,-7.389582,-8.869636
1000.464844,-10.123196,-9.795210,-12.950342,-11.230835
1000.468750,-9.507665,-11.835069,-7.636399,-13.494407
1000.472656,-15.442490,-8.946427,-10.653189,-7.162425
1000.476562,-10.622314,-9.250473,-3.829518,-12.855328
1000.480469,-8.969006,-6.771142,-4.064520,-9.062004
1000.484375,-13.339898,-3.318777,-8.413670,-4.414190
1000.488281,-12.496824,-4.071593,-10.730260,-12.649048
1000.492188,-8.448473,-7.442238,-3.014696,-5.185653
1000.496094,-3.939353,-9.478874,-2.651310,1.408937
1000.500000,0.503251,-5.972171,-1.304685,1.570877
1000.503906,5.953364,7.128685,5.853175,-2.800118
1000.507812,8.316280,1.059362,7.321091,2.244569
1000.511719,2.533469,3.822373,10.067257,10.188032
1000.515625,16.326311,5.420472,5.358694,6.286768
1000.519531,4.649560,9.968459,7.461652,7.085837
1000.523438,8.586655,8.274661,11.766473,11.320616
1000.527344,5.977834,5.926235,7.356923,2.660361
1000.531250,11.545624,4.714969,9.209023,3.836227
1000.535156,6.718927,12.808398,2.950500,12.022638
1000.539062,3.282952,6.055775,6.978731,-1.433250
1000.542969,0.649345,9.478205,11.321287,-0.155304
1000.546875,1.216534,3.354226,-0.692919,2.675664
1000.550781,-0.703405,2.551199,-10.484424,0.070433
1000.554688,-0.732805,-2.082102,2.050730,-9.020585
1000.558594,4.759079,-7.529924,-1.339103,-3.889964
1000.562500,-11.386138,-10.914906,-4.601810,-1.685272
1000.566406,-8.338212,-6.144778,-8.753439,-6.507080
1000.570312,-6.739486,-10.564277,-8.251927,-5.132275
1000.574219,-7.309576,-18.374952,-3.668116,-12.418757
1000.578125,-9.731874,-9.925549,-3.181409,-15.783450
1000.582031,-7.802555,-11.660562,-7.795475,-8.631481
1000.585938,-12.678779,-6.865285,-0.584481,-7.616079
1000.589844,-15.304871,-3.898515,-0.461441,-1.067709
1000.593750,-10.560854,-2.725708,-0.771916,1.381631
1000.597656,-2.117745,0.184320,4.356304,-6.718055
1000.601562,2.973774,4.533050,-4.428745,2.582218
1000.605469,-3.237953,1.330133,2.616169,-0.143073
1000.609375,4.514783,1.251265,0.537406,4.846158
1000.613281,7.970553,1.233625,1.966751,10.132001
1000.617188,12.204254,7.501880,9.165723,1.654951
1000.621094,14.664164,13.016934,10.637136,8.016809
1000.625000,11.924058,8.131665,13.275263,10.326678
1000.628906,16.239671,13.077878,9.700267,14.064205
1000.632812,3.844735,11.552460,15.138697,1.775031
1000.636719,3.164956,12.143892,8.602487,8.640906
1000.640625,6.134124,10.819021,-0.365128,7.767019
1000.644531,5.957671,-2.243650,10.572689,9.357053
1000.648438,2.967804,3.272387,-3.976858,0.103731
1000.652344,4.130119,2.297109,-1.219575,1.803391
1000.656250,-4.706440,-0.937371,-5.081109,-5.060599
1000.660156,-3.404661,-7.216287,-5.183374,-3.005708
1000.664062,-7.436750,-9.781848,-12.859520,-10.253409
1000.667969,-7.910618,-10.017908,-15.438025,-10.761215
1000.671875,-6.051829,-11.745535,-8.600650,-12.660069
1000.675781,-16.429942,-11.736561,-11.241051,-9.650273
1000.679688,-15.449475,-3.799315,-6.845065,-9.504291
1000.683594,-2.722747,-7.932383,-9.762350,-6.589285
1000.687500,-9.083702,-8.218053,-6.789524,-5.922727
1000.691406,-1.175319,-5.337738,-5.444485,-3.891189
1000.695312,-10.150184,-13.755325,-3.439531,-5.503713
1000.699219,2.301285,-2.235229,1.535588,5.640458
1000.703125,3.415572,4.118706,5.385732,8.643265
1000.707031,3.588000,4.961123,4.270921,3.445360
1000.710938,7.536605,8.743328,6.084488,-3.030438
1000.714844,9.941492,7.812667,5.960420,11.922184
1000.718750,11.084173,22.241778,11.038902,5.747252
1000.722656,8.020731,10.560585,15.607973,8.581423
1000.726562,12.858749,10.283787,13.297534,8.656854
1000.730469,13.531529,2.133115,8.420981,10.466491
1000.734375,14.597086,7.191944,2.805082,14.883002
1000.738281,4.259682,9.366225,9.689644,11.384973
1000.742188,5.021420,-0.691522,4.381418,3.701788
1000.746094,4.801268,7.407667,-6.606462,-2.172918
1000.750000,2.942445,0.023005,-1.307370,-4.753485
1000.753906,-10.645148,-0.482263,-7.531484,-10.733627
1000.757812,-0.709900,-0.725262,-7.246489,-0.588074
1000.761719,-6.634847,-6.296545,-9.227220,-7.151387
1000.765625,-17.007059,-9.848871,-2.712071,-4.311835
1000.769531,-4.953001,-7.665674,-6.847980,-5.087991
1000.773438,-10.343180,-13.445551,-5.771123,-6.732373
1000.777344,-3.128606,-13.028546,-10.341878,-14.941953
1000.781250,-16.571098,-9.377963,-10.529166,-2.029782
1000.785156,-1.037490,-11.735279,-7.030408,-9.370111
1000.789062,-9.388631,0.729510,-1.185328,-8.684610
1000.792969,-10.955561,-8.072168,-1.342138,-9.542811
1000.796875,4.872607,-1.503758,-0.458463,-1.604169
1000.800781,-2.117393,1.120913,-1.990303,2.890632
1000.804688,-1.988439,2.316008,2.697391,7.691707
1000.808594,-1.124776,-0.027198,6.432258,4.985446
1000.812500,7.759667,4.784981,5.733983,6.241205
1000.816406,3.913704,15.975252,2.681256,7.242200
1000.820312,2.794463,7.409494,9.599754,15.003661
1000.824219,2.924293,12.523788,9.796162,4.791762
1000.828125,7.678070,10.358348,10.850971,9.305199
1000.832031,4.052076,9.248729,8.546828,15.210472
1000.835938,9.738131,5.674876,4.573640,3.511637
1000.839844,5.655302,3.049404,11.294758,11.227433
1000.843750,-2.350738,4.814085,8.405510,8.306466
1000.847656,-2.439997,-5.233353,-0.414823,3.498355
1000.851562,2.887057,-3.984816,9.725110,-7.477215
1000.855469,-4.601145,-8.057558,3.511840,-3.380657
1000.859375,-5.666506,-8.847369,-2.825147,-2.142997
1000.863281,-2.383822,3.992233,-5.967067,-11.297774
1000.867188,-0.708249,-5.081583,-9.577940,-4.360197
1000.871094,-11.303087,-6.306875,-11.829893,-7.589955
1000.875000,-12.099683,-16.203067,-13.532813,-11.038234
1000.878906,-15.533138,-7.780777,-7.057370,-14.876713
1000.882812,-10.152440,-9.972508,-13.612523,-14.547470
1000.886719,-5.355483,-5.631655,-8.025285,-10.458030
1000.890625,-0.371286,-4.941855,-6.281426,-8.997745
1000.894531,-3.471798,-10.955851,-9.948671,-1.437728
1000.898438,-2.241749,-1.451750,-11.684958,1.278230
1000.902344,-1.926089,7.005186,-4.772019,4.393744
1000.906250,11.328965,3.360879,5.438793,0.361154
1000.910156,3.462430,10.089211,13.446937,10.214400
1000.914062,7.790722,6.860507,2.010704,10.010927
1000.917969,6.814427,7.494998,8.883512,9.220921
1000.921875,8.808874,9.443133,5.043312,8.505504
1000.925781,9.066870,-2.565842,12.458881,4.935560
1000.929688,15.260542,11.115076,6.349533,6.722803
1000.933594,10.562654,9.475268,12.544109,-2.453529
1000.937500,7.105102,5.726847,10.756902,2.201340
1000.941406,11.171501,3.576845,1.040907,0.053179
1000.945312,2.232757,0.034698,2.137218,-5.714095
1000.949219,1.530764,-1.128001,7.439549,3.670879
1000.953125,-5.094147,-1.796106,-6.443998,-9.009975
1000.957031,0.460965,-5.545074,-8.350659,-8.432792
1000.960938,-6.619516,4.379641,-13.508586,-11.594733
1000.964844,-6.142772,-9.650963,-5.525334,-16.350228
1000.968750,-4.766076,-8.958790,-11.811357,-12.474289
1000.972656,-6.598402,-9.057414,-10.425243,-10.679987
1000.976562,-19.086031,-1.922493,-14.175360,-13.769336
1000.980469,-6.633354,-14.650498,-16.409564,-7.910877
1000.984375,-12.075375,-13.912648,-8.947312,-12.992700
1000.988281,-8.225632,-5.910744,-4.996214,-3.902577
1000.992188,-5.048929,0.468419,-7.371433,-3.897180
1000.996094,-1.828736,1.299609,-2.965600,-2.593139
1001.000000,-4.231767,-4.944604,-2.639567,2.124246
1001.003906,-8.769119,3.162055,0.248136,5.488274
1001.007812,3.047326,-0.313920,7.237756,1.575072
1001.011719,3.895485,11.408733,-1.752222,-0.179062
1001.015625,10.680093,10.456950,7.738703,15.309746
1001.019531,7.940349,10.828605,9.153889,6.031396
1001.023438,10.319315,10.590426,9.083463,12.580354
1001.027344,10.856329,15.691771,5.022313,15.442142
1001.031250,2.826753,7.945020,10.795076,13.255604
1001.035156,3.515973,0.052638,7.749367,8.784509
1001.039062,11.978906,0.799879,0.766605,3.629271
1001.042969,1.682669,13.609948,4.587221,1.114112
1001.046875,0.656654,-0.055691,0.396671,-6.634807
1001.050781,2.572526,1.257956,-0.951508,4.747319
1001.054688,3.120831,-3.385065,2.881409,-2.685090
1001.058594,-7.866862,-3.216664,-9.636601,-7.909569
1001.062500,-5.755137,-13.823003,-11.688368,-12.509375
1001.066406,-7.604993,-14.528328,-7.723902,2.788079
1001.070312,-11.265866,-9.469430,-6.337126,-7.317523
1001.074219,-14.078701,-11.028477,-11.043292,-4.410939
1001.078125,-7.848842,-2.289977,-8.668454,-9.161259
1001.082031,-10.148172,-8.470862,-10.194480,-3.498691
1001.085938,-10.946709,-6.526733,-4.481975,-12.820239
1001.089844,1.932895,-2.115447,-9.203336,-9.234139
1001.093750,-2.102992,-3.081632,-5.020508,-10.632538
1001.097656,-0.880049,-0.917313,-7.973849,0.063593
1001.101562,-2.732040,0.354114,5.344756,8.352353
1001.105469,5.849976,3.034409,4.457772,0.082150
1001.109375,7.238166,7.676741,7.951493,0.576412
1001.113281,10.962305,5.983615,8.756012,10.869541
1001.117188,9.546754,3.359173,10.290055,18.236080
1001.121094,8.772008,9.633345,9.776270,8.016968
1001.125000,10.744008,19.412549,11.948030,16.254477
1001.128906,-0.489241,4.587899,6.885929,5.469207
1001.132812,7.914694,13.349168,10.948615,13.072356
1001.136719,13.464870,4.827332,10.136213,7.303714
1001.140625,7.775543,8.472436,4.353874,12.490081
1001.144531,3.274859,7.435614,9.374306,3.185307
1001.148438,0.619382,1.630666,-0.663773,0.659868
1001.152344,0.177136,0.254003,-0.882992,-1.265735
1001.156250,-0.345953,-7.631689,-4.857369,0.190506
1001.160156,-4.904924,-8.691751,-5.513989,-6.529963
1001.164062,-3.669481,-16.454316,-0.207667,-4.556225
1001.167969,-11.324725,-10.225679,1.162534,-2.449616
1001.171875,-10.358436,-7.058017,-10.880150,-12.124698
1001.175781,-15.183887,-19.301163,-12.507191,-9.202855
1001.179688,-10.141316,-7.778334,-13.185658,-9.557204
1001.183594,-8.038407,-6.877977,-5.817158,-12.487824
1001.187500,-9.063970,-7.744187,-4.226049,-3.271166
1001.191406,-12.491090,-3.793884,-1.510024,-6.102662
1001.195312,2.139348,-3.856282,1.866978,-11.755968
1001.199219,-2.303356,-0.605078,2.691540,-4.298653
1001.203125,5.639397,-1.339846,1.543920,8.437298
1001.207031,3.767332,6.435411,4.252508,4.338757
1001.210938,11.758447,9.427016,1.167783,0.319390
1001.214844,7.749615,6.051431,6.395662,5.596396
1001.218750,7.377102,16.117468,13.373474,8.320636
1001.222656,9.373610,5.886700,13.025438,11.850050
1001.226562,9.602163,14.176032,7.497076,11.482469
1001.230469,6.875284,13.168180,10.283505,12.894954
1001.234375,0.617687,10.161595,11.849052,4.637124
1001.238281,2.393167,7.525852,0.069262,11.374836
1001.242188,1.833851,5.036783,1.371906,3.510135
1001.246094,1.510979,-0.014631,10.376022,-0.522888
1001.250000,4.909366,2.037104,-0.464194,1.795055
1001.253906,-5.047063,-6.790876,-1.249596,-0.284443
1001.257812,-3.568902,-7.903024,-10.376294,-1.980728
1001.261719,-7.131048,-5.488627,-4.101585,-8.635237
1001.265625,-11.698830,-13.952250,-9.758619,-16.399463
1001.269531,-17.259835,-12.236631,-11.265620,-1.076915
1001.273438,-19.234489,-7.571374,-15.009101,-1.879983
1001.277344,-7.809071,-14.656951,-9.597133,-13.460312
1001.281250,-11.700412,-10.613354,-11.544448,-12.983068
1001.285156,-13.638961,-13.626327,-19.279671,-4.818822
1001.289062,-7.991867,-2.818967,-5.465624,-8.787475
1001.292969,-12.062378,-7.088339,-7.042305,-8.374304
1001.296875,-3.443488,-1.122319,2.965323,0.350600
1001.300781,-3.197650,1.542844,3.378271,3.799721
1001.304688,2.434288,-6.280751,5.213395,-0.128893
1001.308594,-0.139430,10.389457,-1.975248,-2.999396
1001.312500,0.305399,15.805349,8.248758,7.639115
1001.316406,17.009342,13.363656,4.725258,5.130427
1001.320312,3.405031,8.790892,4.857025,10.091728
1001.324219,13.283564,5.966466,11.314343,10.664306
1001.328125,8.168898,14.397014,7.875354,13.574740
1001.332031,10.377453,12.933321,15.348712,12.801343
1001.335938,9.485660,8.165859,8.256420,9.709764
1001.339844,3.291034,10.083187,4.446042,11.991419
1001.343750,1.137733,-0.477694,-2.228530,2.036132
1001.347656,7.167299,0.711176,-1.091045,9.445414
1001.351562,-5.759160,-3.084790,-4.009862,4.532175
1001.355469,-5.848659,-3.198518,1.209841,-6.048109
1001.359375,-4.373037,-2.309573,-0.605685,-6.405617
1001.363281,-6.789613,-7.522320,-8.665551,-7.075493
1001.367188,-8.209347,-10.511734,-6.656844,-8.769296
1001.371094,-11.594367,-12.644721,-7.619428,-10.631567
1001.375000,-10.652088,-11.845623,-3.888330,-6.090371
1001.378906,-17.133034,-11.274489,-10.902789,-11.222294
1001.382812,-8.082855,-10.233263,-12.839211,-4.788950
1001.386719,-8.282863,-10.600560,-4.566492,-7.892555
1001.390625,-12.264441,-7.714056,-4.608859,-4.845670
1001.394531,-0.462403,-3.728853,-12.286583,0.635175
1001.398438,4.374872,4.502017,-5.312230,1.210378
1001.402344,0.164128,-5.783428,1.187750,4.016193
1001.406250,-1.860353,7.317413,-0.307222,7.414071
1001.410156,4.043791,1.061761,15.947178,9.219683
1001.414062,11.874397,2.095306,11.656913,15.856875
1001.417969,5.962173,14.057443,7.104876,6.179528
1001.421875,13.542947,9.394024,14.736884,5.596014
1001.425781,7.220341,10.811429,11.529397,10.898303
1001.429688,7.869494,10.330390,2.066852,9.305248
1001.433594,10.029178,7.461175,8.733266,9.808758
1001.437500,8.328792,2.119187,3.353250,7.356030
1001.441406,1.272859,9.326723,-4.242132,1.487359
1001.445312,10.037001,-2.088857,5.353830,-2.450945
1001.449219,2.643089,-3.105466,3.791806,0.824290
1001.453125,-4.260574,-1.659327,-5.484973,1.015143
1001.457031,-1.203802,-2.844222,0.443140,-4.234000
1001.460938,-5.092670,-7.286861,-1.695796,-11.431213
1001.464844,-2.329637,-1.765931,-5.531647,-9.510460
1001.468750,-9.932427,-7.350489,-11.683144,-7.515367
1001.472656,-12.375130,-9.918000,-9.876553,-12.695546
1001.476562,-12.226390,-10.773118,-18.526741,-16.607322
1001.480469,-6.609285,-14.604679,-15.144860,-11.742166
1001.484375,-9.856134,-5.739890,-6.421527,-13.549991
1001.488281,-10.814284,-7.976909,-10.158757,0.519703
1001.492188,-6.850606,-6.857800,-2.155516,1.524886
1001.496094,-7.752408,-1.817407,-4.387990,-3.282115
1001.500000,3.334172,-3.727952,-5.251760,-2.331549
1001.503906,-0.488207,-3.372904,-6.752806,-0.426951
1001.507812,6.016260,4.254682,0.725429,3.511728
1001.511719,1.821559,10.914966,11.869304,3.992903
1001.515625,6.353155,10.917906,10.108491,5.569247
1001.519531,11.748487,3.929832,8.156862,7.773513
1001.523438,8.496922,2.864815,8.795249,6.415189
1001.527344,4.690803,3.932583,10.687022,5.968072
1001.531250,10.386163,6.002025,11.530779,12.085952
1001.535156,10.664975,5.656877,5.978736,7.107447
1001.539062,4.836003,10.280217,17.888111,6.767705
1001.542969,0.388196,7.473384,-1.534361,7.670195
1001.546875,7.254951,0.415649,5.043925,1.525640
1001.550781,-4.975050,1.652328,4.680509,-6.339407
1001.554688,-3.319682,-5.286331,-7.719574,-1.490962
1001.558594,-2.877145,-1.022832,-2.939982,-6.353722
1001.562500,-7.420073,-1.389927,-10.396622,-15.124553
1001.566406,-10.737637,-5.469562,-5.064178,-7.887298
1001.570312,-11.511141,-12.167891,-12.554990,-10.178609
1001.574219,-6.839581,-10.764033,-11.242876,-2.477472
1001.578125,-8.858522,-8.408695,-5.835427,-9.409009
1001.582031,-6.055943,-7.513375,-12.165540,-12.713427
1001.585938,-6.710077,-8.547794,-5.895373,-10.917526
1001.589844,-5.407869,-6.574466,-8.489958,-8.517800
1001.593750,-4.075398,-6.150655,-3.339730,-3.630881
1001.597656,-0.191316,-0.006747,-5.166476,1.510212
1001.601562,2.162537,-5.650842,-7.212253,1.006486
1001.605469,-1.399108,5.850167,5.069106,5.864639
1001.609375,11.432212,0.232891,15.669169,-4.535009
1001.613281,10.166842,4.913140,3.626894,-0.819193
1001.617188,13.808648,13.147656,9.609300,8.683596
1001.621094,6.543966,12.757843,9.018727,16.274353
1001.625000,2.984846,10.327542,3.832697,8.666316
1001.628906,17.479001,4.184632,10.471670,15.778586
1001.632812,7.044539,8.720201,15.388299,9.462115
1001.636719,6.636606,13.363944,7.805044,6.293785
1001.640625,4.331153,7.012041,7.782147,6.526907
1001.644531,4.586601,-1.487998,3.364148,1.671636
1001.648438,3.532272,2.846732,0.073114,2.354870
1001.652344,0.335283,-4.760475,-8.584778,-5.796926
1001.656250,-4.393761,-1.924659,1.170407,-3.968109
1001.660156,-9.450254,-0.312303,-9.541119,-4.666038
1001.664062,-4.398469,-8.549773,-8.061468,-8.890823
1001.667969,-3.769329,-9.167508,-12.509747,0.331679
1001.671875,-4.080043,-7.466758,-10.457761,-5.834359
1001.675781,-6.452891,-8.061478,-2.209319,-8.950673
1001.679688,-5.002313,-14.137807,-9.072046,-5.859833
1001.683594,-7.838541,-8.007295,-8.377953,-8.104657
1001.687500,-7.056811,-13.646656,-5.995009,-5.118159
1001.691406,0.174416,-8.429144,-6.983611,-3.463447
1001.695312,-6.741699,-3.879357,-7.707004,-12.170709
1001.699219,1.226740,1.577855,2.079436,-0.440012
1001.703125,-5.704091,-3.762835,8.877109,-4.591318
1001.707031,4.668051,0.885372,7.636457,-2.455555
1001.710938,12.996338,3.841697,3.717421,9.307824
1001.714844,13.062132,5.252124,11.454295,2.967659
1001.718750,10.643706,9.653798,10.439494,13.435300
1001.722656,15.706529,8.987393,14.602774,9.354211
1001.726562,8.296173,2.006028,9.624177,10.043642
1001.730469,11.218936,8.750355,12.678011,19.665335
1001.734375,6.109973,5.495084,18.154568,6.792276
1001.738281,1.280573,7.569781,12.165992,5.194175
1001.742188,6.738133,7.308016,-0.010123,4.116323
1001.746094,0.551971,10.468090,0.719368,-2.598091
1001.750000,1.651150,0.654854,7.363709,-1.633812
1001.753906,-0.759891,0.732187,-1.957266,2.335379
1001.757812,-6.955879,-4.152454,-5.375839,-10.676424
1001.761719,-5.877910,-2.048745,-14.070927,-12.253275
1001.765625,-8.267387,-14.041360,-1.929331,-3.038262
1001.769531,-9.328473,-14.622632,-5.634066,-4.819909
1001.773438,-11.187242,-11.143621,-15.150338,-7.641049
1001.777344,-13.919737,-16.419473,-5.197903,-6.813324
1001.781250,-3.266805,-11.051696,-10.921599,-11.016814
1001.785156,-11.748930,-6.378929,-6.790353,2.192624
1001.789062,-9.068846,-4.063549,-7.383264,-5.788767
1001.792969,-10.492878,-0.346608,-2.642354,-1.764187
1001.796875,1.677581,-0.187314,-2.570679,0.784956
1001.800781,-8.524761,4.901635,0.061377,3.050029
1001.804688,0.296771,2.680112,9.004144,6.283104
1001.808594,9.990146,6.559707,6.819648,5.218457
1001.812500,10.060247,5.608910,-6.303283,2.216042
1001.816406,0.202113,8.634438,4.636501,6.366134
1001.820312,8.545266,9.960328,3.248409,14.229944
1001.824219,17.196834,11.432674,0.400101,17.656676
1001.828125,13.064367,10.406515,14.855199,14.557320
1001.832031,15.229507,12.030856,11.912327,5.088711
1001.835938,10.343673,8.884272,9.210841,1.652216
1001.839844,-1.680445,4.027582,2.472366,10.892449
1001.843750,3.852251,8.582635,7.178971,9.758188
1001.847656,1.805503,1.588925,2.673705,-4.383839
1001.851562,0.487071,-1.102720,-0.563139,-2.343262
1001.855469,-5.553501,-4.761248,-2.841151,-4.029359
1001.859375,0.383256,-2.499404,-5.572130,-5.833335
1001.863281,-12.461270,-6.202020,-7.744973,-10.733979
1001.867188,-10.362180,-12.253451,-6.771170,-10.774528
1001.871094,-12.318220,-5.789035,-4.578935,-17.280091
1001.875000,-10.566965,-16.837162,-6.565615,-11.228583
1001.878906,-13.019402,-4.607998,-9.172382,-6.815840
1001.882812,-6.548156,-12.279170,-10.967994,-12.782883
1001.886719,-3.879091,-6.324491,-7.251306,-11.431982
1001.890625,-10.364747,0.455376,-2.152896,-1.502134
1001.894531,-2.345536,-8.291761,-3.103760,-1.280776
1001.898438,2.802198,1.135991,-1.950513,0.623442
1001.902344,1.899315,3.855813,-3.042626,-2.862644
1001.906250,-1.252049,2.043266,-0.692026,-0.851030
1001.910156,-0.488913,6.836328,8.097086,7.153242
1001.914062,6.897168,4.852713,9.456260,10.161393
1001.917969,11.891566,13.404968,17.587015,11.326061
1001.921875,7.262075,7.524788,7.989386,2.264491
1001.925781,6.580306,15.325954,6.698745,14.171645
1001.929688,12.327767,10.363219,12.440369,9.494108
1001.933594,5.614650,8.152330,5.529036,6.033655
1001.937500,14.110639,8.207581,3.722587,0.774018
1001.941406,7.285054,4.779986,9.019583,7.416129
1001.945312,6.631449,5.182699,9.087419,12.621747
1001.949219,-2.696818,-0.926372,4.572414,-2.258013
1001.953125,1.960199,1.146569,-4.710460,-7.495109
1001.957031,1.735199,-8.645647,3.421388,-3.219934
1001.960938,-11.295615,-3.656525,-11.389243,-5.124099
1001.964844,-5.515878,-4.728914,-11.956130,-4.984995
1001.968750,-12.344537,-12.088283,-8.550655,-13.906117
1001.972656,-11.193756,-7.525709,-9.495069,-19.441462
1001.976562,-13.173905,-15.498640,-18.454641,-7.991129
1001.980469,-7.391855,-11.527567,-5.419823,-11.215264
1001.984375,-4.435018,-8.065865,-10.826985,-12.284293
1001.988281,-9.900173,-15.565896,-5.738248,-9.739403
1001.992188,-8.340416,-7.357562,2.183002,2.733680
1001.996094,-1.486807,0.834571,-4.900975,-5.358779
1002.000000,5.405326,-6.045793,-1.882129,2.060285
1002.003906,5.370308,1.586874,4.663603,-2.187770
1002.007812,3.597356,-0.537022,7.929868,12.880486
1002.011719,1.792696,8.552334,7.293302,5.040384
1002.015625,10.485237,13.335426,8.283783,5.872132
1002.019531,4.894488,7.188707,7.655703,10.535166
1002.023438,11.712105,9.116154,8.598143,16.084592
1002.027344,15.334062,12.547203,10.367712,6.267803
1002.031250,8.935988,13.827609,7.962605,10.588253
1002.035156,7.208472,10.912056,9.436844,11.845920
1002.039062,4.728930,3.116808,11.044749,5.251028
1002.042969,5.526940,3.647075,7.454986,13.948827
1002.046875,6.244767,2.640223,5.602839,-2.291887
1002.050781,0.828657,1.212836,-1.713055,3.387261
1002.054688,-2.984663,2.981026,-3.806364,-2.437899
1002.058594,-6.906783,-7.154918,-9.011269,-9.950553
1002.062500,-9.787650,-10.425958,-13.404410,-5.754968
1002.066406,-4.248015,-8.589485,-6.653119,-7.991777
1002.070312,-10.930793,-5.357829,-8.013261,-9.468140
1002.074219,-15.070164,-12.699314,-9.108156,-8.229300
1002.078125,-8.934205,-8.332024,-5.144985,-4.201130
1002.082031,-11.685642,-8.695839,-11.981087,-3.378174
1002.085938,-7.434001,-5.167501,-7.896369,-1.736016
1002.089844,-4.222100,-11.605790,-6.312449,-7.487041
1002.093750,-4.265997,5.706281,-3.000390,-5.437803
1002.097656,-1.230499,1.814846,1.624347,1.572266
1002.101562,-0.806412,0.083801,-2.534059,5.578077
1002.105469,2.492013,0.649943,4.512741,5.735617
1002.109375,0.476705,3.791446,8.422736,5.454537
1002.113281,4.288878,-3.630509,2.002223,16.177598
1002.117188,12.926021,10.552569,9.178671,8.670866
1002.121094,12.185038,6.578593,10.510614,18.490226
1002.125000,10.298167,7.137646,7.984473,9.647169
1002.128906,14.626327,5.700624,8.781086,13.496802
1002.132812,1.693107,14.109323,9.237857,7.892752
1002.136719,4.612362,1.255831,8.835614,5.605324
1002.140625,0.363438,0.792959,0.961753,2.815860
1002.144531,7.340757,4.825225,1.128345,6.442935
1002.148438,2.453730,-3.124878,-0.734631,0.471987
1002.152344,3.743995,0.555162,-2.696318,-7.428074
1002.156250,-6.040061,-2.673405,-3.819325,-8.395202
1002.160156,-8.229799,-6.722518,-10.619591,-8.609705
1002.164062,-12.328936,-6.083872,-3.255253,-9.496487
1002.167969,-8.042791,-13.439283,-20.564133,-12.732539
1002.171875,-11.140309,-5.099030,-11.168791,-5.968647
1002.175781,-21.925211,-16.399264,-6.545088,-13.430314
1002.179688,-7.321527,-9.443109,-6.535024,-4.867928
1002.183594,-10.658647,-6.522589,-16.882766,-10.475929
1002.187500,-7.383976,-8.991411,-2.869775,-4.438912
1002.191406,-5.074680,-10.933247,0.677593,-0.319365
1002.195312,-5.067816,-4.945987,-0.787851,-7.697404
1002.199219,4.246823,1.507304,-5.652893,1.131561
1002.203125,3.725068,5.913790,6.294623,-7.602492
1002.207031,5.672185,6.589971,5.962595,2.392738
1002.210938,12.079277,11.996257,7.767459,0.458142
1002.214844,13.113183,11.426589,13.961753,6.697047
1002.218750,9.392739,9.514499,10.945864,6.084478
1002.222656,5.749850,10.708226,11.711239,16.202154
1002.226562,13.881110,14.732721,15.487699,11.160899
1002.230469,9.551108,10.196723,7.187585,8.072070
1002.234375,9.826343,10.189244,12.415759,6.025394
1002.238281,6.315318,3.086420,3.225627,10.365068
1002.242188,7.551418,8.729362,5.605988,5.315624
1002.246094,-1.263033,6.026849,-0.439291,0.367486
1002.250000,-4.100733,2.290183,0.929807,-5.552507
1002.253906,-6.769236,2.210422,-3.866694,-2.490444
1002.257812,-10.808339,-2.235179,-0.349859,-7.717269
1002.261719,-10.330023,-0.225300,0.416474,-9.331968
1002.265625,-14.060981,-9.317092,-11.783756,-3.491689
1002.269531,-13.667111,-4.474167,-10.505540,-9.789593
1002.273438,-16.104909,-7.871066,-6.367670,-10.461934
1002.277344,-11.002183,-11.715048,-14.096027,-10.089820
1002.281250,-12.113675,-4.973787,-9.739704,-3.074311
1002.285156,-0.945451,-4.395735,-5.501098,-6.268380
1002.289062,-11.037029,-5.231761,-3.561801,-13.797589
1002.292969,-8.173724,-8.598111,-3.096407,-2.793931
1002.296875,-4.433131,2.357401,9.628725,-2.389480
1002.300781,1.473588,-0.153992,1.984912,2.181692
1002.304688,4.062523,-2.631042,6.009317,5.968310
1002.308594,5.035073,-1.451843,9.586613,5.067731
1002.312500,7.489155,4.627535,3.493794,8.410026
1002.316406,7.269087,9.283919,-2.171823,2.404392
1002.320312,11.517677,10.011866,9.964809,8.098346
1002.324219,13.678127,6.369391,5.387244,6.168866
1002.328125,8.575922,5.887920,9.528694,12.819293
1002.332031,4.660067,15.711822,9.869480,9.177874
1002.335938,8.200834,4.431210,-3.522700,6.001507
1002.339844,5.918411,6.122111,9.362040,4.893265
1002.343750,2.640614,6.509060,-0.372391,-0.332796
1002.347656,-1.528835,4.285859,7.776837,4.693318
1002.351562,-6.878252,1.687152,-6.286310,1.829227
1002.355469,0.276526,-5.425807,-5.319910,-4.166451
1002.359375,-9.560669,-5.167080,-1.942386,-0.371688
1002.363281,-8.982769,-7.561582,-4.514487,-11.369895
1002.367188,-8.466967,-12.886158,-2.931443,-6.669030
1002.371094,-7.538781,-6.087534,-11.400139,-15.698523
1002.375000,-17.647861,-6.093385,-18.708631,-5.206147
1002.378906,-7.114330,-12.270664,-12.485667,-9.278406
1002.382812,-9.810907,-8.103434,-14.105482,-6.193566
1002.386719,-3.845388,-2.365601,-3.301388,-2.383371
1002.390625,-0.495817,-3.823847,-2.422049,-8.310721
1002.394531,-5.106416,-9.630100,-8.351904,-3.092271
1002.398438,-0.681917,-6.849555,-3.519386,-1.567872
1002.402344,4.686142,-3.780515,-1.107469,-10.054174
1002.406250,1.987353,0.070918,1.496308,5.016305
1002.410156,12.962158,10.857019,4.664246,10.355745
1002.414062,10.122599,6.911312,10.602541,11.209453
1002.417969,11.905153,12.999011,7.438605,7.541844
1002.421875,13.230243,15.563668,11.295292,8.382956
1002.425781,13.118714,15.062426,-0.067504,0.810035
1002.429688,5.733269,11.303840,0.643446,14.744825
1002.433594,10.306722,15.019454,14.195559,11.683497
1002.437500,9.851572,7.217452,13.692186,8.172768
1002.441406,6.967848,6.306726,13.828075,6.180148
1002.445312,-3.551384,4.908873,1.589280,1.125909
1002.449219,-0.114657,1.317861,1.935596,-6.947825
1002.453125,-1.210945,-0.457327,-5.212310,-11.837639
1002.457031,-9.060108,0.204730,0.872115,-6.408278
1002.460938,1.100517,-14.142543,-11.360009,-11.327522
1002.464844,-8.689472,-10.133152,-8.320633,-4.165267
1002.468750,-5.970452,-8.864456,-5.348904,-7.316272
1002.472656,-7.120552,-5.888111,-8.938101,-15.917487
1002.476562,-11.679963,-9.241834,-11.588540,-13.118209
1002.480469,-2.048600,-15.269409,-10.260599,-9.104148
1002.484375,-2.884026,-8.976877,-10.959343,-8.516799
1002.488281,-10.031035,-6.435798,-11.377883,-9.595267
1002.492188,-9.827249,0.601920,-4.735077,-2.675820
1002.496094,1.602216,2.354938,-0.705826,-3.090231
1002.500000,2.730391,2.952741,2.964097,2.249017
1002.503906,3.381297,1.391531,3.636826,0.594720
1002.507812,2.711524,8.358870,-3.856510,4.865956
1002.511719,3.604020,6.670235,14.708202,2.380960
1002.515625,5.168752,8.807704,11.456039,12.644598
1002.519531,6.120532,14.255962,6.488522,12.099239
1002.523438,13.219461,10.818132,9.628156,10.947735
1002.527344,12.179629,10.912215,13.546566,3.894034
1002.531250,12.062842,5.834082,8.407881,4.348641
1002.535156,9.015752,16.984498,11.437756,11.129186
1002.539062,6.811942,11.887821,6.372438,7.188089
1002.542969,4.144348,4.586338,10.172722,6.705670
1002.546875,0.414636,6.650898,-1.712044,-1.484355
1002.550781,-3.181797,1.585240,-1.333945,-0.684890
1002.554688,-11.527659,-13.497041,0.969939,-1.911466
1002.558594,-10.783176,-12.350718,-11.136364,-1.242749
1002.562500,-3.282672,-3.460208,-7.306611,-4.120111
1002.566406,-5.984873,-12.783707,-10.528970,-8.764554
1002.570312,-11.181705,-10.657599,-12.758117,-11.853290
1002.574219,-7.072597,-13.377225,-15.574991,-10.585810
1002.578125,-7.032128,-6.564517,0.506399,-10.283515
1002.582031,-9.466615,-9.101612,-9.671152,-6.900493
1002.585938,-8.465892,-8.317211,-3.560063,-10.584305
1002.589844,-4.915124,-8.912721,-11.292859,-5.350790
1002.593750,-17.307154,-5.981944,-7.396490,-4.583722
1002.597656,-6.863363,-2.993639,-6.959462,1.334121
1002.601562,-3.586980,-4.139374,2.458699,1.506314
1002.605469,-1.921495,4.789404,2.230225,-2.121442
1002.609375,8.012036,-0.882597,1.212858,8.766577
1002.613281,13.952850,12.042757,7.454342,7.630192
1002.617188,10.391953,12.211811,9.237837,8.202627
1002.621094,2.861716,11.069255,10.641804,13.604421
1002.625000,6.990323,16.883564,9.885938,16.620830
1002.628906,10.423770,13.426883,16.294615,8.792760
1002.632812,10.205227,-2.931968,11.737881,10.846284
1002.636719,13.479278,6.700512,8.142600,-0.734169
1002.640625,7.228106,9.188635,3.768743,3.775232
1002.644531,13.092068,5.729160,5.393973,13.667675
1002.648438,4.451476,6.760275,-1.535267,-0.043644
1002.652344,0.652470,-0.908984,-2.531232,-1.848255
1002.656250,-2.369785,1.188577,-5.740234,-1.022163
1002.660156,-5.838231,-4.127944,-8.894169,-10.683787
1002.664062,-6.319486,-10.874189,-8.949711,-12.213564
1002.667969,-2.252786,-12.596222,-5.681525,-10.773205
1002.671875,-19.957199,-5.765623,-12.015388,-3.496965
1002.675781,-3.421687,-10.105001,-20.696319,-6.865195
1002.679688,-11.635592,-14.452365,-10.645640,-11.300631
1002.683594,-13.365050,-9.283654,-10.676651,-5.709437
1002.687500,-0.697931,1.080695,-9.082899,-3.837093
1002.691406,-6.512192,-3.866535,-4.185195,-1.309158
1002.695312,2.821929,-9.145546,-2.102585,-1.414860
1002.699219,6.783055,0.045848,-3.096312,-1.140335
1002.703125,1.727445,9.162161,6.085934,5.830127
1002.707031,0.691610,5.573822,-5.569693,0.940318
1002.710938,-0.424213,7.055489,0.038379,5.723580
1002.714844,-0.515847,6.568793,7.156992,3.436926
1002.718750,16.977467,18.286599,12.954090,12.110292
1002.722656,13.950537,8.230779,14.895992,5.472162
1002.726562,6.121192,12.351573,12.026175,17.911046
1002.730469,4.515930,8.732043,14.474901,9.254536
1002.734375,6.140137,3.373829,1.607830,8.159166
1002.738281,4.802010,2.719227,8.227785,8.415568
1002.742188,3.428941,-0.137669,5.809255,10.251896
1002.746094,3.762145,-5.462177,5.406419,5.324809
1002.750000,9.305432,4.302222,0.981330,-0.745013
1002.753906,4.205920,3.180795,-1.827941,-8.277269
1002.757812,-12.734384,1.796133,-10.601905,0.328713
1002.761719,-13.910593,-7.315773,-1.974085,-3.077774
1002.765625,-9.579118,-6.158195,-8.209189,-15.410528
1002.769531,-13.560591,-10.317832,-0.812323,-9.496772
1002.773438,-7.575063,-7.890837,-12.265689,-0.181032
1002.777344,-4.512693,0.747998,-9.523131,-10.698365
1002.781250,-8.220311,-11.570875,-16.690324,-6.797126
1002.785156,-4.104239,-9.643128,-13.267444,-1.560008
1002.789062,-3.309485,-16.279211,-5.813234,-11.524948
1002.792969,-3.579070,-4.753065,-4.421700,-6.862383
1002.796875,2.323273,4.284295,-0.120284,-4.592709
1002.800781,-5.176533,1.260538,-4.092845,2.867635
1002.804688,9.422779,5.774903,-2.093816,7.247615
1002.808594,7.142002,7.016500,2.731569,-1.366832
1002.812500,11.739758,2.501871,8.402598,5.320191
1002.816406,15.143716,7.856787,8.790629,7.221966
1002.820312,3.345964,10.305315,8.178429,5.550379
1002.824219,9.606576,10.173224,6.950878,11.770597
1002.828125,5.739440,11.975598,11.437141,7.662500
1002.832031,5.001661,10.985555,9.754073,8.208439
1002.835938,2.241397,10.629598,7.356392,11.831235
1002.839844,5.130761,4.043411,0.335098,2.518638
1002.843750,6.578702,7.040978,7.187697,5.354480
1002.847656,7.214757,6.711922,10.055966,1.255760
1002.851562,-0.375715,-3.139314,5.119577,-2.528670
1002.855469,-2.773253,-2.981661,7.133496,-9.105330
1002.859375,-7.077631,-4.128805,-1.741749,-0.605882
1002.863281,-1.770603,-8.777014,-0.130134,-8.080641
1002.867188,-10.139162,-10.701819,-5.514046,-8.094940
1002.871094,-11.815067,-10.069981,-11.328120,-0.795587
1002.875000,-11.680319,-4.563110,-9.791783,-6.939914
1002.878906,-11.729879,-14.191108,-6.448823,-2.410256
1002.882812,-8.917864,-8.755410,-3.746921,-6.380565
1002.886719,-10.940347,-11.624053,-6.690263,-6.222291
1002.890625,-7.397161,-4.937113,-6.600135,-5.522208
1002.894531,-7.710550,-3.044042,2.988740,-6.057983
1002.898438,-0.612480,1.904051,-5.214411,-0.516768
1002.902344,-0.226484,-0.233084,4.614098,1.013062
1002.906250,-2.031045,-4.867457,4.195754,3.926446
1002.910156,4.437221,6.303449,8.028030,1.127928
1002.914062,7.856797,3.720959,2.853223,13.075493
1002.917969,5.174153,16.968228,1.350701,13.682204
1002.921875,7.960429,9.047721,10.057571,14.272830
1002.925781,20.505203,4.976027,7.433002,10.421338
1002.929688,10.910709,5.754049,12.055519,3.237406
1002.933594,9.098151,11.785310,3.722780,8.246240
1002.937500,9.675964,14.602889,1.594113,9.103599
1002.941406,1.379491,1.426096,2.091711,4.741680
1002.945312,2.761126,5.206677,7.455894,1.653983
1002.949219,-1.036700,-4.405327,2.744030,0.087864
1002.953125,-0.700195,-6.097444,-2.737129,2.182933
1002.957031,0.918182,-6.350558,-12.976327,-8.141543
1002.960938,-7.487639,-11.581384,-0.945908,-9.907313
1002.964844,-9.859713,-11.846406,-14.141021,-4.198352
1002.968750,-4.787386,-5.355218,-12.488349,-13.201320
1002.972656,-7.045050,-11.587198,-9.558407,-6.890779
1002.976562,-8.614638,-0.801617,-6.017993,-3.908123
1002.980469,-12.846408,-16.131822,-14.047430,-3.993176
1002.984375,-9.719665,-5.066397,-5.798310,-6.834403
1002.988281,-0.437960,-9.614245,-11.195709,1.613808
1002.992188,0.517505,-5.883917,-3.729989,-2.872937
1002.996094,-4.995803,-3.711612,-6.612355,-6.515692
1003.000000,9.721177,3.136628,-4.168731,0.441626
1003.003906,0.724934,-6.276571,1.387570,0.077720
1003.007812,3.645474,5.154099,5.336982,-0.767146
1003.011719,4.779876,13.403568,8.253906,9.463636
1003.015625,10.504596,9.510648,0.298729,11.969851
1003.019531,1.164921,11.885454,12.863486,5.091913
1003.023438,5.726198,6.928008,7.367474,4.937055
1003.027344,13.455396,6.424860,10.950907,10.956109
1003.031250,18.588505,13.173309,5.391514,2.748633
1003.035156,7.522016,3.029843,3.710987,7.691680
1003.039062,1.928083,8.422718,7.072599,8.900573
1003.042969,6.511249,4.473767,9.084054,1.992763
1003.046875,0.156592,6.774937,3.767174,2.920652
1003.050781,-3.740153,4.538234,-0.717931,2.318920
1003.054688,-0.873326,-3.513791,-4.864139,-1.337050
1003.058594,-5.479565,-7.290877,-5.689183,0.005141
1003.062500,-3.114548,-13.453096,2.635107,-13.656489
1003.066406,-5.682838,-6.088617,-5.843948,-11.426671
1003.070312,-0.257568,-5.575065,-19.518117,-2.750087
1003.074219,-4.667282,-18.264077,-10.222957,-5.464622
1003.078125,-3.731608,-6.111594,-14.802918,-14.176307
1003.082031,-9.159787,-7.755382,-9.582773,-6.495117
1003.085938,-6.442645,-4.548941,-2.060794,-13.600402
1003.089844,-4.987921,-0.854445,-8.492247,-9.768568
1003.093750,-7.250195,6.381474,-2.411993,-7.140205
1003.097656,0.662059,-4.611257,2.723209,-3.273066
1003.101562,0.197688,2.884269,-3.501102,10.961519
1003.105469,-0.911541,-0.653999,-0.401544,6.582394
1003.109375,5.246586,7.645435,3.173585,5.895464
1003.113281,7.760649,5.943960,-2.730828,7.017651
1003.117188,3.680046,15.260720,1.262206,9.745098
1003.121094,13.941887,9.300874,11.108207,4.536187
1003.125000,10.973377,10.939716,12.949461,5.582785
1003.128906,8.993173,7.860963,4.682471,11.211841
1003.132812,10.604233,5.856584,8.243247,3.445178
1003.136719,2.359312,9.873460,8.101751,4.001484
1003.140625,12.564223,5.061500,0.493381,6.679909
1003.144531,4.471132,1.678451,-0.226497,6.030046
1003.148438,1.348031,3.254594,6.877876,-0.653813
1003.152344,-1.623073,1.795861,-3.019971,1.087046
1003.156250,-4.400509,-3.383658,-2.190016,-3.861505
1003.160156,0.132137,-6.504600,-2.105632,-3.835668
1003.164062,-3.069016,-3.073351,-2.079141,-8.898623
1003.167969,-11.430274,0.711731,-10.378750,-7.045382
1003.171875,-10.114852,-11.505734,-2.645669,-15.910824
1003.175781,-9.768851,-15.321098,-13.222640,-10.844365
1003.179688,-5.320305,-16.711473,-13.831269,-10.979109
1003.183594,-4.982329,-12.942463,-14.886388,-6.509123
1003.187500,-5.307771,-12.429708,-4.388932,-3.501933
1003.191406,-0.861270,-9.056788,-7.717988,-10.964607
1003.195312,-3.948760,0.748554,3.312832,-3.061146
1003.199219,-2.140914,4.848544,0.491951,-5.836028
1003.203125,3.821402,1.064409,1.959753,1.323686
1003.207031,11.515247,3.857395,1.959936,6.954941
1003.210938,4.217823,5.827645,-1.074382,6.519086
1003.214844,12.549525,10.480931,8.235629,8.669542
1003.218750,-0.649642,10.880606,5.461893,11.561182
1003.222656,6.755335,3.438900,9.856643,12.882236
1003.226562,12.139803,8.602011,16.588444,18.109902
1003.230469,11.107845,7.023774,0.377396,16.944506
1003.234375,9.565392,5.317144,12.331532,10.597011
1003.238281,7.081223,8.014538,6.262902,5.879529
1003.242188,7.799066,-1.992519,5.950993,11.034679
1003.246094,8.821558,8.187800,6.976955,-1.049324
1003.250000,-1.389036,6.036934,-6.785521,3.461886
1003.253906,-0.204349,-3.532968,-5.133979,-1.972720
1003.257812,-1.713096,-2.254030,0.996968,-5.448131
1003.261719,-13.144840,-4.523523,-5.134743,-8.554072
1003.265625,-10.863050,-8.934548,-3.762616,-0.409008
1003.269531,-9.930115,-7.850779,-8.811499,-5.504637
1003.273438,-7.735868,-3.436566,-3.926029,-13.934644
1003.277344,-5.514512,-8.311106,-11.114050,-14.655423
1003.281250,-5.250501,-7.425734,-7.246940,-0.933060
1003.285156,-17.170992,-0.622434,-12.314688,-3.325330
1003.289062,-9.029346,-11.167222,-9.134056,-2.250680
1003.292969,-8.578910,-5.694327,-10.419545,-3.860573
1003.296875,-2.551497,1.219162,2.333522,3.046175
1003.300781,-5.527768,-1.506762,-6.740943,1.448762
1003.304688,2.162479,5.735070,4.631850,-2.329717
1003.308594,4.040304,9.182450,3.210840,8.391653
1003.312500,10.824368,9.244264,12.897895,0.974810
1003.316406,7.833462,9.983453,8.195504,3.040277
1003.320312,13.428584,8.944057,15.682140,10.207600
1003.324219,18.401314,13.142404,5.898501,13.847424
1003.328125,12.586615,9.160491,3.530563,12.077721
1003.332031,3.105736,9.682232,10.999185,10.890664
1003.335938,7.559582,8.224653,1.979630,9.160747
1003.339844,5.330835,8.238355,-6.904068,4.751608
1003.343750,1.393310,3.048545,-3.980569,3.219863
1003.347656,-0.423011,5.639439,-0.707602,9.186055
1003.351562,-1.302494,-8.079937,-3.735966,-4.256938
1003.355469,6.614798,-4.518623,-8.477644,-3.460023
1003.359375,-8.788533,-5.755646,-3.605635,-1.651630
1003.363281,-2.691544,-4.173427,-3.256811,-5.498699
1003.367188,-14.945807,-12.852759,-2.866840,-0.777439
1003.371094,-9.066476,-14.436688,-7.510970,-3.678709
1003.375000,-12.001413,-6.010230,-10.786569,-10.590651
1003.378906,-10.096940,-8.767043,-7.983407,-12.660924
1003.382812,-12.800890,-11.076163,-7.997221,-7.541589
1003.386719,-9.851382,-7.691842,-9.757081,-4.742234
1003.390625,-6.395822,-6.117594,-2.177822,-7.976438
1003.394531,-1.385039,-0.412556,4.655350,-7.200841
1003.398438,-0.342636,1.212643,0.364119,0.572160
1003.402344,-0.706810,-0.795233,1.959454,-2.692573
1003.406250,1.286338,2.785427,8.299947,7.633647
1003.410156,7.370803,9.938759,0.572588,10.678102
1003.414062,7.377721,6.242258,1.668552,0.266757
1003.417969,7.741191,9.034944,7.882395,8.841671
1003.421875,10.656418,13.127125,12.567916,8.916016
1003.425781,2.113098,7.473188,10.695193,10.873410
1003.429688,11.416158,11.399595,9.827122,15.258002
1003.433594,8.590541,7.065092,7.271751,8.466291
1003.437500,7.773839,6.154925,10.853278,5.108826
1003.441406,4.302579,9.678397,5.863188,7.144994
1003.445312,-5.363284,1.482604,0.681706,-2.925332
1003.449219,-1.519940,1.816632,0.316916,6.861250
1003.453125,-1.542663,-0.092837,-2.721444,-2.201910
1003.457031,-6.149556,-8.722376,-4.192233,-3.657080
1003.460938,-8.815536,-11.242669,-5.988198,-9.164353
1003.464844,-10.074735,-6.867624,-6.331343,-3.299310
1003.468750,-6.273056,-6.549445,-7.615495,-2.261360
1003.472656,-6.070268,-11.832451,-13.870896,-7.800546
1003.476562,-6.134496,-12.888056,-12.886800,-10.633531
1003.480469,-12.439437,-9.042185,-10.883770,-8.246590
1003.484375,0.498429,-10.748099,-5.161273,-5.481471
1003.488281,-0.628534,-2.926468,-11.499547,-1.433939
1003.492188,-5.440737,-5.205570,-2.747052,0.686779
1003.496094,-6.529765,-2.092210,0.888065,-1.290571
1003.500000,0.432476,2.990890,2.275705,-5.171113
1003.503906,5.752148,1.081547,0.266636,2.656881
1003.507812,5.619295,3.585375,2.472688,4.383914
1003.511719,10.279999,6.408931,3.460827,6.926048
1003.515625,8.927681,7.712190,5.513506,14.855792
1003.519531,12.037485,9.834101,6.939738,7.127014
1003.523438,7.139341,14.173151,10.972608,9.746275
1003.527344,7.481484,7.980211,6.481379,11.801180
1003.531250,8.931688,5.024616,5.289592,7.861704
1003.535156,9.669237,9.401138,5.061630,5.108001
1003.539062,2.832226,5.883934,8.075026,-2.135776
1003.542969,4.568773,3.898499,0.976967,2.765299
1003.546875,-2.971722,-3.988557,1.501039,-0.217783
1003.550781,3.492470,0.315973,-3.285241,0.546575
1003.554688,-3.232500,5.813825,-12.507977,-0.180676
1003.558594,-6.626985,-3.854089,-2.525418,-1.591081
1003.562500,-6.720284,0.136885,-2.257892,-5.891752
1003.566406,-10.011019,-11.295589,-19.766088,-12.518603
1003.570312,-13.457163,-7.072301,-8.910368,-11.077475
1003.574219,-12.236319,-1.177600,-16.561309,-16.875587
1003.578125,-12.650851,-11.026699,-14.052691,-16.807911
1003.582031,-6.723404,-9.078569,-11.423300,-9.534866
1003.585938,-9.527612,-9.769113,-11.533748,-6.132914
1003.589844,-3.401095,-5.064911,-4.086002,-10.864406
1003.593750,-2.922651,-6.711548,-7.591234,-8.908906
1003.597656,-2.685221,-2.134704,-0.337929,-3.325364
1003.601562,2.953344,-1.586178,3.133060,1.859506
1003.605469,-1.363140,3.227199,0.231039,2.546609
1003.609375,6.195297,2.187484,2.125265,3.127164
1003.613281,7.219602,7.483922,8.031256,18.458083
1003.617188,14.363517,14.497844,4.450666,17.562677
1003.621094,22.533353,8.924307,11.593162,6.236871
1003.625000,10.224927,8.767243,5.117481,8.020664
1003.628906,3.490004,12.881573,7.820155,6.066980
1003.632812,4.481865,6.229895,7.599696,12.702717
1003.636719,7.050413,9.669451,3.181537,16.791331
1003.640625,0.913126,13.520189,9.013453,5.957971
1003.644531,6.111024,8.194201,3.540024,0.122382
1003.648438,2.685660,3.289978,2.163946,0.759914
1003.652344,0.377729,-0.044869,-4.712734,-1.289719
1003.656250,-6.887689,-5.419690,-2.614024,-8.573321
1003.660156,-9.140771,-5.278564,-3.924891,-6.555909
1003.664062,-9.377260,-9.965897,-10.585085,-8.572724
1003.667969,-14.422529,-8.221600,-15.205276,-11.953378
1003.671875,-8.763783,-7.968785,-12.642210,-9.702465
1003.675781,-2.593765,-13.315458,-7.353521,-8.441536
1003.679688,-9.238962,-8.195202,-3.899918,-9.641136
1003.683594,-4.965191,-9.322040,-12.386015,-10.297062
1003.687500,-7.070583,-11.688501,1.340303,-11.262416
1003.691406,-9.093527,-10.204809,-0.402234,-9.345444
1003.695312,2.049352,-2.857014,-6.581897,-5.838446
1003.699219,-8.371102,-5.647165,0.858434,2.345007
1003.703125,-0.571638,5.441690,5.403852,-1.344363
1003.707031,10.259876,6.161329,6.789871,8.803198
1003.710938,1.263452,2.664401,7.611733,1.647229
1003.714844,4.641124,8.834240,9.199712,4.465371
1003.718750,5.641905,10.890392,9.832157,11.442153
1003.722656,3.478922,3.371531,14.094308,6.295926
1003.726562,8.794988,10.962110,7.279194,14.396796
1003.730469,5.751068,9.894886,2.521215,12.862513
1003.734375,13.518170,4.155109,11.836362,9.551862
1003.738281,13.541908,3.177264,7.162961,6.741336
1003.742188,1.937029,5.078734,3.964995,0.049608
1003.746094,-0.035512,-0.293085,3.352557,3.809054
1003.750000,1.688320,-0.608497,-1.807160,4.445187
1003.753906,-7.394784,1.609605,-6.363044,0.983411
1003.757812,-0.074660,2.016403,-10.669971,-6.412266
1003.761719,-7.745546,4.277536,-15.826849,-8.310769
1003.765625,-12.738571,-11.242125,-8.744419,-12.356533
1003.769531,-8.230297,-4.543361,-6.814258,-9.582567
1003.773438,-8.242861,-10.390510,-6.975602,-7.578452
1003.777344,-9.715234,-11.380677,-13.303371,-13.248518
1003.781250,-9.826590,-10.618256,-2.071222,-5.375803
1003.785156,3.189660,-6.703854,-15.843346,-9.066779
1003.789062,-13.873818,-3.569681,-16.048494,-8.934664
1003.792969,-5.347919,2.613384,-7.944349,-6.483166
1003.796875,7.091945,1.403325,-6.658530,-1.019446
1003.800781,-2.423847,-1.182252,2.069893,-6.479282
1003.804688,-3.754786,1.344164,3.365772,4.581172
1003.808594,6.046721,8.719749,5.926558,-5.020491
1003.812500,8.326553,5.960713,14.868703,5.930699
1003.816406,-5.681249,10.425205,6.618583,8.424290
1003.820312,10.740545,11.992644,9.558579,1.880063
1003.824219,9.839560,9.244606,16.459115,5.880435
1003.828125,9.587527,4.578752,24.414100,10.088949
1003.832031,8.973777,6.395368,11.878910,1.413123
1003.835938,4.091969,6.948782,2.629215,0.840312
1003.839844,8.428707,1.586882,4.010519,4.698638
1003.843750,5.069778,-2.647979,1.014834,6.923742
1003.847656,-1.931546,-2.698174,-1.503470,8.934892
1003.851562,-0.367050,2.399906,-2.248864,-2.238965
1003.855469,-2.879513,0.461284,-9.275560,-6.508187
1003.859375,0.240663,-0.322606,-8.724616,-0.795963
1003.863281,-10.650304,-7.974519,-9.792650,-13.048881
1003.867188,-13.183986,-8.676516,-6.281944,-1.655971
1003.871094,-13.512071,-1.921056,-8.966030,-11.709620
1003.875000,-10.526062,-15.184405,-2.702640,-7.788340
1003.878906,-14.341277,-16.020357,-15.212004,-7.830911
1003.882812,2.507709,-7.990593,-9.276035,-4.037957
1003.886719,-6.097874,-2.645119,-6.823815,-4.950142
1003.890625,-6.428898,-12.369921,-7.260079,-5.612932
1003.894531,-1.280361,-2.169505,-6.461246,4.368598
1003.898438,10.526647,-5.687572,0.515661,-2.505436
1003.902344,6.340660,-4.428429,5.483676,3.774434
1003.906250,1.036688,6.824686,2.712908,4.646836
1003.910156,7.428437,-0.110632,6.338261,6.862054
1003.914062,1.980326,6.830396,13.940720,7.007818
1003.917969,15.743179,11.320220,10.008811,9.825911
1003.921875,5.879281,11.426998,15.205844,14.049415
1003.925781,9.167360,17.932452,13.048449,4.592345
1003.929688,7.291337,11.308637,7.920176,9.821986
1003.933594,5.084869,4.375188,12.432294,10.367482
1003.937500,8.045338,3.889980,11.276393,4.992513
1003.941406,12.842730,11.613860,4.749959,5.111879
1003.945312,12.272060,8.653386,6.986003,8.195532
1003.949219,-0.329274,-8.952307,-5.117966,-0.847271
1003.953125,-2.156995,2.397865,0.498369,-0.831776
1003.957031,-7.548877,-8.603745,-0.823795,-9.565524
1003.960938,-1.988742,-10.047212,3.291321,-3.199700
1003.964844,-11.176760,-8.742708,-10.357238,-9.566392
1003.968750,-10.965955,-6.863321,-1.272585,-3.035033
1003.972656,-13.794872,-8.334220,0.029776,-11.949738
1003.976562,-3.755560,-12.701913,-15.266028,-13.422719
1003.980469,-6.425864,-12.071676,-10.884213,-8.537107
1003.984375,-8.712970,-16.565834,-5.959741,-8.233675
1003.988281,-4.187585,-7.361911,-8.768164,-5.692724
1003.992188,-9.558187,-2.391980,-3.909595,-12.264402
1003.996094,-2.908055,0.833414,-8.939470,-3.882939
1004.000000,7.090553,1.458870,-1.609444,2.214312
1004.003906,8.678511,1.472715,0.976975,-0.474401
1004.007812,1.011368,2.225768,0.703495,3.569490
1004.011719,8.372617,2.471488,5.855490,1.625401
1004.015625,4.121937,11.099017,1.850334,6.675840
1004.019531,3.483779,10.675896,7.014720,16.891621
1004.023438,16.678368,14.274771,11.142757,13.437722
1004.027344,2.130475,9.079832,5.732640,10.289758
1004.031250,16.666404,17.030181,8.196200,14.788866
1004.035156,10.370377,8.436803,6.451343,3.464309
1004.039062,3.664520,3.317323,6.950692,12.980312
1004.042969,8.023543,2.968535,3.200698,7.014523
1004.046875,-0.393049,-8.705344,6.553411,1.401429
1004.050781,1.746133,-4.246047,-6.652311,-1.256328
1004.054688,-5.157755,1.869190,-9.267879,-3.711590
1004.058594,0.874758,-1.630595,-8.645950,-6.934570
1004.062500,-6.595851,-9.009757,-4.953280,-6.260320
1004.066406,-10.246523,-4.249316,-1.709200,-12.793125
1004.070312,-13.263516,-8.077321,-5.578466,-16.241262
1004.074219,-15.407969,-10.434141,-9.813731,-9.053049
1004.078125,-10.023092,-8.414668,-8.291244,-15.943602
1004.082031,-14.228969,-10.028709,-11.317967,-13.555484
1004.085938,-3.400899,-3.508163,-8.099033,-1.926252
1004.089844,-5.304284,-9.173862,-4.524663,-3.758531
1004.093750,-3.217541,-4.269421,-9.849957,4.640428
1004.097656,0.243676,5.849638,3.019476,0.692001
1004.101562,4.153407,7.496410,-0.996506,-2.318622
1004.105469,3.451776,5.709895,5.063294,3.547961
1004.109375,6.671375,3.991138,7.636047,3.816096
1004.113281,11.891582,4.376458,6.820405,-3.728064
1004.117188,14.357079,11.675385,9.607929,10.616701
1004.121094,5.685257,7.030731,10.926156,14.944103
1004.125000,11.232434,9.657102,12.900707,10.123656
1004.128906,10.060631,10.610856,10.032341,4.127600
1004.132812,6.497244,5.802314,4.932623,8.364559
1004.136719,0.168631,3.386297,10.014685,8.610868
1004.140625,2.297401,8.082802,2.827975,10.969442
1004.144531,5.789280,5.948432,11.804374,1.142910
1004.148438,-0.224532,-0.845501,-4.328110,0.188751
1004.152344,5.420116,-1.128336,-0.916821,3.702969
1004.156250,-6.213624,-5.337053,-1.533573,-4.013544
1004.160156,-2.138581,-5.408159,-11.925801,-8.279223
1004.164062,-7.857348,-12.593761,-8.297419,-8.856342
1004.167969,-17.627656,-10.656385,-9.963108,-9.677858
1004.171875,-11.780496,-2.678047,-12.634780,-10.328773
1004.175781,-7.528504,-8.353667,-11.313615,3.235767
1004.179688,-12.056006,-7.580827,-14.218061,-10.130579
1004.183594,-5.483215,-6.319293,-11.248411,-6.934101
1004.187500,-7.403056,-12.568917,-9.687093,-6.523734
1004.191406,-11.054460,-7.717645,2.395580,-1.667833
1004.195312,-5.071804,-4.199148,2.413656,-3.790728
1004.199219,-7.872590,-0.860252,-5.274916,4.508489
1004.203125,0.919790,-5.560188,6.480768,0.136870
1004.207031,12.059437,2.427408,6.424630,4.414818
1004.210938,6.752169,3.252913,5.020430,8.268884
1004.214844,2.108544,9.194848,11.700067,14.015767
1004.218750,9.424925,10.847976,8.083758,8.078951
1004.222656,8.722384,9.074558,10.740183,12.554174
1004.226562,5.312429,4.192674,17.481278,10.772351
1004.230469,13.007641,8.451822,4.274675,15.875118
1004.234375,8.411000,16.754454,10.150949,11.591479
1004.238281,10.263705,1.109866,7.291796,2.412550
1004.242188,0.309153,3.958647,7.655917,3.487480
1004.246094,-2.146499,7.220346,7.819789,1.933642
1004.250000,1.359510,-2.646723,6.662222,-5.545330
1004.253906,-0.909814,-6.150867,-1.168867,-0.515299
1004.257812,-2.790702,-11.683855,-2.898249,-1.117951
1004.261719,-1.133261,-1.848756,-1.564389,-9.903708
1004.265625,-9.265999,-9.154534,-8.047870,-3.913443
1004.269531,-7.868464,-13.215766,-6.291580,-15.044489
1004.273438,-9.965138,-11.750430,-9.643102,-12.519950
1004.277344,-14.590663,-6.497490,-5.509783,-13.495050
1004.281250,-10.705693,-12.671987,-7.173329,-14.785646
1004.285156,-19.767694,-8.364524,-4.834931,-5.448235
1004.289062,-13.413055,-9.583071,-7.520633,-2.256032
1004.292969,-7.299303,-3.017237,-3.733707,-6.103957
1004.296875,-8.708908,-5.200353,0.775848,-2.072466
1004.300781,-0.268642,7.951705,-2.042001,5.565043
1004.304688,2.989329,0.339307,2.428473,-3.259431
1004.308594,7.285804,4.161961,10.722315,5.994026
1004.312500,0.067489,5.227434,6.316403,10.970347
1004.316406,6.966884,9.369554,12.526252,3.680064
1004.320312,4.426988,11.203902,12.945746,11.632125
1004.324219,9.522568,15.475173,12.970552,9.388550
1004.328125,4.288769,4.576180,13.311700,5.482250
1004.332031,9.696440,16.092407,7.041960,11.377397
1004.335938,11.395646,5.323480,13.229081,10.600895
1004.339844,2.147712,10.265265,4.529429,11.359999
1004.343750,5.281498,2.980492,1.881808,7.249309
1004.347656,4.314905,3.971451,7.213805,2.207826
1004.351562,3.394684,2.087326,0.226401,5.562698
1004.355469,-5.859271,3.154991,-2.693560,-0.102400
1004.359375,0.050001,-3.610110,-4.923685,-5.736893
1004.363281,-7.140880,-6.566056,-10.027594,2.866014
1004.367188,-8.978857,-7.031260,-12.145155,-7.178494
1004.371094,-5.645862,-18.016101,-17.189518,-13.370138
1004.375000,-15.987461,-6.920212,-10.572810,-12.363960
1004.378906,-4.857190,-6.118190,-7.912699,-5.231143
1004.382812,-12.128864,-8.763595,-9.533036,-2.937700
1004.386719,-3.696910,-8.727727,0.963363,-6.854307
1004.390625,-6.140269,-2.702019,2.056481,-9.409306
1004.394531,0.061726,1.792839,-8.044332,2.118830
1004.398438,-1.467330,-0.328844,3.663252,-3.171918
1004.402344,8.359473,-2.148874,6.776907,-2.848241
1004.406250,7.457874,-1.928912,3.874418,9.254385
1004.410156,-6.429045,4.591720,1.624792,19.456744
1004.414062,-0.937179,3.387354,0.596451,5.755371
1004.417969,8.237528,14.701122,9.913059,13.099681
1004.421875,0.644555,9.471893,12.423022,8.747971
1004.425781,10.984790,11.093174,8.835094,12.783675
1004.429688,13.654080,2.559053,4.553467,6.495892
1004.433594,10.053747,15.635314,17.388154,7.199097
1004.437500,6.363653,4.663273,4.514818,9.105455
1004.441406,0.873870,8.668035,0.218014,6.726221
1004.445312,-0.157682,4.561268,2.717809,5.075386
1004.449219,4.445471,5.868432,-0.526284,-0.632937
1004.453125,4.570386,-2.529582,4.190462,3.177130
1004.457031,0.501705,-1.821045,-5.834477,-1.580970
1004.460938,-2.390805,-4.057584,-4.084306,-2.969268
1004.464844,-7.761211,-12.041943,-7.336404,-9.859562
1004.468750,-10.914698,-11.435636,-9.244216,-3.429679
1004.472656,-13.721087,-9.425930,-9.167119,-9.510445
1004.476562,-12.115229,-10.133491,-9.429347,-12.537171
1004.480469,-6.891879,-6.301281,-7.203399,-5.757346
1004.484375,-7.891100,-6.473855,-10.121712,-0.948545
1004.488281,-8.461151,-0.871743,-15.328582,1.316069
1004.492188,-3.297128,-7.255026,-6.726406,-2.841186
1004.496094,2.126244,0.815855,-1.415150,-3.568211
1004.500000,-0.746804,-6.048516,-5.542107,3.070367
1004.503906,-2.043769,2.319504,5.520397,-1.986764
1004.507812,1.443231,8.908693,10.143760,9.334630
1004.511719,4.408751,12.315698,4.037009,2.990650
1004.515625,10.885999,3.584651,7.641588,3.545096
1004.519531,5.731784,0.711333,3.743698,3.296084
1004.523438,2.948861,5.542569,1.408514,2.378922
1004.527344,13.766433,13.224423,10.600918,14.051340
1004.531250,9.402098,12.371066,11.189916,10.180853
1004.535156,12.130152,8.532363,3.564469,-0.332030
1004.539062,4.173574,7.325016,4.013161,6.925752
1004.542969,8.442537,2.718376,8.121213,0.313062
1004.546875,-2.818629,7.146470,7.422461,1.921249
1004.550781,7.269501,-6.168038,-0.303246,-8.524463
1004.554688,0.355111,-8.971270,1.668251,1.402648
1004.558594,0.327397,-9.553454,-4.064327,-5.740098
1004.562500,-10.481717,-1.047196,1.054451,-13.248604
1004.566406,-12.046685,-9.709564,-8.825252,-11.950651
1004.570312,-13.962425,-10.141881,-11.994282,-8.044238
1004.574219,-4.435680,-16.074438,-17.874382,-12.554390
1004.578125,-15.747121,-3.027390,-14.561710,-11.707161
1004.582031,-14.832442,-13.299683,-0.792431,-10.823395
1004.585938,-7.168565,-11.321338,-6.774936,-13.029125
1004.589844,-3.374409,-3.422140,-5.519132,-8.137923
1004.593750,-1.349660,-3.181181,-5.118450,-3.318614
1004.597656,-1.176480,-2.269711,-10.502891,-7.033875
1004.601562,-0.601847,1.798341,2.241233,-1.273597
1004.605469,2.388296,1.050583,-4.449982,-3.598975
1004.609375,5.400631,12.601198,7.265512,1.529940
1004.613281,16.773547,15.285933,13.421757,18.406978
1004.617188,10.719950,10.630356,14.928916,10.541039
1004.621094,12.727358,2.927723,13.979390,15.549791
1004.625000,9.099112,10.605734,7.435528,13.927140
1004.628906,8.523312,11.475344,10.039783,7.776776
1004.632812,9.953070,7.224777,7.711914,10.024181
1004.636719,3.817812,9.407377,10.117235,6.446303
1004.640625,4.591445,-4.807445,7.064076,4.479899
1004.644531,5.279218,3.971650,13.008324,5.244521
1004.648438,-0.407119,3.747687,-4.372058,2.933226
1004.652344,-0.974353,4.919859,0.129421,-6.766429
1004.656250,-1.058683,-0.638672,-6.198416,-2.657224
1004.660156,0.489394,-6.870715,-2.344917,-1.664860
1004.664062,-2.589590,-11.385217,-8.255213,-8.170185
1004.667969,-8.577812,-6.156301,-17.196827,-9.011623
1004.671875,-14.252262,-18.226699,-6.048378,-10.906173
1004.675781,-15.330614,-14.261591,-7.280635,-16.647754
1004.679688,-11.922861,-10.663089,-6.347079,-17.015883
1004.683594,-8.363419,-2.365974,-7.997834,-10.544173
1004.687500,-3.902899,-5.199790,-5.591988,-7.762821
1004.691406,-8.417757,-1.830952,-6.667066,-4.251779
1004.695312,0.819905,0.455988,-5.255852,-15.130551
1004.699219,5.530941,5.157357,-2.884709,1.299942
1004.703125,2.381471,9.226016,5.280667,-0.502624
1004.707031,6.801678,4.420822,5.916272,-0.304557
1004.710938,5.568872,7.857261,8.607279,0.267650
1004.714844,9.025044,14.376032,2.936531,5.939649
1004.718750,14.174358,1.704819,7.233017,9.181255
1004.722656,9.817951,7.670025,10.153883,6.369649
1004.726562,6.573482,8.909749,11.188753,6.868148
1004.730469,6.868642,14.663786,8.844489,8.992195
1004.734375,11.573417,8.755393,10.515307,16.468744
1004.738281,11.358202,6.261131,4.973756,9.593815
1004.742188,7.153621,4.097811,4.645170,0.189682
1004.746094,7.540379,2.196140,4.266120,7.780153
1004.750000,7.798835,1.990703,-5.166797,-1.996008
1004.753906,-4.514243,-9.305530,0.473815,-4.453133
1004.757812,-6.224110,-3.751368,-3.417112,1.050097
1004.761719,-14.574308,-9.546759,-2.718364,-8.733455
1004.765625,-12.963043,-12.291536,-9.862995,-7.825480
1004.769531,-7.908967,-8.455723,-1.347365,-7.849574
1004.773438,-14.004694,-13.569201,-15.997557,-1.526440
1004.777344,-9.221941,-12.640503,-13.403031,-7.790414
1004.781250,-5.556545,-10.545483,-4.439192,-14.247282
1004.785156,-15.539950,-10.705666,-5.114727,-2.322793
1004.789062,-7.148517,-7.401899,-7.974883,-2.629469
1004.792969,-10.922568,-4.375054,-1.871056,-4.848827
1004.796875,-0.642180,2.274003,0.218764,-2.368297
1004.800781,5.310852,-0.227704,-5.473547,-4.552171
1004.804688,-1.895894,3.117840,4.636690,0.139441
1004.808594,8.292782,15.627940,-3.049850,2.706649
1004.812500,1.614290,0.949475,10.864949,9.524785
1004.816406,5.306757,4.415879,8.788841,3.224449
1004.820312,5.703470,10.544597,12.451711,6.408784
1004.824219,11.458333,11.403909,16.799361,8.261690
1004.828125,8.871499,7.054705,13.217250,3.728069
1004.832031,13.270531,10.716974,3.739455,11.102512
1004.835938,5.936950,8.974321,6.164006,1.972372
1004.839844,11.053608,5.015071,5.311745,3.618394
1004.843750,9.865250,0.907016,0.894876,7.654076
1004.847656,0.759503,-1.848621,3.705006,2.640723
1004.851562,-1.454948,3.551937,-1.461670,-0.270683
1004.855469,-5.791009,-10.992766,-6.346336,-1.629015
1004.859375,-5.700624,-2.145568,-5.241652,-5.445364
1004.863281,-12.868463,-12.117502,-13.259826,-5.317298
1004.867188,-12.778798,-6.644529,-6.600208,-11.173085
1004.871094,-10.632485,-19.118530,-16.364553,-6.709076
1004.875000,-6.657533,-8.092151,-9.727234,-8.866916
1004.878906,-8.246912,-7.270475,-9.717557,-14.724818
1004.882812,-7.560300,-9.467304,-6.139480,-15.305253
1004.886719,-14.994260,-9.790691,-6.012920,-10.223353
1004.890625,-6.525145,-2.095103,-6.510463,-1.907354
1004.894531,-1.421268,-0.696590,-2.571831,5.223620
1004.898438,-3.227557,-0.213144,-7.874769,-2.327407
1004.902344,5.186379,3.633577,8.765908,3.657565
1004.906250,-0.527351,3.420418,5.780917,1.206476
1004.910156,11.295972,7.045328,6.804817,3.406002
1004.914062,12.844069,13.590215,10.093098,7.470741
1004.917969,9.841328,11.746136,4.237923,8.423673
1004.921875,12.212379,7.094434,13.173658,9.513282
1004.925781,9.535374,7.807568,8.379529,6.488377
1004.929688,6.206205,5.578836,11.820899,13.599488
1004.933594,10.526302,5.724414,1.432421,13.085526
1004.937500,3.661823,4.218665,9.459642,9.460190
1004.941406,3.779224,7.348294,9.438227,3.331246
1004.945312,5.796205,0.356082,9.436197,-2.636425
1004.949219,3.653243,5.604357,3.208634,0.881043
1004.953125,-2.581854,-6.504123,-4.860935,4.914442
1004.957031,-7.686727,-6.698103,-9.284806,1.290864
1004.960938,-5.581550,-5.309485,-7.365884,-8.504039
1004.964844,-14.168078,-10.420478,-9.761520,-9.379156
1004.968750,-14.046736,-7.283313,-6.890385,-4.936089
1004.972656,-12.225783,-12.227381,-12.844708,-12.558748
1004.976562,-8.828347,-7.341088,-13.176892,-16.110805
1004.980469,1.635130,-4.857510,0.506812,-8.233418
1004.984375,-9.013916,-7.355373,-10.345490,-6.643178
1004.988281,-8.263365,-4.978582,-7.598284,-8.265686
1004.992188,2.419942,-0.504234,-4.228510,-4.960995
1004.996094,2.484231,-0.411654,3.367894,-3.675387
1005.000000,4.145769,1.654855,0.849746,0.148050
1005.003906,4.162156,5.700112,1.534180,-0.949998
1005.007812,2.386009,9.434435,8.475577,6.139930
1005.011719,1.544244,8.236408,6.597370,6.933516
1005.015625,6.434963,-0.405111,6.722751,11.240160
1005.019531,5.719412,11.980053,3.954781,12.400726
1005.023438,13.514076,11.415625,13.398046,8.132655
1005.027344,13.852381,8.428077,11.210719,14.456412
1005.031250,16.118017,7.817646,7.472759,6.280528
1005.035156,15.785917,7.031453,8.387856,3.132359
1005.039062,6.192416,5.003668,0.714440,9.773007
1005.042969,3.328315,10.799982,2.145958,2.765842
1005.046875,4.256313,3.804953,5.933099,3.176224
1005.050781,1.443023,-4.380644,-3.491972,1.012958
1005.054688,1.827819,-4.429652,-6.940955,-3.885615
1005.058594,-11.345530,0.865489,-6.166356,-7.396896
1005.062500,-8.079503,-6.027257,-11.406428,1.695953
1005.066406,-10.043430,-11.030021,-9.398860,-4.611741
1005.070312,-11.396644,-4.143067,-2.480951,1.691303
1005.074219,-13.956147,-6.364388,-14.642646,-13.940076
1005.078125,-9.629092,-9.841503,-10.548819,-16.032875
1005.082031,-11.568451,-4.801839,-5.934469,-9.118273
1005.085938,-10.575423,-13.547376,-9.088390,-0.296870
1005.089844,-7.608701,-9.027642,-5.463878,-13.308357
1005.093750,-7.033039,-4.164674,-11.848465,-8.584180
1005.097656,-3.782095,-2.330475,-2.961729,0.810085
1005.101562,6.529201,2.689132,3.431889,4.222218
1005.105469,6.270811,9.517576,1.429101,7.672862
1005.109375,13.311770,8.203149,4.197970,3.816973
1005.113281,4.153698,10.241920,13.444225,11.292575
1005.117188,12.769121,13.318051,12.146522,9.317279
1005.121094,8.289039,10.694991,9.763997,14.164892
1005.125000,6.882823,0.359820,1.918269,7.288168
1005.128906,6.551621,9.372185,7.546543,9.821463
1005.132812,2.933240,10.714598,5.017693,11.420104
1005.136719,-2.066518,8.647619,7.614076,6.284208
1005.140625,3.585239,2.800772,7.582427,5.636309
1005.144531,1.846447,-3.251034,7.388590,-0.294381
1005.148438,3.419550,4.436404,-1.776885,-8.603402
1005.152344,-5.741090,-5.914067,-1.167916,-2.129615
1005.156250,-1.236327,0.285078,-7.376611,-5.226038
1005.160156,-6.779225,-14.272976,-9.627339,-7.541628
1005.164062,-0.928296,-11.243849,-7.605494,-5.473386
1005.167969,-6.307415,-7.794683,-10.961223,-7.114000
1005.171875,-14.752946,-3.282763,-12.833699,-20.256832
1005.175781,-8.574761,-21.948419,-6.231087,-5.532013
1005.179688,-6.767221,-9.501494,-10.334288,-8.051332
1005.183594,-8.950905,-12.454738,-9.271751,-3.847266
1005.187500,-2.968984,-6.975990,-11.081758,-6.270951
1005.191406,3.954225,-3.514309,1.118032,-8.935480
1005.195312,-1.106874,-3.614711,-4.508959,-2.475578
1005.199219,-4.157978,-3.811108,1.665523,2.864667
1005.203125,-1.468185,4.047093,-1.416674,5.707154
1005.207031,10.911052,5.567041,5.495953,5.797625
1005.210938,12.454929,2.709702,3.754900,0.233722
1005.214844,12.664816,1.419205,15.731069,8.634275
1005.218750,10.808201,7.169787,12.993992,11.408449
1005.222656,14.372819,15.237323,9.034862,4.215767
1005.226562,9.389898,12.142612,11.249138,14.273308
1005.230469,4.650412,1.545942,13.489935,8.468485
1005.234375,4.908988,5.403070,10.178683,5.435213
1005.238281,1.765890,0.310408,6.680685,1.724443
1005.242188,1.409056,0.892500,5.881411,4.148496
1005.246094,4.621236,7.554621,0.706162,-0.623906
1005.250000,-2.098764,-0.057687,6.958473,1.685091
1005.253906,3.353227,-0.227761,-3.971838,-8.188347
1005.257812,-4.765815,-0.507830,-4.694950,-10.052311
1005.261719,-7.355431,-12.018481,-12.723136,-11.527522
1005.265625,-8.972834,-7.085657,-8.684525,-10.976124
1005.269531,-11.493620,-1.683586,-8.944649,-12.631070
1005.273438,-17.503400,-11.950052,-15.825551,-7.082308
1005.277344,-12.821055,-10.901068,-9.351193,-7.985861
1005.281250,-11.734088,-14.413659,-9.432174,-9.867821
1005.285156,-4.008191,0.896255,-11.924492,-13.482333
1005.289062,-10.977887,-10.390435,-10.072906,-6.992289
1005.292969,-5.130777,0.382952,-6.938718,-0.772367
1005.296875,-5.567580,1.154121,-6.127636,-4.887145
1005.300781,-0.609751,2.219940,-1.896384,-3.276583
1005.304688,5.397199,3.969931,4.514020,-1.595079
1005.308594,4.288053,1.905099,0.772055,8.201412
1005.312500,13.926137,11.309182,6.032038,11.015704
1005.316406,10.176965,10.778707,12.537783,12.690813
1005.320312,9.063261,14.963977,5.049584,2.587564
1005.324219,8.502408,11.477461,15.921223,14.484188
1005.328125,6.016969,4.394437,8.830672,6.215785
1005.332031,2.281496,9.965510,10.447130,8.574791
1005.335938,2.085935,2.253895,12.820866,8.625562
1005.339844,1.534126,3.308338,5.015446,3.518055
1005.343750,2.158957,-2.842057,4.397157,7.490567
1005.347656,4.829571,2.458943,2.532475,-1.620261
1005.351562,-2.321381,3.655458,-0.558104,1.073235
1005.355469,-6.203401,0.456793,-2.859899,-5.266318
1005.359375,-5.353634,-7.973455,-7.144264,-5.265860
1005.363281,-13.366100,-10.631504,-7.219625,-7.473651
1005.367188,-18.358139,-11.982415,-7.976410,-10.702335
1005.371094,-13.707657,-3.345239,0.950864,-7.051404
1005.375000,-5.252796,-9.797282,-8.722579,-8.455713
1005.378906,-8.599710,-13.572761,-13.919344,-1.848549
1005.382812,-7.856602,-12.152223,-13.531993,-9.007146
1005.386719,-10.255804,-8.664872,-6.865116,-7.452767
1005.390625,-3.231391,-12.936753,-12.140256,-2.812671
1005.394531,-3.400727,-5.561016,0.535447,-4.819803
1005.398438,-7.082460,6.961122,-6.342567,-7.947544
1005.402344,-0.011700,8.389709,5.105165,-2.754237
1005.406250,2.705026,6.672809,6.116948,8.722365
1005.410156,-0.882678,6.450601,3.466887,7.919187
1005.414062,9.071602,14.193433,8.362965,4.633784
1005.417969,12.119465,16.471353,8.239864,10.462608
1005.421875,14.414908,15.350146,3.822681,7.850135
1005.425781,10.353340,11.879377,5.860333,3.464771
1005.429688,7.576015,10.280571,7.395233,10.671567
1005.433594,8.279020,6.380977,10.384163,9.653836
1005.437500,6.659382,7.418121,11.113635,16.141977
1005.441406,7.928493,11.184840,3.768307,9.660308
1005.445312,2.322019,6.117408,4.361265,0.559013
1005.449219,-2.513587,2.391171,-5.444552,-3.855895
1005.453125,6.946594,-0.074788,3.114058,-4.587147
1005.457031,-9.040402,-5.608053,-6.507040,-5.189073
1005.460938,-9.413538,-13.345707,-4.931432,-10.967255
1005.464844,-4.749578,-13.425790,-8.491407,-7.106880
1005.468750,-2.628295,-14.603544,-11.205183,-9.281840
1005.472656,-5.998336,-3.386092,-5.999361,-13.834588
1005.476562,-11.712482,-17.994765,-8.813457,-10.415890
1005.480469,-16.619917,-9.675247,-9.774915,-11.379011
1005.484375,-17.855913,-14.206662,-13.726409,-6.252279
1005.488281,-3.385370,-9.418353,-6.015291,-3.369932
1005.492188,-5.523681,-0.142006,-2.291467,-10.320964
1005.496094,-1.797061,0.283872,-4.667209,-3.554530
1005.500000,1.934723,0.985399,6.526722,3.632885
1005.503906,6.564414,9.860048,-2.983350,-0.910412
1005.507812,6.378212,2.865466,11.709018,0.696548
1005.511719,5.994743,11.833792,10.173135,2.058477
1005.515625,14.915357,7.728461,7.065043,14.107275
1005.519531,11.199043,9.282454,5.608465,10.481543
1005.523438,11.939832,13.829702,17.769494,9.964437
1005.527344,13.433606,14.263808,18.033377,13.261172
1005.531250,17.734091,3.076981,8.697022,12.721379
1005.535156,1.834150,5.545297,8.567465,5.705395
1005.539062,2.423127,10.599060,3.770332,5.566825
1005.542969,6.370892,9.202845,-0.008029,7.734853
1005.546875,4.390290,2.963958,2.004185,5.732402
1005.550781,-0.844786,0.136058,-3.992531,5.018929
1005.554688,0.832244,-1.495758,0.095601,-7.567981
1005.558594,-10.180836,-3.640438,-4.390681,-1.435470
1005.562500,-5.851326,-13.309028,-6.679733,-2.663018
1005.566406,-9.923793,-9.354936,-10.989386,-12.161337
1005.570312,-7.779873,-17.358989,-7.606967,-3.884241
1005.574219,-19.253319,-9.149369,-13.384751,-8.195075
1005.578125,-7.484182,-10.347762,-9.821686,-12.050584
1005.582031,-13.695496,-8.465711,-8.150028,-12.179443
1005.585938,-6.868388,-9.191682,-4.930616,-2.236396
1005.589844,-5.480642,-6.894715,-6.752220,1.133401
1005.593750,-6.443136,-8.603656,6.197379,-7.589634
1005.597656,-1.820401,-7.364282,-6.210397,0.978469
1005.601562,-7.675849,4.378102,-4.804215,-1.287446
1005.605469,9.101436,5.840457,5.538619,9.422571
1005.609375,5.216011,-1.858453,9.295443,7.920455
1005.613281,10.386418,6.580571,7.092449,7.023306
1005.617188,11.644431,4.996535,13.943162,13.015776
1005.621094,10.170081,12.329388,3.268944,13.547146
1005.625000,6.987298,7.190810,13.102479,7.509246
1005.628906,5.094358,10.382057,13.623039,4.925165
1005.632812,12.975877,12.640990,9.017265,11.660057
1005.636719,7.389292,7.238290,6.588555,13.125880
1005.640625,1.157228,7.198920,8.656810,10.804003
1005.644531,4.611091,6.986415,-0.131875,2.247452
1005.648438,1.960030,-1.625287,-3.698179,-3.626945
1005.652344,0.411024,-4.315050,-2.621065,-1.186816
1005.656250,6.360279,-6.750881,3.480193,-11.770836
1005.660156,-8.256759,-3.194795,-2.790773,-5.787273
1005.664062,-8.735098,-7.277142,-10.589673,-9.359094
1005.667969,-10.009175,-4.002457,-5.109134,-13.281042
1005.671875,-5.311305,-9.349877,-4.358378,-11.434171
1005.675781,-14.220653,-9.857229,-4.515733,-13.200817
1005.679688,-13.811571,-11.665904,-10.124592,-4.113957
1005.683594,-9.703014,-11.395185,-6.838494,-4.471786
1005.687500,-10.230542,-8.409153,-12.437556,-3.024740
1005.691406,-1.819730,4.067856,-0.500143,-1.518501
1005.695312,-5.682307,-4.955856,-5.795741,-6.600615
1005.699219,-1.821435,-0.049440,0.207943,1.552473
1005.703125,10.016058,2.983635,1.855578,4.039394
1005.707031,0.954917,-1.190459,-1.725931,-3.088455
1005.710938,12.922278,-4.032512,6.554562,4.070669
1005.714844,13.791970,7.602975,1.924269,3.558572
1005.718750,11.060866,8.679085,10.476641,10.722742
1005.722656,11.406248,8.962813,13.063257,14.383815
1005.726562,11.245481,4.462339,12.308969,6.201082
1005.730469,13.818330,5.347891,7.472024,5.906228
1005.734375,9.314213,9.544786,6.045188,15.249879
1005.738281,3.614932,7.613072,11.565701,3.679325
1005.742188,10.024193,7.081893,11.974832,-5.003355
1005.746094,7.283235,4.351368,2.529831,-1.105760
1005.750000,2.057561,1.669337,-0.147959,-7.355509
1005.753906,-0.823991,-5.011980,0.650533,-5.778201
1005.757812,-5.302893,-9.978558,-5.177000,-0.800017
1005.761719,-8.286235,-8.653687,-4.969681,-2.041495
1005.765625,-8.132015,-11.334211,-4.422917,-8.423574
1005.769531,-10.538257,-10.730537,-3.386882,-2.588588
1005.773438,-11.313295,-10.114431,-10.055017,-10.068564
1005.777344,-9.258594,-7.735392,-16.285473,-10.027945
1005.781250,-8.852739,-6.860598,-12.154387,-17.957555
1005.785156,-13.819948,-5.545573,-10.220997,-10.018173
1005.789062,-4.266442,-5.915469,-1.914100,-6.375277
1005.792969,1.097705,-2.015110,3.187097,-4.675957
1005.796875,-1.396125,0.304835,-0.838394,-6.474104
1005.800781,-0.139975,4.151554,6.034803,2.287029
1005.804688,5.446409,7.064994,7.517512,0.625568
1005.808594,9.029943,2.497545,5.193850,2.490754
1005.812500,2.812423,4.950425,5.284145,8.591205
1005.816406,7.054142,8.842936,8.533815,10.401484
1005.820312,5.598964,14.180724,4.263453,9.502793
1005.824219,1.930790,7.166020,11.162486,12.182350
1005.828125,10.772801,10.620922,10.384402,9.127435
1005.832031,7.103088,9.422246,2.291699,12.357202
1005.835938,15.161124,7.840219,10.382116,10.053928
1005.839844,6.644131,6.542545,0.500350,5.937382
1005.843750,9.440549,2.907989,2.614541,3.904640
1005.847656,0.069951,-2.728046,2.226471,9.074805
1005.851562,0.431679,-9.862997,3.545335,-7.577980
1005.855469,2.134795,-7.273486,-10.201530,-5.044823
1005.859375,-6.633524,-0.801721,-8.565840,-4.361553
1005.863281,-5.360649,0.358881,-3.288823,-6.669744
1005.867188,-13.643375,-3.841997,-7.889690,-5.511902
1005.871094,-3.901039,-14.455010,-5.900620,-4.229873
1005.875000,-9.763180,-15.298213,-9.605890,-7.504268
1005.878906,-6.469178,-12.221771,-10.940348,-11.909918
1005.882812,-7.127504,-4.696938,-5.858701,-5.354056
1005.886719,-9.102114,-8.500944,-14.151202,-10.714531
1005.890625,-7.514125,-5.329950,0.026773,-10.109535
1005.894531,1.746199,2.574569,-3.293562,5.615785
1005.898438,-0.999764,-13.197676,-5.946393,2.582484
1005.902344,3.830604,3.691076,1.115660,-0.089746
1005.906250,2.341319,4.247068,2.115869,2.516006
1005.910156,0.041819,8.442400,5.163233,1.389666
1005.914062,9.159812,14.113580,10.681037,9.417017
1005.917969,14.475056,5.551070,2.190647,6.827477
1005.921875,8.107944,4.817514,9.278398,9.421151
1005.925781,3.320283,17.851333,11.899992,13.160489
1005.929688,9.205832,9.631408,11.242564,13.133473
1005.933594,7.896802,7.220816,10.302539,10.463738
1005.937500,10.552273,11.036869,5.029352,4.950173
1005.941406,3.746653,2.722663,4.455281,-0.010159
1005.945312,14.485287,4.350786,9.846834,5.556809
1005.949219,-8.889752,3.117004,3.632280,-3.519924
1005.953125,8.105176,-11.804406,1.421169,-3.435964
1005.957031,-4.385497,-6.000743,-5.123667,-4.922886
1005.960938,-7.794254,-7.672331,-3.837735,-9.542866
1005.964844,-8.229709,-10.646008,-6.493891,-5.131478
1005.968750,-9.967068,-8.699338,-6.597282,-6.732377
1005.972656,-16.903035,-12.741115,-7.594311,-7.892494
1005.976562,-4.360025,-4.245518,-15.896903,-16.054647
1005.980469,-3.483597,-8.946162,-11.469566,-16.283485
1005.984375,-9.926184,-6.536609,-0.153905,-14.859287
1005.988281,-3.985150,-2.932608,-10.753583,-6.782243
1005.992188,-10.045852,-5.446503,-11.582942,-3.069901
1005.996094,-5.807380,1.929352,-5.731359,-4.542703
1006.000000,1.534569,-1.836148,-4.652457,-3.452942
1006.003906,5.242443,-2.406034,2.655335,-0.374173
1006.007812,8.013969,5.427877,10.102441,9.297210
1006.011719,0.109904,11.096964,11.259800,5.929478
1006.015625,8.101826,3.594718,12.823928,7.687914
1006.019531,9.785653,12.238382,10.035866,12.538581
1006.023438,4.187949,14.817079,11.462409,10.343710
1006.027344,7.947451,9.137296,10.559041,5.283130
1006.031250,10.169576,10.218547,12.750008,7.865275
1006.035156,10.019711,5.432960,6.491588,-0.071782
1006.039062,8.563692,0.208291,10.504501,5.207515
1006.042969,0.460549,8.993141,1.824364,5.181628
1006.046875,1.373513,3.328897,0.805557,-2.259351
1006.050781,-3.431605,-2.042439,3.495077,-0.920942
1006.054688,6.553098,-4.050160,0.257492,-8.229949
1006.058594,-7.625830,2.703465,-7.557849,-12.779549
1006.062500,-6.774436,-4.844933,-12.063535,-10.093874
1006.066406,-9.303799,-7.028557,-5.016668,-13.883269
1006.070312,-14.181863,-17.588995,-10.473790,-7.720281
1006.074219,-17.961788,-2.389878,-11.005653,-18.578706
1006.078125,-10.681283,-3.871640,-11.701782,-13.452159
1006.082031,-9.440999,-9.480015,-11.102567,-6.556020
1006.085938,-5.321090,-7.937309,-4.828612,-12.272557
1006.089844,-6.061012,-8.449238,-8.752723,-7.305299
1006.093750,-2.599515,-2.025535,-5.460114,0.867797
1006.097656,-1.981931,0.439721,-6.128582,-6.177142
1006.101562,7.899863,-5.712771,9.726069,9.559208
1006.105469,4.050510,8.220185,5.239815,6.037351
1006.109375,6.121307,3.489903,6.909279,3.101893
1006.113281,8.321820,3.751618,5.903140,14.323327
1006.117188,6.272390,13.608874,13.877318,11.943393
1006.121094,5.860281,2.423628,8.299277,12.419302
1006.125000,13.893994,8.073786,15.164172,7.475792
1006.128906,12.489845,8.468629,6.578159,16.665973
1006.132812,4.612271,7.684869,10.910684,7.348758
1006.136719,7.753855,8.281356,7.421425,9.359328
1006.140625,7.771613,8.248313,0.383691,5.995572
1006.144531,2.562610,3.746925,2.814365,7.198463
1006.148438,5.326878,4.572953,-8.029080,0.747436
1006.152344,-2.629963,-5.158551,-7.805418,-5.982215
1006.156250,-6.661353,-3.767016,-5.466667,-6.568518
1006.160156,-2.395611,-6.100002,-9.259566,-3.767579
1006.164062,-10.520234,-6.460677,-8.720454,-8.148857
1006.167969,-9.856696,-11.312338,-9.265092,-5.931510
1006.171875,-12.243501,-5.932002,-20.111436,-1.128715
1006.175781,-10.366191,-5.296544,-8.406200,-16.746509
1006.179688,-12.149406,-9.663299,-6.001526,-7.481660
1006.183594,-12.697377,-10.194142,-6.271255,-8.846420
1006.187500,0.849818,-13.446252,-6.294246,-3.520498
1006.191406,-1.702260,-6.768637,-7.056967,-2.072906
1006.195312,-1.875638,-4.155436,-0.072552,-0.931925
1006.199219,4.368191,2.784650,-1.854130,-4.006538
1006.203125,-1.908824,-5.053484,2.644712,8.828286
1006.207031,7.724608,5.241290,4.209334,6.715901
1006.210938,10.259524,5.386384,-0.253085,-2.065949
1006.214844,1.993881,10.009179,13.443498,9.521545
1006.218750,10.293860,7.798380,9.288463,6.273928
1006.222656,13.636147,5.347588,10.862233,23.219324
1006.226562,6.731379,6.759916,9.413879,8.395544
1006.230469,6.749799,9.368806,3.285624,8.985880
1006.234375,11.426873,6.029927,8.210039,12.502549
1006.238281,10.086279,4.091990,10.106817,6.344858
1006.242188,6.256875,3.710027,10.085347,10.035981
1006.246094,-0.126645,3.319387,-0.782074,6.364540
1006.250000,5.541670,-0.852445,1.736265,1.197872
1006.253906,0.496730,1.812694,1.992301,-3.459388
1006.257812,-6.166688,-2.243909,0.246093,1.228628
1006.261719,-5.652596,-5.781829,-11.136350,-3.981733
1006.265625,-8.929718,-4.303746,-4.456117,-2.960918
1006.269531,-8.903670,-10.845078,-11.224065,-9.340844
1006.273438,-12.248045,-14.984378,-15.922467,-12.255933
1006.277344,-12.509967,-8.189743,-10.331291,-15.445742
1006.281250,-11.564500,-5.639354,-12.463033,-6.560720
1006.285156,-7.374749,-8.736623,-9.393695,-7.772471
1006.289062,-7.364321,0.873603,-4.411459,-4.864090
1006.292969,-9.871626,-8.629726,-7.305729,-3.197318
1006.296875,-6.198534,-4.664318,-3.332091,0.710974
1006.300781,-0.849260,1.658807,-0.012805,1.991367
1006.304688,4.677598,1.052757,2.729921,-2.289997
1006.308594,11.012829,-1.115710,3.066634,10.698465
1006.312500,2.321902,10.120682,-0.295895,3.654199
1006.316406,11.023642,13.667471,10.858449,3.778632
1006.320312,12.462684,7.696531,3.098122,13.682169
1006.324219,6.186089,7.641067,10.384569,7.126621
1006.328125,7.174267,14.143920,11.588252,7.931228
1006.332031,9.915571,6.755127,10.442202,1.347290
1006.335938,-1.074564,9.467249,4.711904,13.000500
1006.339844,2.539438,-0.447116,6.484419,7.799367
1006.343750,-3.470337,6.556078,6.835447,-0.457444
1006.347656,-5.762455,-2.506305,2.776547,-3.101186
1006.351562,-1.718748,7.647954,1.924187,-7.184253
1006.355469,-4.406868,-4.292329,-7.518712,-3.247731
1006.359375,-10.584301,-6.549114,-4.943672,-3.240293
1006.363281,-0.554034,-12.724586,-8.083180,-8.131526
1006.367188,-5.559405,-12.975726,-5.754191,-5.727485
1006.371094,-7.437727,-13.420421,-14.760222,-10.380393
1006.375000,-10.004695,-6.497995,-9.122569,-9.205023
1006.378906,-12.717156,-1.415785,-10.787024,-3.388964
1006.382812,-9.379619,-11.676471,-10.621050,-9.695108
1006.386719,-5.624850,-11.214312,-5.921237,-10.513986
1006.390625,-9.280819,-0.916260,-8.153094,-7.152855
1006.394531,1.491714,2.374450,-3.920903,-6.756704
1006.398438,0.127903,-0.537468,-3.462654,7.528501
1006.402344,4.577414,-2.383380,-5.328420,-1.258055
1006.406250,1.028478,-2.997377,4.327564,-2.705950
1006.410156,2.451458,6.447655,6.583784,8.880536
1006.414062,8.137944,4.640145,9.515557,6.552418
1006.417969,6.941047,9.244781,9.639738,10.254618
1006.421875,6.019548,6.998841,14.154243,9.689491
1006.425781,5.050253,12.510612,5.209913,9.401351
1006.429688,9.463813,4.284551,21.246762,10.606519
1006.433594,12.554719,16.150561,6.483457,9.120644
1006.437500,7.269778,10.888182,5.350496,1.298778
1006.441406,-1.328111,-0.697300,6.601652,6.132739
1006.445312,-4.834432,4.828487,5.894313,5.859104
1006.449219,-0.922701,4.368058,-7.222936,6.210112
1006.453125,-4.289000,-2.664258,-10.737200,-9.626823
1006.457031,-3.201601,-5.121393,-1.754345,-0.376653
1006.460938,-8.179975,-9.114373,-7.183338,-7.291289
1006.464844,-13.361638,-3.268210,-10.349522,-2.034632
1006.468750,-9.218887,-12.160467,-16.464882,-14.439257
1006.472656,-6.840462,-8.023563,-12.278067,-8.716690
1006.476562,-3.071138,-6.080246,-11.437335,-10.086119
1006.480469,-7.468978,-5.801008,-11.571574,-13.715283
1006.484375,-10.014932,-8.231676,-9.012256,-11.631494
1006.488281,-2.854845,-10.849912,-8.648645,-5.576766
1006.492188,-0.562765,-4.798427,-1.706415,-1.017297
1006.496094,-3.328192,-2.155582,0.726462,-5.389095
1006.500000,0.614693,0.582792,3.686030,-5.737653
1006.503906,0.051122,0.618153,3.346160,3.725200
1006.507812,5.364571,2.234497,1.907520,1.092256
1006.511719,8.391233,1.063037,3.082612,5.463392
1006.515625,13.895184,11.518493,7.855342,10.605101
1006.519531,0.034212,8.219853,9.948071,6.797127
1006.523438,2.970583,12.387547,9.091504,9.812859
1006.527344,9.870199,8.202105,3.011918,12.345204
1006.531250,10.872524,14.021845,13.211757,11.356084
1006.535156,5.585204,7.995844,8.275203,7.196333
1006.539062,5.819759,10.081790,9.936027,9.605890
1006.542969,10.291742,4.736535,1.245124,-3.675308
1006.546875,-2.385766,2.893261,3.583334,2.748571
1006.550781,-3.819136,-0.270444,1.470332,-0.564026
1006.554688,-6.807025,-4.200467,-0.528971,-4.099225
1006.558594,-8.682605,-12.943890,-6.753635,-7.552074
1006.562500,-6.599378,-10.533039,-12.530630,-5.661829
1006.566406,-8.643874,-8.751597,-11.904231,-12.482422
1006.570312,-8.762330,-9.288754,-8.549476,-14.047299
1006.574219,-14.090436,-4.644431,-12.086431,-8.889556
1006.578125,-8.810733,-11.554512,-13.496667,-10.802769
1006.582031,-15.000810,-12.599542,-7.592675,-2.510048
1006.585938,-13.749458,-17.132276,-8.388091,-14.286820
1006.589844,-3.202927,-10.547748,-11.622484,-3.443053
1006.593750,-1.949259,-2.146263,-0.764822,-2.861446
1006.597656,1.846774,-8.034078,5.147206,-3.568375
1006.601562,6.775235,2.150386,0.396457,5.592593
1006.605469,3.386637,8.212327,2.147547,3.956589
1006.609375,7.014808,1.285904,6.294886,8.782562
1006.613281,6.644494,12.068382,12.309453,13.491009
1006.617188,7.933870,2.581012,13.275093,14.327889
1006.621094,13.624921,3.916048,12.301529,5.312222
1006.625000,10.951807,7.303882,16.362707,12.421321
1006.628906,7.350507,9.220096,14.380600,8.252376
1006.632812,9.351673,11.395399,8.761298,9.587181
1006.636719,11.077689,11.866500,4.190273,7.520180
1006.640625,4.418630,14.169434,-2.806750,5.827567
1006.644531,-1.424885,2.316343,1.173524,6.278762
1006.648438,6.366653,2.287597,0.074702,-0.984006
1006.652344,-4.796453,2.572244,4.738090,7.196316
1006.656250,-8.610789,-2.258333,-6.607633,-4.696967
1006.660156,-8.392200,-1.279030,-7.328424,-5.678717
1006.664062,-2.802075,-20.770213,-8.689596,-7.779633
1006.667969,-13.571760,-13.142792,-13.396631,-16.761554
1006.671875,-6.747306,-8.312853,-8.256292,-7.162929
1006.675781,-4.018333,-9.171197,-15.737475,-5.770729
1006.679688,-10.496591,-8.661674,-11.492605,-8.583609
1006.683594,-11.237859,-11.143029,-8.543732,-11.236843
1006.687500,-9.344738,-11.200324,-11.704113,-11.701449
1006.691406,-6.036776,-3.961302,-5.116737,-2.584185
1006.695312,-3.540367,2.058274,-3.134547,-1.573259
1006.699219,-3.927670,-2.120463,0.167734,-0.615044
1006.703125,2.207479,0.582804,4.983098,10.291699
1006.707031,0.788635,-1.873475,6.031649,6.798641
1006.710938,4.438330,4.639126,9.705248,9.886753
1006.714844,3.836557,7.827762,10.146192,2.367579
1006.718750,8.906939,5.133063,9.993730,9.125531
1006.722656,9.707746,14.467476,9.391493,11.704485
1006.726562,3.688537,8.271136,5.791460,6.966957
1006.730469,11.884125,13.742193,7.896210,0.898531
1006.734375,10.127177,11.369934,8.439285,20.687132
1006.738281,7.279169,10.900232,7.660992,11.487262
1006.742188,6.646017,-0.861010,10.543212,6.307607
1006.746094,0.558006,0.160200,1.315908,2.877417
1006.750000,-7.129474,7.214677,1.909965,-4.052663
1006.753906,2.798506,3.231265,-4.469670,-1.050896
1006.757812,-7.263251,-7.590292,-3.361395,-3.651836
1006.761719,-13.214538,-7.463060,-7.638517,-14.028249
1006.765625,-7.617730,-9.703849,-10.513086,-6.562606
1006.769531,-4.975760,-12.703746,-7.692977,-16.441381
1006.773438,-10.938066,-2.534302,-18.748588,-6.915246
1006.777344,-9.749902,-12.585362,-9.635384,-9.210368
1006.781250,-13.946506,-11.345169,-7.020904,-4.276036
1006.785156,-8.573148,-1.620469,-11.136784,-4.938258
1006.789062,-8.645222,-13.160757,-9.460711,-6.255505
1006.792969,-3.773489,0.416757,-5.554810,-1.581512
1006.796875,-5.363307,-4.024141,-4.034510,-4.961277
1006.800781,1.435310,2.092399,-0.618219,2.733293
1006.804688,0.919324,6.515117,4.233875,5.113462
1006.808594,6.699226,2.250303,6.025047,5.808932
1006.812500,11.236863,5.703712,14.814632,14.337925
1006.816406,11.473814,11.657885,8.954268,6.557164
1006.820312,16.012845,6.330909,17.064528,11.308513
1006.824219,11.024751,9.806025,13.182818,10.426892
1006.828125,17.149926,15.415367,9.632829,12.047256
1006.832031,11.351119,8.594709,9.728962,2.395903
1006.835938,14.958449,4.893586,13.819364,5.304362
1006.839844,2.310914,3.531796,3.494562,3.114840
1006.843750,-2.919761,2.728584,4.941145,8.778558
1006.847656,-1.083548,-4.551778,6.424637,-4.713338
1006.851562,0.136383,-1.179135,-3.453025,-2.543519
1006.855469,-10.367700,-2.640516,-8.441482,-4.374277
1006.859375,-0.016311,-7.980992,-1.288340,-2.026247
1006.863281,-5.242279,-2.765780,-6.243225,-8.386062
1006.867188,-8.685415,-6.972251,-12.212806,-7.863765
1006.871094,-6.688669,-9.333555,-13.720156,-10.949778
1006.875000,-17.097687,-7.931453,-7.045324,-5.114283
1006.878906,-6.609572,-8.298867,-11.257717,-11.078035
1006.882812,-7.086596,-6.145675,-6.222301,-11.248836
1006.886719,-9.216933,-4.431953,-4.285972,-2.179290
1006.890625,-10.468304,-5.940956,-4.458812,-6.536745
1006.894531,-4.867451,-10.156221,-1.276562,2.802478
1006.898438,0.202899,0.624797,0.779809,-4.004806
1006.902344,1.561647,-1.778717,4.983331,-7.652847
1006.906250,1.752752,4.005512,3.807195,1.564475
1006.910156,5.781082,4.568169,9.118952,10.410734
1006.914062,2.816930,15.258599,-2.769691,14.051092
1006.917969,10.377279,15.623739,12.505780,9.514690
1006.921875,9.539455,16.116550,5.794713,6.142080
1006.925781,8.546442,12.724929,8.797591,16.528030
1006.929688,2.732296,5.920324,9.287588,9.135243
1006.933594,4.613675,11.490569,11.543893,7.954923
1006.937500,4.656435,14.603496,4.690654,4.896253
1006.941406,-0.707064,-1.578547,4.958650,1.420910
1006.945312,2.361280,3.957075,2.576706,3.199952
1006.949219,3.765981,-1.932042,5.501430,3.791785
1006.953125,-5.630012,1.869614,-5.831309,-1.048780
1006.957031,-1.176551,-1.139129,-2.753498,-6.993011
1006.960938,-9.881137,-6.083791,-12.117521,-7.349056
1006.964844,-12.185958,-6.277479,-2.751658,-6.805168
1006.968750,-14.932445,-17.250371,-11.985256,1.365236
1006.972656,-8.691810,-12.893054,-19.998553,-13.990876
1006.976562,-14.380419,-17.715302,-8.611624,-3.028435
1006.980469,-2.508474,-4.681063,-7.297023,-9.821820
1006.984375,-13.353471,-16.867021,-2.901310,-12.586364
1006.988281,-2.475140,-6.714912,-7.037663,-10.997144
1006.992188,5.010846,0.107943,-5.948085,0.049984
1006.996094,-1.557442,1.220548,-3.531999,2.833910
1007.000000,-0.026167,-3.135937,-1.396738,-4.346199
1007.003906,8.003255,3.073247,5.193235,7.784557
1007.007812,6.942574,6.579090,5.615493,4.804541
1007.011719,5.773075,-1.271462,12.826415,13.827469
1007.015625,13.023199,1.461540,11.427724,12.559330
1007.019531,16.885262,12.276375,10.704215,11.046531
1007.023438,11.126613,7.036077,13.655188,9.394928
1007.027344,8.125484,5.132543,3.905144,13.802022
1007.031250,8.191583,10.163543,9.869648,8.434111
1007.035156,9.107313,1.207899,12.159823,14.277056
1007.039062,5.658470,5.830355,7.817242,14.914652
1007.042969,5.104004,-1.460592,-2.214693,1.563145
1007.046875,2.265039,1.624557,-1.150425,0.173873
1007.050781,-4.519331,-3.179673,0.865827,-6.414649
1007.054688,-5.758645,-1.105439,-2.096167,-1.584110
1007.058594,-3.913339,-8.172854,-9.758913,-1.741767
1007.062500,-1.681461,-3.189912,-2.315041,-8.279457
1007.066406,-6.626268,-9.416763,-4.923105,-9.176784
1007.070312,-14.792853,-13.833765,-9.765960,-12.517919
1007.074219,-8.701984,-9.167274,-11.656198,-13.042993
1007.078125,-7.320040,-8.774729,-9.548687,-5.526683
1007.082031,-14.113299,-5.428393,-15.074167,-11.306268
1007.085938,-9.030411,-4.805692,-10.354476,-6.982677
1007.089844,-2.906261,-7.434405,-7.573599,-4.616363
1007.093750,-3.187842,-3.065927,3.160399,-4.558865
1007.097656,-2.721274,2.546066,-5.305817,-2.501503
1007.101562,2.031547,3.390949,4.577104,-1.814438
1007.105469,2.014428,-2.557130,-1.487821,-2.588699
1007.109375,3.320770,5.277404,4.414411,7.119241
1007.113281,10.027143,4.497859,11.042689,2.535654
1007.117188,10.561282,9.609408,8.634825,9.300922
1007.121094,10.675095,4.490136,3.800485,10.885664
1007.125000,4.704401,5.709977,2.258457,11.735060
1007.128906,6.227917,5.032970,7.719022,11.642918
1007.132812,4.966613,11.823983,8.778451,9.648612
1007.136719,3.627834,4.546069,10.550937,5.116818
1007.140625,6.009115,11.163138,5.237168,10.996225
1007.144531,-1.375871,4.536120,4.230472,-3.988488
1007.148438,-1.849428,1.120772,0.640172,4.354308
1007.152344,-2.522407,-4.030723,-5.085858,1.739197
1007.156250,-7.695740,-4.995905,-3.830916,-1.171475
1007.160156,-3.097577,0.778567,-9.734977,-3.336924
1007.164062,-10.529067,-12.991052,-3.218109,-4.430089
1007.167969,0.699616,-0.974501,-14.821254,-3.767012
1007.171875,-4.878636,-5.676309,-14.429742,-1.494133
1007.175781,-17.857564,-6.701948,-11.208022,-8.887243
1007.179688,-6.572705,-14.422446,-10.258902,-10.097282
1007.183594,-4.669117,-11.590151,-6.253028,0.324743
1007.187500,-7.474551,-5.173831,-6.112929,-2.188327
1007.191406,-5.553487,-9.501863,-4.760155,2.919557
1007.195312,-4.966479,-3.868629,-4.117091,8.627515
1007.199219,-7.037751,5.900740,2.534767,-2.306018
1007.203125,2.289024,-2.905916,0.602600,3.669297
1007.207031,8.734566,5.515471,2.721591,10.786444
1007.210938,6.263895,11.406924,11.439713,4.273410
1007.214844,8.318426,8.269145,8.468927,7.763975
1007.218750,5.388240,11.521952,9.348255,3.385867
1007.222656,10.513386,11.578906,5.740849,9.590200
1007.226562,17.583250,3.065723,8.408578,8.615369
1007.230469,7.461313,13.456237,12.802347,5.845643
1007.234375,5.844396,6.876811,4.228789,10.207780
1007.238281,6.141854,10.318852,8.750355,6.741192
1007.242188,2.931550,1.892565,11.154225,4.005020
1007.246094,0.014062,-7.431890,-5.723495,-0.792651
1007.250000,2.818938,-3.451712,4.076565,2.371739
1007.253906,-5.000551,-1.400339,0.441881,-4.582425
1007.257812,-11.233088,-1.544886,0.418843,-0.669662
1007.261719,0.105501,-2.324971,-6.738044,-14.921247
1007.265625,-6.604319,-1.970319,-3.695316,-5.217897
1007.269531,-15.220575,-7.949020,-9.790974,-2.715720
1007.273438,-7.156948,-8.007653,-6.323762,-6.615231
1007.277344,-6.973454,-16.303386,-3.125408,-3.820086
1007.281250,-16.838163,-5.395852,-12.873230,-3.102074
1007.285156,-6.298370,-10.102292,-4.442880,-5.185572
1007.289062,-11.207048,-8.572372,0.179558,-7.350564
1007.292969,-8.353020,-8.665672,-6.055551,-9.069003
1007.296875,-3.169338,-1.751359,1.932787,-2.435924
1007.300781,-5.974672,-0.400730,4.663649,-1.581742
1007.304688,14.312011,1.417474,5.863281,4.581774
1007.308594,5.008142,10.885434,7.820865,8.559801
1007.312500,7.681886,12.387047,3.539514,8.113611
1007.316406,4.168575,6.683116,13.753991,13.458380
1007.320312,11.148698,2.634688,3.760227,12.611726
1007.324219,13.517442,13.292730,8.553374,4.019349
1007.328125,12.679536,9.660997,9.624871,2.012390
1007.332031,6.022628,12.972723,10.626050,6.250457
1007.335938,4.857012,10.172884,3.453597,8.529200
1007.339844,-4.332884,4.437523,-0.705068,8.011904
1007.343750,7.872208,0.727444,4.341388,1.297958
1007.347656,9.121162,3.415097,-5.530450,-0.435654
1007.351562,8.015452,1.067040,-0.334453,0.182792
1007.355469,-0.506629,-3.704802,-3.107288,-1.558090
1007.359375,-5.055269,-2.942064,-4.745106,-10.603524
1007.363281,-8.984342,-9.453471,-6.292059,-0.355628
1007.367188,-8.517281,-16.435617,-5.272282,-0.645813
1007.371094,-5.295515,-10.660801,-9.512031,-8.889676
1007.375000,-14.097508,-15.506075,-10.272319,-12.445389
1007.378906,-3.288410,-12.823918,-10.762715,-11.938245
1007.382812,-15.733086,-7.827538,-3.795991,-11.370175
1007.386719,3.654550,-6.184199,-4.510825,-8.325248
1007.390625,-4.791397,-5.864449,-7.145921,-2.696536
1007.394531,-6.966546,-7.353225,-2.946764,-9.241194
1007.398438,-3.594050,-4.208560,-0.767525,-0.168072
1007.402344,-0.759927,4.345651,4.966598,-1.244233
1007.406250,0.121661,5.097732,1.665026,7.144545
1007.410156,15.195438,12.301439,7.405841,1.888275
1007.414062,12.477806,2.543979,6.938763,13.807690
1007.417969,13.326024,12.059045,13.509388,11.298264
1007.421875,9.321420,6.173900,11.205555,12.593772
1007.425781,12.912990,8.410788,4.094268,12.790254
1007.429688,4.103343,8.518894,11.656334,9.640518
1007.433594,7.112580,16.838938,3.647422,19.178650
1007.437500,6.865285,8.913599,6.536147,4.210891
1007.441406,8.573802,6.002087,3.243256,7.435767
1007.445312,4.714802,6.213791,4.346056,2.289061
1007.449219,-1.818057,0.317793,0.867405,4.033432
1007.453125,-5.140978,-6.690434,6.275833,-0.470590
1007.457031,-8.162111,-8.627180,-7.515289,-5.782609
1007.460938,-2.281715,-14.996629,-0.854477,-8.713006
1007.464844,-11.757736,-12.553966,-7.374458,-6.916368
1007.468750,-12.602480,-7.180701,-14.850235,-7.910753
1007.472656,-7.987545,-12.897415,-13.238751,-6.366053
1007.476562,-9.635209,-11.331982,-2.190029,-7.878133
1007.480469,-11.172917,-8.537008,-9.466632,-5.128045
1007.484375,-8.642717,-16.181107,-9.118163,-5.733943
1007.488281,-8.706107,-8.150970,-8.989525,-5.455413
1007.492188,0.092809,-7.520275,-1.604374,-3.831390
1007.496094,4.290713,-7.108613,-2.257533,-1.837198
1007.500000,-3.583993,4.078747,-0.028528,3.117541
1007.503906,10.886873,1.341013,1.361874,-0.977730
1007.507812,6.246099,10.863171,2.730428,7.894885
1007.511719,12.110305,10.375807,5.732032,2.314121
1007.515625,9.782792,14.712729,10.074110,9.292658
1007.519531,15.451902,11.522013,15.524677,12.803001
1007.523438,3.690090,7.179723,21.979913,4.096076
1007.527344,10.064421,7.944144,9.200616,9.432489
1007.531250,8.374507,10.487178,13.480718,4.468953
1007.535156,8.476681,4.946207,12.033736,6.436135
1007.539062,3.215287,4.535727,8.071665,3.979348
1007.542969,4.727954,3.535101,9.939706,3.548334
1007.546875,0.354902,1.125884,2.932998,0.596685
1007.550781,-5.218289,-1.623468,-4.119109,3.624098
1007.554688,-3.217936,-7.126997,-3.249785,-0.666092
1007.558594,-11.711739,-3.862876,-8.460438,-7.738246
1007.562500,-6.319375,-7.558068,-10.134330,-0.796361
1007.566406,-9.400129,-9.175057,-21.660600,-2.599272
1007.570312,-13.970469,-4.218683,-12.675579,-7.533727
1007.574219,-7.936712,-10.522303,-10.571370,-8.189510
1007.578125,-16.823866,-17.649400,-12.170728,-8.125771
1007.582031,-6.658859,-8.937581,-8.437254,-4.645487
1007.585938,-1.271748,1.282116,-3.968221,-12.922825
1007.589844,-12.545171,-1.639801,-4.337401,-4.966610
1007.593750,0.289675,1.672565,2.467428,3.966636
1007.597656,-4.404075,-0.070083,-2.561700,-4.895728
1007.601562,-0.381260,-3.327029,1.312286,7.028979
1007.605469,-0.838485,3.111283,6.566878,2.454546
1007.609375,5.995664,6.644186,2.710084,6.184480
1007.613281,12.533298,1.653306,4.687198,1.619119
1007.617188,7.003265,10.727301,6.031143,5.646268
1007.621094,9.340224,5.842791,8.349131,4.305369
1007.625000,4.743922,13.342500,7.590253,6.821394
1007.628906,12.224659,17.371660,8.637162,20.169682
1007.632812,9.911344,15.427166,12.506151,9.721458
1007.636719,4.361934,5.368186,10.008277,3.153010
1007.640625,10.129104,10.037345,5.252053,-2.474224
1007.644531,9.161926,-4.618618,8.171868,-0.541112
1007.648438,6.327072,-0.874382,-4.341670,3.699365
1007.652344,-7.757736,1.631942,-9.637552,-4.034465
1007.656250,2.680442,-6.575127,3.671992,-6.336937
1007.660156,-3.734257,-12.997975,-8.177122,-4.357404
1007.664062,-9.072204,-12.484119,-0.270850,-14.448576
1007.667969,-18.854721,-8.361987,-11.858286,-10.416486
1007.671875,-8.428608,-10.904021,-6.390566,-7.658835
1007.675781,-3.682159,-11.471852,-11.517237,-7.334747
1007.679688,-8.952940,-11.299454,-9.780680,-7.232308
1007.683594,-15.038478,-8.876228,-6.670509,-8.603483
1007.687500,-4.963125,-1.695472,-3.069336,-1.476819
1007.691406,-6.426015,-5.494085,-8.281102,-9.240964
1007.695312,-4.012315,-6.579743,-6.273616,-1.602564
1007.699219,5.768359,4.408173,-9.697301,-2.161604
1007.703125,-6.658787,4.849241,7.524055,1.981801
1007.707031,9.378540,3.491536,3.511128,4.433413
1007.710938,-0.999052,4.562492,7.060347,7.673631
1007.714844,9.338832,9.144921,3.674632,10.272612
1007.718750,9.205282,15.052099,3.718215,9.632107
1007.722656,17.034021,10.307054,13.766307,10.160934
1007.726562,10.031216,11.697745,8.112540,9.597461
1007.730469,3.806869,11.655861,12.538656,10.109912
1007.734375,5.760115,7.270991,5.628282,9.945474
1007.738281,2.529452,7.272395,14.263161,3.006172
1007.742188,6.672991,4.630565,5.675955,18.433185
1007.746094,10.079262,6.855037,-1.205205,-2.095861
1007.750000,0.867119,-0.998025,8.455298,3.473186
1007.753906,0.158252,-1.116203,-2.192591,-1.093676
1007.757812,1.628914,-6.126104,5.641981,-4.554265
1007.761719,-9.358788,-15.114924,-12.565266,-5.554589
1007.765625,-11.066736,-2.651542,-10.573059,-5.307490
1007.769531,-2.286937,-8.105206,-11.084801,-4.582649
1007.773438,-11.930099,-0.912806,-10.975811,-14.762834
1007.777344,-18.078533,-11.979565,-11.747417,-8.099172
1007.781250,-7.199631,-8.267455,-9.791547,-16.598545
1007.785156,-9.592809,-5.866915,-13.228256,-11.851458
1007.789062,0.692426,-11.923408,-5.141941,-10.194404
1007.792969,-6.716791,-8.929257,-0.572321,-2.545156
1007.796875,4.586079,-4.508928,0.527980,-5.066034
1007.800781,4.583688,5.046159,-5.798948,3.695620
1007.804688,3.782417,6.256454,-3.685843,6.124251
1007.808594,7.759551,6.373636,6.729383,10.480815
1007.812500,3.579269,4.202727,11.065957,15.063157
1007.816406,7.398973,8.892074,3.183197,9.981030
1007.820312,7.810694,9.034312,10.334688,9.062929
1007.824219,15.397838,14.680730,12.302506,13.621775
1007.828125,14.711392,4.343075,11.105777,11.445414
1007.832031,14.028006,5.678892,6.783243,15.815577
1007.835938,16.137683,2.214841,12.155510,10.181946
1007.839844,2.156458,4.036382,2.624590,2.436802
1007.843750,2.724021,0.787648,-1.299314,1.969193
1007.847656,-2.854006,-4.099159,3.615500,2.340297
1007.851562,-1.395486,-2.968491,-4.235336,-0.114508
1007.855469,-7.206035,-1.253771,4.503908,-5.485147
1007.859375,-7.718609,-0.767380,-5.458857,-4.981609
1007.863281,-6.235690,-12.978822,-1.389767,-15.192440
1007.867188,-4.496140,-11.416259,-3.606426,-7.247708
1007.871094,-7.369865,-10.056897,-10.053045,-7.330317
1007.875000,-11.463369,-10.293002,-13.332343,-9.511836
1007.878906,-18.716426,-5.593281,-13.372070,-11.453248
1007.882812,-9.490316,-8.716552,-10.234170,-6.883220
1007.886719,-8.526405,-3.587117,-2.689354,-8.874144
1007.890625,-9.663762,-1.955947,-13.030457,4.406747
1007.894531,-0.422913,-0.148255,3.722047,-4.923449
1007.898438,7.179913,-1.951161,-7.697252,-3.393124
1007.902344,-3.752805,-1.945353,6.781979,2.375251
1007.906250,-3.169660,9.206917,-0.086219,4.002217
1007.910156,4.624744,2.668504,2.831695,4.652663
1007.914062,5.014889,7.640006,15.396080,4.779423
1007.917969,13.719621,2.801443,7.895215,4.281109
1007.921875,11.466986,13.366638,4.028583,11.589224
1007.925781,10.859086,11.936876,7.510204,12.925288
1007.929688,6.740910,10.935939,7.476302,17.732185
1007.933594,11.741838,12.937221,7.129700,13.420577
1007.937500,5.911425,7.554260,5.997399,15.249170
1007.941406,0.428100,10.454763,0.254358,-0.503564
1007.945312,5.639523,0.247866,2.995632,1.911061
1007.949219,2.344290,3.651541,-5.010576,2.380382
1007.953125,2.307746,-2.934606,1.159717,-2.220706
1007.957031,-3.657728,-1.973222,-4.534869,-6.437829
1007.960938,-8.169511,-11.894102,-2.158300,-7.538751
1007.964844,-10.068671,-3.078229,-10.855374,-11.337395
1007.968750,-5.873642,-8.134347,-7.898917,-6.677462
1007.972656,-15.760552,-5.585964,-11.652181,-4.490342
1007.976562,-10.387377,-10.948302,-10.269574,-2.487677
1007.980469,-8.138685,-6.406205,-6.150835,-5.982286
1007.984375,-4.791770,-14.322644,-12.999525,-14.360488
1007.988281,-8.414193,-15.915519,-7.384601,-3.414588
1007.992188,-7.655088,-5.916244,4.453041,0.084221
1007.996094,-7.397958,-5.631145,-0.331469,-8.600077
1008.000000,0.864438,-0.935062,-1.922980,2.214468
1008.003906,-0.905657,-1.246888,0.039933,3.273878
1008.007812,4.865519,1.016064,9.989458,5.796534
1008.011719,6.750320,13.597978,-3.723827,0.808343
1008.015625,0.664604,15.719840,14.159211,9.754343
1008.019531,7.790717,2.290682,1.999906,12.515304
1008.023438,11.192823,12.298481,10.130783,14.691650
1008.027344,10.557313,7.986767,8.211050,13.393525
1008.031250,9.333611,1.599746,7.009881,8.333762
1008.035156,12.415447,5.656763,4.269097,6.078481
1008.039062,3.493931,7.219369,5.683232,8.129626
1008.042969,3.935757,7.476593,-2.276497,-5.615088
1008.046875,5.217585,2.480827,-3.171898,1.960403
1008.050781,-0.379319,3.347400,1.904481,3.191807
1008.054688,-0.518109,-2.878391,3.592353,2.721999
1008.058594,-10.533860,-1.062720,-0.681403,-1.327182
1008.062500,-5.997664,1.636730,-5.327766,-13.049516
1008.066406,-12.692177,-4.756237,-11.284704,-9.502316
1008.070312,-8.351760,-16.697083,3.076650,-10.933354
1008.074219,-16.206633,-8.049824,-10.564028,-7.347951
1008.078125,-9.840265,-7.328427,-7.880821,-12.911388
1008.082031,-14.973009,-5.290433,-10.129522,-0.553182
1008.085938,-13.770259,-13.565487,-7.618533,-7.863527
1008.089844,-10.490965,-5.209996,-5.419617,-10.947591
1008.093750,2.927324,-1.039005,4.645698,-0.189002
1008.097656,-6.985656,-7.425022,-3.524784,-5.331179
1008.101562,-4.231642,-4.113973,3.114255,0.788955
1008.105469,3.860538,-0.519160,2.129956,0.560071
1008.109375,5.671789,4.880517,6.742575,7.408328
1008.113281,8.629026,4.363397,-0.763571,4.519716
1008.117188,4.724885,6.134416,13.696118,13.505015
1008.121094,9.626146,3.977092,13.768457,6.935217
1008.125000,7.525802,12.732622,17.479072,13.192767
1008.128906,6.154183,9.237088,13.281867,11.004147
1008.132812,8.701465,11.689461,5.638176,9.357772
1008.136719,1.420436,3.601614,5.851521,1.244575
1008.140625,6.945504,1.198690,11.320352,2.206509
1008.144531,-1.557364,8.168918,3.428478,2.955993
1008.148438,2.811053,4.312175,-0.647218,0.455476
1008.152344,-2.724748,-3.561547,-2.172733,-3.363052
1008.156250,1.327464,-9.507260,-9.906903,-7.982453
1008.160156,-5.436522,-8.250365,-1.875675,-9.871179
1008.164062,-11.257108,-5.426621,-6.533098,-7.200097
1008.167969,-1.255424,-10.002263,-6.944216,-7.968175
1008.171875,-9.786085,-6.258718,-11.621698,-13.688138
1008.175781,-9.270120,-16.035566,-17.458297,-8.411140
1008.179688,-7.289426,-12.803512,-8.814285,-5.452565
1008.183594,-6.921116,-14.475569,-6.361945,-10.510389
1008.187500,3.575729,-5.396489,-8.137833,-7.191581
1008.191406,-5.780487,0.521525,-3.983878,2.893352
1008.195312,0.021392,-6.663766,2.811281,2.009863
1008.199219,-7.766719,0.788465,-4.843665,1.444220
1008.203125,3.228174,4.433939,-3.504046,0.051653
1008.207031,4.518034,7.548629,8.112480,4.158922
1008.210938,3.003650,5.298723,4.084134,2.805449
1008.214844,1.727901,11.961545,12.299733,7.866017
1008.218750,7.182614,15.232165,9.331120,12.585180
1008.222656,9.978323,13.481840,3.640083,5.992418
1008.226562,10.022591,8.731571,10.958642,8.931370
1008.230469,4.659473,5.309718,8.611418,9.958926
1008.234375,4.659509,10.303804,3.136341,11.025587
1008.238281,5.466380,5.301909,7.899591,4.804287
1008.242188,6.837914,-2.110076,3.900386,0.978055
1008.246094,6.687864,9.202559,-0.495784,-0.592118
1008.250000,-2.203853,4.393052,-1.669346,2.696410
1008.253906,-11.509667,-12.061805,-3.032686,-6.501837
1008.257812,-5.357192,-6.238710,-7.687165,-4.372756
1008.261719,-6.103734,-3.387971,-8.213293,-8.664533
1008.265625,-6.848270,-11.296622,-15.554546,-6.000776
1008.269531,-6.723824,-13.462161,-9.595245,-8.469259
1008.273438,-8.549555,-10.993659,-7.652249,-3.429698
1008.277344,0.652160,-4.484230,-6.337646,-1.151923
1008.281250,-4.994198,-1.861459,-7.134806,-17.842424
1008.285156,-6.276397,-7.611313,-4.645281,-10.964871
1008.289062,-13.769017,-12.335257,-10.965668,-6.848352
1008.292969,-2.327378,-8.854047,-10.742801,-0.939420
1008.296875,-2.259025,-1.183984,1.718724,8.096618
1008.300781,-1.784574,0.380223,1.906249,-7.649989
1008.304688,3.590420,-0.726618,5.366742,-5.251643
1008.308594,-3.312865,-0.001519,7.814805,6.326716
1008.312500,9.474099,10.236872,5.983494,4.629275
1008.316406,10.276641,18.301291,11.770439,11.645492
1008.320312,12.707784,8.959732,5.518207,14.926613
1008.324219,11.503567,14.579940,6.343110,8.842908
1008.328125,7.992556,3.858126,9.211598,10.682947
1008.332031,9.327547,14.089435,10.202389,13.296550
1008.335938,7.331219,7.313883,10.790215,10.599243
1008.339844,0.375255,-1.673473,10.961358,9.160787
1008.343750,4.980984,10.064395,3.019577,10.050466
1008.347656,2.241245,3.384654,-0.288704,7.056050
1008.351562,-0.026353,2.579005,-1.036434,-3.442689
1008.355469,-1.553040,-4.780576,-5.875460,-5.285012
1008.359375,-12.212814,-4.955662,-9.424033,-3.447238
1008.363281,-4.335387,-4.463315,-13.300292,-15.943172
1008.367188,-7.422497,-10.301940,-11.424002,-8.248862
1008.371094,-12.122343,-9.329871,-11.924498,-1.456134
1008.375000,-18.334074,-8.861734,-18.938704,-14.473314
1008.378906,-14.222317,-5.785381,-6.306370,-8.185602
1008.382812,-10.732346,-5.547192,-12.349585,-7.446458
1008.386719,-9.247448,-8.553824,-1.541202,-6.050405
1008.390625,-8.865905,-11.499307,4.169798,-7.540020
1008.394531,-8.506029,-7.256767,-4.943234,1.982708
1008.398438,3.492403,2.968042,1.623915,-1.221168
1008.402344,-0.166133,-6.507034,3.501937,2.793962
1008.406250,5.038177,2.667560,8.404312,-1.065064
1008.410156,2.461805,3.537816,8.553682,-0.771833
1008.414062,7.779925,10.484122,11.364779,9.602060
1008.417969,8.675472,11.677861,13.840653,5.017118
1008.421875,12.735438,11.578414,3.482511,8.341839
1008.425781,12.057950,9.811997,15.664806,10.798390
1008.429688,1.740943,6.110418,5.077081,12.834760
1008.433594,7.882537,3.233661,6.043047,1.113602
1008.437500,9.399352,3.130641,5.018025,6.376803
1008.441406,8.369075,13.922033,-0.437645,-1.431443
1008.445312,3.944414,2.908801,-0.852767,5.232236
1008.449219,5.408218,-3.317944,7.376858,2.381321
1008.453125,-0.519385,-3.918666,-7.926213,-2.030606
1008.457031,-9.273851,-10.823772,-3.634395,-10.021778
1008.460938,-4.614097,-12.334276,-11.267434,-7.884376
1008.464844,-6.606487,-10.053359,-10.666969,-1.874626
1008.468750,-4.289353,-13.028373,-6.074481,-11.685558
1008.472656,-2.894395,-16.521604,-0.433250,-9.689477
1008.476562,-12.141879,-19.647408,-10.953340,-5.115916
1008.480469,-11.061709,-11.801050,-6.407384,-7.551885
1008.484375,-2.353634,-6.887640,-0.061155,-6.344875
1008.488281,-10.572777,-16.440346,-13.614328,-6.926722
1008.492188,-4.381474,0.115515,-7.622817,1.241940
1008.496094,-4.601900,-0.055162,-4.347064,-4.353761
1008.500000,-3.918559,-2.788866,0.248508,-4.548497
1008.503906,1.307724,3.115518,-2.438540,4.649735
1008.507812,4.728745,1.338290,2.598769,-0.397988
1008.511719,6.974021,6.849784,-2.562237,8.457309
1008.515625,11.300356,10.335183,-0.508893,12.419063
1008.519531,9.552603,3.400154,11.000750,11.914444
1008.523438,8.609466,12.219837,18.730303,5.942459
1008.527344,12.326625,17.274770,9.132967,9.525178
1008.531250,19.005957,18.916936,5.831852,11.066413
1008.535156,16.541715,6.319775,8.087292,2.939842
1008.539062,9.103525,2.747958,4.925637,2.068816
1008.542969,1.730635,-1.840515,5.915000,3.124936
1008.546875,-3.036493,4.472009,-2.448590,-3.284795
1008.550781,-4.563523,1.388292,3.920902,0.070850
1008.554688,-9.948469,-2.523019,-2.345121,-0.305666
1008.558594,-5.451606,-5.463752,-10.393020,-4.322987
1008.562500,-6.112960,-2.128338,-10.261992,-12.428538
1008.566406,-9.801683,-9.740242,-8.104866,-13.622325
1008.570312,-7.794001,-1.452369,-10.843381,-15.039791
1008.574219,-3.547949,-13.737886,-11.112793,-11.602848
1008.578125,-11.514134,-18.455886,-10.204010,-8.092853
1008.582031,-2.551955,-17.809655,-0.618756,-5.536518
1008.585938,-8.195577,-7.537600,-8.371545,-7.027279
1008.589844,-4.727548,-6.213791,-1.058547,-9.420127
1008.593750,-5.072065,-2.192057,-6.693592,-3.461468
1008.597656,1.481625,-1.363726,0.943033,-1.165971
1008.601562,-3.086654,-9.265116,3.437576,0.433339
1008.605469,6.037697,-1.777182,0.673371,6.541301
1008.609375,3.504759,5.275688,7.345172,8.831476
1008.613281,5.091793,9.960359,13.575226,6.888748
1008.617188,-0.622864,10.272732,14.762283,8.949374
1008.621094,14.165786,-2.678731,13.901945,4.075937
1008.625000,9.642422,4.374072,11.332995,0.613318
1008.628906,7.248893,15.832362,6.120010,11.522984
1008.632812,7.164563,15.759626,6.228134,8.222297
1008.636719,6.415655,5.509623,1.480700,4.303077
1008.640625,5.043017,1.421923,4.224055,6.454615
1008.644531,12.480834,4.287829,-0.705879,6.000956
1008.648438,-2.587581,5.601780,-2.787451,-0.820156
1008.652344,-0.551547,-5.741846,-0.749641,-5.100429
1008.656250,-4.493487,-4.070058,-8.315816,0.403908
1008.660156,-2.614574,-7.313075,-6.270047,-4.535861
1008.664062,-6.679954,-12.846363,-13.746273,-9.316126
1008.667969,-12.497749,1.843148,-7.300330,-4.567558
1008.671875,-11.839478,-5.165132,-12.736068,-10.897631
1008.675781,-3.981402,-6.811136,-2.905496,-9.370802
1008.679688,-14.259733,-7.297509,-4.358556,-4.485334
1008.683594,-5.833885,-4.972311,-14.254824,-11.026929
1008.687500,-2.464222,1.735426,-6.445383,-2.316240
1008.691406,-2.546750,-3.937223,-8.061038,-2.938102
1008.695312,-4.283478,0.229924,-2.079307,2.510519
1008.699219,7.041644,-3.516491,-0.390298,-5.236921
1008.703125,3.303888,-1.067808,-6.073930,2.044126
1008.707031,3.178676,8.285343,4.232281,13.169593
1008.710938,6.604060,9.453771,5.926661,2.521760
1008.714844,8.632446,12.793938,9.477252,11.443110
1008.718750,9.197930,22.159175,15.921861,10.976843
1008.722656,13.162881,16.699368,11.439255,9.484289
1008.726562,9.298247,10.125430,2.894704,5.557137
1008.730469,0.756662,10.336885,2.285962,6.639785
1008.734375,10.856465,14.744314,2.507951,5.592725
1008.738281,11.763262,8.737706,8.433350,9.730675
1008.742188,5.563007,9.769285,6.013296,6.314346
1008.746094,3.576563,-2.136738,7.707038,-0.078429
1008.750000,6.717463,0.621067,-8.175904,4.496927
1008.753906,-2.769263,-3.763810,-2.082996,-1.683165
1008.757812,-4.814275,-2.611171,-2.370155,-11.515387
1008.761719,-6.044522,-3.427064,-9.703298,-3.924749
1008.765625,-6.617408,-6.423626,-7.502503,-6.964840
1008.769531,-4.228899,-11.445793,-8.324056,-8.875211
1008.773438,-15.488091,-14.808989,-12.580332,-13.742594
1008.777344,-9.196689,-9.796548,-9.562277,-9.906558
1008.781250,-13.818396,-11.505924,-5.457016,-4.841330
1008.785156,-9.111955,-4.393547,-10.272913,-1.937675
1008.789062,-4.641535,-9.699066,-11.140180,1.286126
1008.792969,-6.074928,-8.449801,-3.529586,1.574598
1008.796875,-3.389427,-3.785969,-4.170327,-4.487265
1008.800781,2.589106,2.672752,-0.483401,-9.215276
1008.804688,8.025748,3.326243,-4.028687,2.237102
1008.808594,1.464361,8.965174,3.140142,-0.881995
1008.812500,3.560997,9.780839,10.391506,14.149877
1008.816406,7.088413,12.610368,11.463154,10.860105
1008.820312,2.424553,9.968002,13.782792,7.535205
1008.824219,14.111941,11.424059,5.004341,18.801330
1008.828125,16.527293,6.489576,5.738998,14.889091
1008.832031,7.741959,1.897535,10.856336,6.310436
1008.835938,0.671196,6.514361,4.145050,5.800745
1008.839844,8.483566,4.463013,5.901038,-0.517525
1008.843750,9.027204,-1.231342,3.439662,2.575645
1008.847656,-1.640118,3.639587,-4.636229,-5.066606
1008.851562,3.432602,-5.853548,2.459690,0.013529
1008.855469,-3.219684,-3.804433,-10.808908,-7.831515
1008.859375,-13.317993,-4.370380,-1.423486,-14.317388
1008.863281,-7.384532,-9.232659,-4.159633,-7.711634
1008.867188,-9.407554,-10.138239,-8.608311,-6.335191
1008.871094,-9.725849,-16.886688,-10.440314,-17.936301
1008.875000,-10.268856,-10.102985,-14.874244,-16.549661
1008.878906,-7.142149,-9.082160,-14.515816,-17.181155
1008.882812,-5.018217,-10.031473,-8.712732,-10.856104
1008.886719,-13.578684,-11.271141,-11.286299,-6.095916
1008.890625,-0.314298,-8.727054,-4.963126,-2.221353
1008.894531,-5.413533,0.967030,-1.323981,-2.213347
1008.898438,3.222881,-3.634904,8.066999,0.320499
1008.902344,-0.433610,4.266653,9.377575,1.131069
1008.906250,2.061087,4.557616,-1.400398,-5.874835
1008.910156,5.038751,3.054635,10.570285,7.096426
1008.914062,10.688694,10.976424,13.845721,1.807260
1008.917969,15.858385,9.354321,11.599852,7.850890
1008.921875,6.202728,15.800069,9.879329,3.835601
1008.925781,5.187216,14.635690,9.691619,7.992639
1008.929688,17.202357,1.735923,6.505466,15.267087
1008.933594,1.531991,7.417306,11.282114,10.327527
1008.937500,6.116133,5.510760,9.758909,0.004601
1008.941406,4.471866,0.909096,-0.802315,5.279958
1008.945312,11.199499,-4.448698,12.032945,0.971457
1008.949219,2.082370,6.018977,-10.925384,-2.056834
1008.953125,-2.873039,1.312081,-0.486669,-2.586972
1008.957031,-8.983383,3.161515,-4.903778,5.223400
1008.960938,-8.279344,-13.771357,-8.808476,-14.903294
1008.964844,-12.430091,-8.182284,-8.174332,-9.788850
1008.968750,-15.578920,-7.106793,-14.026163,-6.908775
1008.972656,-9.899665,-10.591044,-5.783946,-5.783096
1008.976562,-10.748467,-9.724168,-13.287322,-9.865241
1008.980469,2.006873,-4.948493,-8.639349,-14.245773
1008.984375,-4.525197,-8.604275,-6.739902,-4.105755
1008.988281,-2.757395,-10.100769,-1.316020,-6.762461
1008.992188,-10.948195,-1.167828,-2.943210,-2.853505
1008.996094,2.488022,-7.978397,2.148338,-5.283778
1009.000000,0.142308,-1.211120,1.377829,2.858624
1009.003906,-2.205734,2.476629,-0.687274,-0.076380
1009.007812,4.618116,3.312528,1.738827,3.005823
1009.011719,7.338123,6.111448,12.312522,1.924287
1009.015625,16.941632,10.374194,3.202891,1.597281
1009.019531,0.138135,7.853047,12.860158,4.885582
1009.023438,11.892736,8.352868,9.839211,15.502745
1009.027344,9.095586,9.596276,8.241568,6.436192
1009.031250,4.278757,8.176281,11.835220,10.780009
1009.035156,10.289082,15.622228,1.807345,9.165725
1009.039062,6.969141,3.297682,7.537918,14.369198
1009.042969,6.290398,5.079052,6.008766,3.001240
1009.046875,-1.723073,2.899520,-1.052379,3.000803
1009.050781,5.192516,0.480607,0.360872,7.828638
1009.054688,-0.031678,-0.689581,-1.304601,-0.539799
1009.058594,-3.889279,-4.657577,-3.636465,-6.318813
1009.062500,-2.293971,-7.189002,-7.680519,0.214353
1009.066406,-8.132421,-13.015076,5.805033,-17.620820
1009.070312,-13.269791,-8.679996,-5.624456,-8.418198
1009.074219,-7.495763,-5.368283,-17.085245,-5.165613
1009.078125,-9.930860,-12.429976,-7.656052,-12.050681
1009.082031,-10.984489,-10.658506,-6.072875,-12.777166
1009.085938,-8.878604,-10.921858,-13.472187,-9.915648
1009.089844,-4.994474,-3.580139,-2.823589,-3.871812
1009.093750,-1.486934,-0.902178,-9.589633,-0.547677
1009.097656,5.829622,1.093731,-2.900922,-5.178713
1009.101562,4.263444,-1.699069,-6.672116,2.366219
1009.105469,2.125312,9.330114,4.724904,3.782031
1009.109375,5.735474,5.981717,0.518948,11.832148
1009.113281,4.573296,1.655284,3.769473,7.966264
1009.117188,4.305920,3.305939,6.296338,6.956515
1009.121094,11.480065,9.419373,6.091686,3.357791
1009.125000,13.899530,13.165079,18.486668,8.918103
1009.128906,11.812366,12.468741,12.687926,10.459594
1009.132812,16.944179,10.657151,5.582550,7.595248
1009.136719,4.604980,10.642898,6.005153,6.257197
1009.140625,0.550662,4.199410,14.720580,15.218043
1009.144531,6.378053,3.964351,-0.143041,11.250346
1009.148438,1.897072,3.548573,2.621980,4.127098
1009.152344,-6.655776,-0.820511,5.166971,1.293796
1009.156250,-1.380267,-0.415076,-0.517422,3.334949
1009.160156,-5.420503,-6.385985,-11.762268,-2.170889
1009.164062,-4.153209,-9.738205,-8.625814,-7.576397
1009.167969,-6.672825,-14.688429,-9.839574,0.636024
1009.171875,-0.768403,-11.426957,-12.421193,-11.221276
1009.175781,-13.075714,-9.522001,-2.147860,-12.033350
1009.179688,-12.630141,-17.914826,-8.794757,-7.804138
1009.183594,-9.379402,-12.169096,-11.055388,-3.793211
