timestamp,TP9,AF7,AF8,TP10
1000.000000,-1.492788,0.617565,-6.031807,-2.701170
1000.003906,-4.100609,5.239143,4.689564,-4.443077
1000.007812,6.406734,4.977630,2.209871,2.467984
1000.011719,0.131788,6.776155,6.063158,8.933612
1000.015625,4.925210,7.448632,7.388684,11.267799
1000.019531,5.252939,14.565183,10.572635,1.977853
1000.023438,7.585239,13.761649,10.935102,10.083046
1000.027344,13.491467,11.698855,13.753901,12.762130
1000.031250,4.538171,11.730545,10.625863,13.778422
1000.035156,8.232276,7.720444,10.657474,6.811006
1000.039062,3.826659,10.398741,5.017021,15.601479
1000.042969,6.871712,2.875056,1.714054,7.552428
1000.046875,5.769730,-4.365023,1.937265,8.658588
1000.050781,-4.922243,4.599899,-1.864285,-0.430246
1000.054688,-4.611480,-3.259602,-2.069858,5.864312
1000.058594,-6.227761,-6.112988,0.238109,-9.168891
1000.062500,-3.342188,-10.748546,-8.057101,-12.712396
1000.066406,-10.280978,-9.662461,-14.198387,-5.130559
1000.070312,-0.084435,-14.876695,-7.468228,-7.733679
1000.074219,-9.991647,-10.499441,-1.692963,-10.638882
1000.078125,-9.121447,-15.447726,-7.717506,-4.794698
1000.082031,-16.531888,-7.221278,-12.343619,-7.136416
1000.085938,-8.325491,-10.839207,-9.082222,-9.208900
1000.089844,-2.651782,-5.128676,-6.310092,-4.776347
1000.093750,-4.144441,-3.278638,-2.582832,-5.968072
1000.097656,-4.647564,0.217947,-0.794003,-3.168124
1000.101562,-0.974293,2.302488,-1.769239,6.366909
1000.105469,5.182944,5.797702,4.125178,1.249118
1000.109375,4.155878,4.833334,4.721025,-5.894634
1000.113281,5.263590,9.934381,9.776806,9.112640
1000.117188,13.177924,15.181628,4.816902,8.544689
1000.121094,1.712382,5.310782,7.673296,13.450814
1000.125000,5.663956,7.048960,11.231189,19.052327
1000.128906,6.389833,13.904079,7.264931,8.424532
1000.132812,8.006809,8.999980,4.902779,12.078871
1000.136719,4.289911,12.003276,4.332629,8.742276
1000.140625,8.009661,2.910173,8.331986,6.963177
1000.144531,5.744666,3.146357,10.352311,-1.506518
1000.148438,-1.461640,-0.500586,3.948760,-1.111627
1000.152344,-8.498684,-6.810933,5.086148,-4.737348
1000.156250,-3.990927,-7.127592,-0.976130,-5.117875
1000.160156,-1.518782,-9.220029,-9.636348,-8.076166
1000.164062,-11.549041,7.635979,-2.758009,-9.453103
1000.167969,-13.919461,-8.802193,-9.004653,-9.761858
1000.171875,-8.366706,-15.040834,-5.991214,-5.817306
1000.175781,-14.567343,-9.343211,-10.602396,-11.761638
1000.179688,-10.675849,-9.455744,-13.245215,-3.661277
1000.183594,-6.347651,-9.350791,-12.972968,-8.371768
1000.187500,-7.561325,-9.955383,-12.338266,-0.302327
1000.191406,-7.607580,-11.882618,-6.793048,-8.357815
1000.195312,-5.310529,-1.892474,1.715523,-1.436283
1000.199219,1.843243,-0.802529,-3.599260,-0.389410
1000.203125,-7.192909,-2.144707,-1.465464,3.553911
1000.207031,1.361250,3.332663,4.015265,9.985871
1000.210938,0.459274,4.508658,6.470353,5.928367
1000.214844,6.933809,7.923443,14.993599,13.785489
1000.218750,17.498871,9.744926,2.038689,5.842655
1000.222656,8.295364,10.565137,1.428264,11.686699
1000.226562,12.968987,14.853079,3.221585,12.798687
1000.230469,6.176132,11.515627,5.823086,7.862642
1000.234375,5.374326,5.229813,10.868719,4.367035
1000.238281,2.195852,11.734994,7.824184,-0.146465
1000.242188,15.145769,-0.236254,9.073915,9.294579
1000.246094,-1.305520,4.976407,2.568924,-3.042691
1000.250000,-4.013500,-0.787396,1.295592,0.530541
1000.253906,-6.089587,-1.191579,-4.698878,0.785051
1000.257812,-5.072485,-0.752144,-2.248962,-8.255897
1000.261719,-12.318717,-12.457484,-3.926742,-7.728368
1000.265625,-4.659697,-6.098531,-1.740160,-2.539522
1000.269531,-13.258461,-9.650566,-16.378021,-11.830776
1000.273438,-8.751087,-12.913292,-6.895438,-9.703456
1000.277344,-4.020016,-12.607740,-13.714691,-9.903065
1000.281250,-14.481110,-19.092500,-12.457736,-10.657968
1000.285156,-9.701476,-13.917127,-13.534313,-11.675771
1000.289062,-4.882729,-2.146280,-3.573121,-10.028853
1000.292969,1.761184,-2.024925,5.358253,-5.994875
1000.296875,0.244490,-7.506956,-0.124062,-6.698629
1000.300781,-0.775906,-1.515044,-5.834368,-3.043707
1000.304688,4.125661,-1.679020,4.024228,0.147256
1000.308594,5.942640,-0.641404,-1.323744,11.110131
1000.312500,1.127485,3.779145,8.781294,2.377581
1000.316406,0.424243,8.566825,7.999765,6.061683
1000.320312,20.118624,2.686951,15.241316,9.630856
1000.324219,15.030924,14.010054,10.868186,14.839588
1000.328125,7.800730,9.676761,13.063740,14.757030
1000.332031,15.113448,6.328494,11.107775,5.423877
1000.335938,7.262542,2.721592,2.468436,2.457051
1000.339844,10.570825,10.470053,2.255953,2.059379
1000.343750,1.874791,3.714783,6.325432,4.006901
1000.347656,0.568485,6.912609,3.568529,7.736733
1000.351562,-2.606366,-2.282560,6.381243,3.513272
1000.355469,-0.204942,0.269782,-4.277653,-0.212478
1000.359375,-3.510190,-0.676013,-8.358823,-5.527308
1000.363281,-10.976936,-5.480492,-6.724200,-2.912525
1000.367188,-16.235286,-4.980788,-5.326272,-13.792373
1000.371094,-14.875085,-6.711511,-10.047178,-10.228448
1000.375000,-8.055145,-15.859425,-10.531635,-7.788875
1000.378906,-6.514603,-10.227236,-8.960555,-15.136358
1000.382812,-11.423991,-5.653039,-1.903883,-13.893539
1000.386719,-9.341631,-13.492988,-7.012117,-4.046462
1000.390625,-12.344127,-7.472903,-2.708528,-4.001303
1000.394531,-1.035327,3.492535,-4.384588,-2.950720
1000.398438,-6.214260,0.163952,-5.923380,-0.538066
1000.402344,-6.125878,3.820843,3.173243,2.192634
1000.406250,-3.951079,-1.037805,6.527492,2.510295
1000.410156,5.283097,7.832235,0.589019,10.157307
1000.414062,2.718651,7.789696,8.450439,11.119098
1000.417969,-2.898168,6.620480,6.358042,12.341271
1000.421875,12.925235,4.979884,7.448711,10.800863
1000.425781,0.840336,12.035463,17.897543,7.704956
1000.429688,19.781849,4.690115,11.803497,6.187105
1000.433594,8.936053,9.469935,12.250634,18.920865
1000.437500,3.294256,11.875192,7.483705,4.629531
1000.441406,13.861121,4.482479,5.869869,5.437560
1000.445312,6.846947,-1.438807,8.400754,1.005097
1000.449219,1.484189,5.009480,5.780198,-4.132034
1000.453125,-0.228856,-4.690520,-2.288268,-2.057493
1000.457031,-13.781864,-14.071095,-4.039339,-2.921361
1000.460938,-9.602024,0.561517,-13.851035,-13.600165
1000.464844,0.018714,-9.829179,-12.562530,-4.376536
1000.468750,-12.923998,-8.569378,-4.308821,-11.079461
1000.472656,-15.797360,-10.439357,-10.891950,-11.665025
1000.476562,-3.247276,-7.495829,-13.509060,-7.251361
1000.480469,-10.113479,-6.239833,-7.101808,-8.972746
1000.484375,-11.627584,-11.978266,-0.872476,-11.397519
1000.488281,-8.445831,-6.307528,-6.313903,-7.347459
1000.492188,-1.052112,-13.293580,-1.758459,-8.687561
1000.496094,3.181829,-5.621297,-10.034420,-4.196333
1000.500000,3.529411,-3.685967,-1.681005,2.382125
1000.503906,3.454080,4.308762,3.160024,-0.686190
1000.507812,2.558337,9.171785,5.702875,7.239863
1000.511719,5.622669,9.626436,10.418907,2.414864
1000.515625,13.982712,9.697254,5.978890,11.569061
1000.519531,5.977799,5.012646,5.290048,7.635038
1000.523438,6.806560,16.404238,10.778127,4.504701
1000.527344,6.055950,4.688342,17.355339,7.916325
1000.531250,11.588622,7.977955,5.857004,7.840025
1000.535156,11.767531,6.650756,16.178552,10.528978
1000.539062,8.231065,-1.017712,12.457966,7.460151
1000.542969,-1.131428,5.031088,7.575029,-2.722361
1000.546875,9.156227,-0.996956,-0.748837,3.870311
1000.550781,2.962082,-0.961007,1.721180,-7.002846
1000.554688,0.398117,0.949434,-4.392143,-2.141776
1000.558594,-8.234008,0.553685,-2.876784,-3.663912
1000.562500,-7.332952,-5.800975,-8.611130,-9.691712
1000.566406,-18.201216,-7.066780,-11.160868,-8.058757
1000.570312,-14.606931,-9.600334,-16.590819,-2.864740
1000.574219,-11.263589,-8.086874,-14.522026,-12.805414
1000.578125,-9.941301,-6.534249,-9.380425,-5.998211
1000.582031,-12.055518,-8.167885,-9.219326,-1.748151
1000.585938,-6.027721,-3.619044,-8.328025,-8.350701
1000.589844,-0.068750,-7.334621,-9.807051,-1.620928
1000.593750,-4.767168,2.942005,-8.664882,1.327366
1000.597656,-0.846671,-0.031256,2.259453,-2.577591
1000.601562,3.050896,-5.719228,2.480496,2.175782
1000.605469,6.065269,10.507408,1.559736,3.869681
1000.609375,10.401641,7.254067,3.745356,-0.206833
1000.613281,8.646686,3.434616,10.923604,5.962364
1000.617188,9.318887,8.023252,7.884142,9.844566
1000.621094,10.615510,15.863434,12.708183,8.676769
1000.625000,12.511753,11.764917,7.155664,5.102230
1000.628906,8.436787,4.497435,7.657685,10.539870
1000.632812,10.193543,11.641491,12.224568,7.049807
1000.636719,13.496650,4.350910,16.001576,12.091461
1000.640625,3.012990,4.925456,6.511090,8.117366
1000.644531,10.487490,-1.331576,1.769704,6.210312
1000.648438,-3.560118,8.589229,-4.002985,1.648170
1000.652344,-2.954898,-5.623514,-4.277198,-2.013014
1000.656250,-9.133615,-3.314974,-3.888051,-6.931258
1000.660156,-0.456176,-2.717733,-3.310667,-3.493373
1000.664062,-4.638987,-2.293475,-8.531340,-4.020414
1000.667969,-5.273157,-6.782403,-7.420416,-14.699288
1000.671875,-6.292108,-8.932260,-9.242156,-9.145725
1000.675781,-5.461387,-18.277593,-8.465022,-6.779999
1000.679688,-10.418665,-4.994317,-10.187533,-4.156633
1000.683594,-12.414314,-11.411138,-14.438859,-7.912148
1000.687500,-0.263348,-9.544857,-4.837709,-2.146018
1000.691406,-5.257831,-0.477011,-6.300656,-11.044766
1000.695312,-6.124253,-3.594700,3.067797,-8.145592
1000.699219,-2.750580,3.522656,-0.374218,0.017506
1000.703125,13.302329,2.771331,3.194538,-7.171253
1000.707031,2.757401,4.973603,4.896270,7.343923
1000.710938,6.107365,11.269264,14.351173,7.442959
1000.714844,6.208615,1.987130,4.257845,4.176010
1000.718750,9.351431,13.385323,16.972563,5.682692
1000.722656,19.093532,10.479153,11.001362,9.627706
1000.726562,8.107956,9.337748,12.203481,9.686810
1000.730469,2.560932,10.652931,8.815166,2.735319
1000.734375,5.278179,5.936861,9.192614,9.688639
1000.738281,10.494824,7.140073,8.225597,7.602912
1000.742188,7.171344,-4.877338,3.851416,10.135271
1000.746094,5.654006,3.449454,4.915469,1.387118
1000.750000,-10.693883,2.275379,-3.665555,4.263584
1000.753906,-1.391805,-4.955972,-3.548908,-0.557681
1000.757812,-3.827829,-10.131521,-0.322658,-5.230512
1000.761719,-12.011596,-14.067024,-8.037950,-5.035757
1000.765625,-6.197437,-7.345902,-9.804444,-1.042923
1000.769531,-4.100830,-13.051088,-2.736433,-12.275198
1000.773438,-12.601864,-16.522549,-13.995609,-7.343814
1000.777344,-4.714536,-10.745819,-6.688372,-8.714042
1000.781250,-4.258798,-6.125102,-7.918964,-7.283680
1000.785156,-6.958172,-6.780506,-10.139987,-12.911794
1000.789062,-10.223665,-1.264039,-9.831132,-8.222605
1000.792969,-2.019948,-4.934501,-7.278719,-9.409556
1000.796875,1.338232,-6.439104,-3.699612,4.267726
1000.800781,-8.486705,-6.019661,2.222226,1.104694
1000.804688,-3.167654,6.062905,-5.254289,13.652091
1000.808594,4.008436,2.025715,0.987160,5.639832
1000.812500,9.932005,5.813731,11.065091,4.127613
1000.816406,10.636681,6.544297,3.626181,12.509833
1000.820312,6.715414,10.321126,16.421780,12.786412
1000.824219,10.179220,8.212903,9.874919,9.040688
1000.828125,11.624263,8.704898,14.067568,6.312475
1000.832031,12.388487,8.048509,5.511587,10.107660
1000.835938,15.765227,5.402274,10.148930,8.550099
1000.839844,11.936231,16.621825,6.653005,10.152168
1000.843750,-3.198232,1.928055,-4.727031,4.241915
1000.847656,6.758396,6.683238,1.952051,0.864584
1000.851562,-3.470630,-8.450057,-3.754747,6.149288
1000.855469,-1.991236,1.441797,-7.593057,-1.361711
1000.859375,-6.346826,-0.949747,-5.164432,-6.376175
1000.863281,-13.690672,-3.401514,-1.125389,-4.575806
1000.867188,-5.442149,-3.944390,-14.836899,-9.784686
1000.871094,-13.033942,-2.892870,-15.323045,-13.804761
1000.875000,-9.607329,-13.643006,-9.688872,-8.491164
1000.878906,-15.486926,-13.920292,-6.189952,-10.997188
1000.882812,-13.899273,-10.647099,-14.460017,-10.050702
1000.886719,-3.795938,-10.257440,-8.647986,-5.383652
1000.890625,-11.221285,-1.740020,2.154733,-7.224447
1000.894531,-7.236954,0.688349,-9.217100,-4.008303
1000.898438,-4.989381,-8.148464,-5.049216,-5.684094
1000.902344,6.463554,-2.223275,9.464973,-3.522935
1000.906250,4.626216,5.663605,5.474699,6.729286
1000.910156,10.877475,11.985819,3.949464,9.424908
1000.914062,6.728647,7.165242,6.096166,5.480781
1000.917969,14.333943,3.710950,8.807126,-5.386383
1000.921875,11.880146,7.839957,3.988657,10.221418
1000.925781,10.497880,8.900104,6.373612,11.024058
1000.929688,12.047658,13.919106,4.999354,13.055368
1000.933594,9.906305,0.820989,12.437364,10.903644
1000.937500,7.028657,10.046927,15.804885,8.432922
1000.941406,-1.779017,0.968173,6.949977,8.636929
1000.945312,10.295635,-1.640225,7.410927,1.922927
1000.949219,-8.681421,-3.921033,3.803773,0.472685
1000.953125,-6.010036,6.361345,-4.927561,-3.865601
1000.957031,3.048278,0.195040,-4.628557,1.215216
1000.960938,-1.745649,-9.935731,-3.424512,-1.028704
1000.964844,-5.361726,-7.822785,-5.456675,-7.079737
1000.968750,-11.661563,-2.408382,-8.442154,-9.273793
1000.972656,-11.266332,-15.053107,-8.192670,-2.484705
1000.976562,-0.099105,-7.690735,-14.015196,-4.735157
1000.980469,-11.849261,-13.798607,-12.147686,-15.425562
1000.984375,-11.482101,-7.273714,-4.527916,-17.632705
1000.988281,3.341593,-10.058701,-6.546948,-6.625702
1000.992188,-5.192732,-5.905739,-7.543626,-4.188804
1000.996094,-3.358811,-5.506901,1.938971,0.594625
1001.000000,6.689643,-3.701214,-4.634395,1.216976
1001.003906,1.930289,-4.987009,-2.301379,3.816178
1001.007812,10.103914,2.230869,6.361663,4.908602
1001.011719,18.382075,9.140920,7.838345,2.662213
1001.015625,9.384987,9.443899,8.805105,2.514660
1001.019531,13.054237,9.064854,7.097960,11.571518
1001.023438,17.345101,10.697080,13.196565,11.642167
1001.027344,6.583605,13.402383,9.425735,15.847630
1001.031250,16.169105,8.122903,12.090439,12.462338
1001.035156,7.928485,18.989701,8.061524,11.203874
1001.039062,5.751244,5.862127,6.145719,18.135066
1001.042969,1.650071,1.635600,-3.220687,6.936399
1001.046875,-0.465966,0.589574,-6.693077,5.584024
1001.050781,-3.133499,0.247055,-1.134658,-4.864390
1001.054688,5.536390,-4.304842,2.206293,-10.604808
1001.058594,-9.836126,-1.422796,-10.919572,-4.005255
1001.062500,-4.277269,-7.823162,-7.109380,-2.166439
1001.066406,-12.213208,-14.909201,-11.351480,-14.936931
1001.070312,-7.977539,-11.790224,-12.789746,-14.329862
1001.074219,-10.081412,-6.929495,-10.454464,-14.354342
1001.078125,-23.397576,-10.072652,-5.427284,-4.100469
1001.082031,-13.575970,-5.664136,-4.840637,-8.854098
1001.085938,-23.588399,-10.958340,-13.928194,-2.137671
1001.089844,-4.173844,-5.758139,-10.477448,-12.858225
1001.093750,-1.089881,-1.220255,-3.642983,-3.864709
1001.097656,-3.147783,-5.429235,-0.410819,-4.928018
1001.101562,-4.152479,-1.478847,-1.042517,-3.962216
1001.105469,5.722883,-2.590962,3.973482,8.636096
1001.109375,6.490295,5.641730,2.764170,6.573961
1001.113281,17.155893,8.535888,10.927735,5.996942
1001.117188,8.931195,2.302162,13.368461,5.584437
1001.121094,9.871812,9.713629,7.128236,15.210011
1001.125000,12.870647,9.934898,6.644030,14.496647
1001.128906,6.647985,15.771689,6.140597,9.858705
1001.132812,5.437830,7.246884,4.253077,9.528934
1001.136719,13.585823,10.685655,-0.763165,8.580286
1001.140625,2.380367,6.159335,7.942510,8.505461
1001.144531,7.539230,2.406357,-0.916054,-5.803975
1001.148438,-0.950784,-4.660936,-0.774621,6.850529
1001.152344,-4.575965,2.663800,-2.770429,-5.130096
1001.156250,-0.912928,1.293569,-1.595264,-9.139022
1001.160156,-3.927584,-6.118642,-1.092186,-4.615038
1001.164062,-7.004043,-12.935034,-16.961318,-11.184982
1001.167969,-15.997623,-10.787247,-10.873223,-7.083592
1001.171875,-8.202601,-8.807321,-10.418470,-14.960225
1001.175781,-3.447712,-0.943917,-11.689758,-14.913975
1001.179688,-11.206972,-7.322746,-9.274359,-11.190514
1001.183594,-14.614593,-6.267645,-10.188651,-2.961366
1001.187500,0.025060,-8.610612,-2.468534,-4.295015
1001.191406,-13.282254,-6.849992,0.255492,-4.004910
1001.195312,-2.158900,-12.278280,-2.327575,-6.081200
1001.199219,-3.722414,-0.437839,4.808989,2.317919
1001.203125,0.876630,1.193026,5.306726,-1.079031
1001.207031,12.692869,6.781675,2.568400,5.113908
1001.210938,9.524797,6.919743,10.652421,7.781795
1001.214844,8.216872,12.009780,6.724370,14.744347
1001.218750,2.511308,5.768729,0.386482,10.234691
1001.222656,13.217654,15.782025,10.269384,7.992716
1001.226562,4.446299,12.551433,9.783874,10.105815
1001.230469,8.683412,11.031228,13.482640,11.167658
1001.234375,9.701891,11.890677,8.848415,9.956185
1001.238281,6.763346,9.256450,5.782284,0.596385
1001.242188,7.422492,8.954805,11.376547,5.534483
1001.246094,3.878144,-2.937247,5.211909,0.172867
1001.250000,-4.505615,-0.582699,6.856200,4.905638
1001.253906,0.189993,0.320044,1.589116,0.047111
1001.257812,2.567874,-7.171279,-7.919939,-7.107706
1001.261719,-3.389470,-3.327834,-11.311613,-18.547843
1001.265625,-3.955271,-8.555190,-9.783179,3.977587
1001.269531,-10.621954,-14.497009,-9.813163,-5.428416
1001.273438,-10.194796,-8.268753,-14.698919,-8.126652
1001.277344,-14.806230,-11.529370,-4.971000,-13.056259
1001.281250,-9.064037,-8.891018,-3.869729,-13.570825
1001.285156,-12.185007,-4.198769,-2.987473,-15.680940
1001.289062,-5.046630,-7.066657,-9.141261,-2.709545
1001.292969,-4.060396,-6.090617,-9.997943,-2.616816
1001.296875,-2.590845,-2.285176,2.951493,1.148728
1001.300781,1.057614,2.330221,4.935662,-1.257892
1001.304688,-0.407402,3.780554,4.400654,5.618895
1001.308594,2.013051,8.186191,2.310973,-1.601114
1001.312500,14.471197,3.810148,7.784146,5.313195
1001.316406,8.135876,12.943719,2.959501,6.729332
1001.320312,10.281278,10.809000,13.437402,7.672954
1001.324219,12.271804,1.830423,9.195002,3.371714
1001.328125,11.740118,15.450869,13.266629,9.717614
1001.332031,13.240146,12.032939,9.338937,13.893652
1001.335938,0.563111,9.620902,8.013333,6.655280
1001.339844,5.004613,4.224204,4.051974,3.840050
1001.343750,-0.883039,4.597916,1.887834,7.654381
1001.347656,8.917084,-0.072954,4.326835,8.625967
1001.351562,2.349199,2.991318,-1.816500,-3.382854
1001.355469,-1.656938,-1.859312,-5.714563,-6.573805
1001.359375,-15.250764,2.953086,-8.727736,-7.786627
1001.363281,-6.614700,-6.317295,-8.022046,-13.747454
1001.367188,-15.367652,-10.266428,-11.982123,-9.311609
1001.371094,-10.919477,-10.104511,-5.513640,-14.148116
1001.375000,-6.177718,-18.743050,-16.582133,-8.327327
1001.378906,-7.880068,-2.642310,-8.686658,-10.384975
1001.382812,-7.711447,-3.740085,-5.727189,-9.653525
1001.386719,-7.551193,-0.276517,-6.732865,-4.842846
1001.390625,-8.420078,-7.906649,-0.524807,-1.744150
1001.394531,3.124285,-5.839379,-3.506915,-6.598930
1001.398438,-5.738420,6.183130,-0.922775,6.746220
1001.402344,2.249832,7.986794,1.375075,0.406787
1001.406250,2.797327,4.297756,-3.867253,7.631879
1001.410156,7.202623,10.283507,10.208128,5.984710
1001.414062,3.669227,4.099339,13.111315,15.273076
1001.417969,8.499115,10.199841,4.167733,5.592881
1001.421875,9.002050,11.730774,12.059737,11.575176
1001.425781,17.804175,17.493557,8.726864,3.946023
1001.429688,14.343118,12.220967,12.972263,13.355851
1001.433594,6.967643,0.010781,2.672429,6.997441
1001.437500,2.370106,3.621692,5.688311,4.603106
1001.441406,3.814030,-5.006330,2.693787,3.956719
1001.445312,-0.721508,1.472256,2.287482,-0.142600
1001.449219,2.676902,5.634370,-1.066906,1.534392
1001.453125,-1.059894,-6.143417,-1.206560,-2.456490
1001.457031,-2.360059,-13.796386,-0.871458,-6.991545
1001.460938,-4.829087,-1.780910,-0.075586,-5.736191
1001.464844,-7.168804,-10.713425,-9.104171,-9.592258
1001.468750,-14.625010,-11.753733,-11.152178,-3.905009
1001.472656,-2.565881,-9.356975,-9.873430,-9.534621
1001.476562,-11.308059,-9.678807,-12.820740,-14.366014
1001.480469,-11.818262,-14.063754,-13.603069,-4.935161
1001.484375,-8.521108,-11.204211,-9.294983,-2.708142
1001.488281,-10.471816,-7.892341,-6.087406,-8.009743
1001.492188,-8.139555,-4.662738,-4.816819,-8.378561
1001.496094,-1.046132,-1.106872,3.368984,1.859753
1001.500000,0.443747,-5.155477,2.598228,1.878920
1001.503906,0.419898,0.225553,0.326607,8.114940
1001.507812,6.499884,7.959901,3.553236,10.896877
1001.511719,1.812516,7.724184,13.375691,6.935530
1001.515625,1.216230,3.242704,11.091076,9.671953
1001.519531,9.032612,7.680279,13.440096,17.954906
1001.523438,11.195928,11.674251,12.464897,18.118773
1001.527344,8.322563,17.275260,11.765424,12.730018
1001.531250,8.757504,9.978865,8.609496,9.292162
1001.535156,-0.234371,3.165863,8.634581,6.237881
1001.539062,5.270042,6.615351,4.987016,5.535206
1001.542969,8.387883,5.115936,4.945971,6.236112
1001.546875,5.185339,2.282074,-0.660649,-1.357525
1001.550781,-1.701891,-5.849855,-2.540007,-2.648305
1001.554688,-2.839579,2.648742,-1.635581,2.319564
1001.558594,-4.202386,-4.329938,-9.582403,-0.787343
1001.562500,-10.568924,-3.429784,0.171289,-7.858231
1001.566406,-12.734179,-8.722608,-5.751403,-0.092657
1001.570312,-8.946459,-12.545677,-4.531827,-4.757684
1001.574219,-4.277294,-9.266242,-8.108472,-2.365410
1001.578125,-7.026623,-11.111422,-8.594837,-4.308268
1001.582031,-5.521567,-8.547164,-10.880606,-5.650573
1001.585938,-14.004222,-9.043458,-2.476354,-12.928778
1001.589844,-7.974743,-13.333198,1.307120,-2.250647
1001.593750,-4.671296,-1.857638,-1.788110,-0.869645
1001.597656,-0.268370,-1.406910,-5.739034,-6.363203
1001.601562,-1.844459,-0.285948,2.501167,2.428879
1001.605469,9.764411,5.125406,3.441700,0.265056
1001.609375,2.216709,0.581354,5.182117,5.335009
1001.613281,9.883828,5.827234,15.694135,6.817775
1001.617188,10.162266,11.918208,9.788886,4.515890
1001.621094,10.860205,9.627576,13.721289,13.193731
1001.625000,15.112716,5.144862,7.867848,9.082222
1001.628906,12.764699,10.430229,1.864371,17.200531
1001.632812,11.777386,12.898972,13.772758,12.633214
1001.636719,8.556991,7.174948,8.235463,10.416487
1001.640625,1.502679,5.752130,11.477599,9.113613
1001.644531,0.006927,-2.837095,0.559645,6.201843
1001.648438,0.208254,-0.539152,0.108212,4.451686
1001.652344,4.639157,1.001633,4.181275,-3.721203
1001.656250,-4.181493,-2.952858,-12.863284,-2.671762
1001.660156,-8.232604,-8.908604,-4.580841,-10.877754
1001.664062,-1.777980,-6.794374,-8.049606,-6.039356
1001.667969,-15.239716,-7.823488,-12.375689,-16.693986
1001.671875,-7.663005,-12.109334,-9.803553,-9.408212
1001.675781,-10.838498,-8.875270,-9.113857,-7.218250
1001.679688,-7.637967,-5.986710,-5.319575,-5.997317
1001.683594,-10.533460,-7.320221,-8.669298,-10.570704
1001.687500,-11.269756,-6.592521,-0.451544,-4.455877
1001.691406,-5.019717,-0.937708,-9.767429,-10.267888
1001.695312,-5.848250,-2.301551,-3.976763,-5.178628
1001.699219,-1.647709,1.932809,-3.092870,3.960534
1001.703125,-1.265626,-0.792607,5.554006,-3.947679
1001.707031,4.943962,8.171356,3.791606,5.174329
1001.710938,9.083384,0.982456,7.617159,4.114266
1001.714844,8.162951,-1.033594,7.699036,11.263273
1001.718750,4.843368,8.570947,3.767416,15.835404
1001.722656,12.843080,10.012432,14.106555,4.074225
1001.726562,4.652607,9.770839,9.117697,8.595978
1001.730469,2.870571,6.721850,13.284144,5.507708
1001.734375,14.747840,8.210671,0.541391,10.479032
1001.738281,4.363221,3.569665,7.949086,5.773935
1001.742188,7.809208,-1.358443,0.836046,8.995267
1001.746094,5.184991,4.878925,-4.659228,7.285413
1001.750000,1.362941,2.731993,-4.397449,-10.094318
1001.753906,-1.757815,-5.417433,-6.407066,4.133534
1001.757812,-0.603436,-7.658478,5.344131,-2.726898
1001.761719,-7.181930,-0.099267,-11.839909,-13.453466
1001.765625,-6.373080,-11.464965,-16.943990,-9.161792
1001.769531,-13.844857,-13.295385,-7.039357,-12.043500
1001.773438,-6.177045,-17.328584,-6.728752,-7.487825
1001.777344,-5.776238,-10.293769,-9.397969,-14.462736
1001.781250,-12.851540,-9.723937,-11.921901,-11.325600
1001.785156,-15.499165,-8.901453,-5.372157,-9.689999
1001.789062,-4.764121,-18.141727,-6.783311,-9.219452
1001.792969,-1.146110,-0.792477,-2.255804,-5.515102
1001.796875,3.279081,-6.700956,-2.298878,-5.788005
1001.800781,-5.598764,5.676881,1.718961,7.011346
1001.804688,-0.456820,7.498082,2.079806,1.304304
1001.808594,2.852043,5.560957,6.644885,3.188030
1001.812500,3.977642,5.035895,3.786508,0.831737
1001.816406,8.142725,4.600459,9.920027,9.882388
1001.820312,3.892943,7.498514,8.695040,5.525397
1001.824219,7.138207,14.727447,14.139648,11.869273
1001.828125,21.408187,7.069548,7.179106,14.972588
1001.832031,9.389674,11.987976,13.361124,12.181576
1001.835938,2.242560,7.512130,6.675078,10.943535
1001.839844,10.632989,6.620755,4.749383,5.547931
1001.843750,8.786856,-0.337241,5.422055,-0.970071
1001.847656,4.232428,-4.123126,4.261121,5.137628
1001.851562,2.454466,-0.405275,-1.439018,-7.008013
1001.855469,-8.142859,-0.586033,0.334475,-2.071322
1001.859375,-2.618110,-4.470707,2.280775,-7.130996
1001.863281,-2.803855,-9.366104,-1.200181,-5.636835
1001.867188,-12.785399,-3.579846,-11.180851,-11.582380
1001.871094,-6.655361,-10.697338,-9.405047,-14.944974
1001.875000,-11.904816,0.779886,-6.923547,-9.122628
1001.878906,-11.393937,-6.898531,-6.101141,-7.905198
1001.882812,-5.977973,-11.983596,-19.907790,-9.111040
1001.886719,-8.643405,-10.688322,-6.152070,-9.520906
1001.890625,-2.947765,-3.539987,-10.051537,-12.161274
1001.894531,-5.474796,-5.158943,2.641425,1.894792
1001.898438,2.535421,-3.581497,0.064368,0.791904
1001.902344,5.548232,2.948507,-8.350264,3.665105
1001.906250,10.927314,9.091712,5.043678,3.874988
1001.910156,10.952165,4.002678,5.834663,2.521464
1001.914062,16.801975,14.084908,3.280464,10.623689
1001.917969,10.207699,7.477017,14.602223,8.690556
1001.921875,10.314266,4.993537,6.170060,14.381542
1001.925781,8.045318,13.870820,10.340104,13.517841
1001.929688,7.309476,15.789713,13.735799,11.612542
1001.933594,4.493165,11.260328,7.108698,10.502885
1001.937500,6.850486,8.980011,4.767586,10.776144
1001.941406,-0.294112,7.849688,5.410602,4.861569
1001.945312,4.934564,1.205309,-2.202320,-10.382626
1001.949219,3.288094,5.922781,6.743365,1.446956
1001.953125,-14.228921,-2.857618,-9.076700,-5.046130
1001.957031,-5.283122,-3.122596,-5.044167,-11.861787
1001.960938,-2.663239,-12.460755,-1.883424,-3.689591
1001.964844,-9.749456,-6.688110,-0.141757,-5.232903
1001.968750,-3.708031,-13.086004,-7.836115,-6.391604
1001.972656,-12.265184,-10.899099,-7.419819,-8.422550
1001.976562,-10.812287,-11.023399,-14.043709,-15.868276
1001.980469,-12.593691,-13.547574,-9.702887,-9.346138
1001.984375,-11.237115,-6.460759,-1.606953,-9.450384
1001.988281,-16.882400,-0.928572,-7.847668,-7.896631
1001.992188,-1.669209,-2.795064,-3.574478,-9.123220
1001.996094,-1.476407,-9.250599,-11.453911,8.175347
1002.000000,11.991209,-1.451580,0.495260,-2.313989
1002.003906,5.013499,5.153860,-0.707884,0.904688
1002.007812,2.759046,1.248625,0.343115,1.804596
1002.011719,1.529010,2.394859,8.107156,3.845894
1002.015625,4.019246,3.653361,8.266441,6.345799
1002.019531,10.900513,17.742160,14.303668,11.177035
1002.023438,9.130307,14.423567,12.219929,6.995595
1002.027344,10.143366,13.154264,14.928918,12.461802
1002.031250,6.569240,7.649818,5.795999,15.865646
1002.035156,6.848686,4.298183,4.501929,8.234858
1002.039062,6.577153,-1.497603,6.858898,14.590358
1002.042969,6.351514,3.305013,6.746186,4.306334
1002.046875,2.678161,4.791364,-1.682985,-1.844048
1002.050781,5.175093,0.026749,1.953369,0.291748
1002.054688,-10.398894,-3.883426,-5.822792,-6.641610
1002.058594,-8.592694,-5.630006,-11.546965,-7.965292
1002.062500,-3.792204,-11.678878,0.375395,-2.853922
1002.066406,-15.656654,-14.392223,-6.170304,-10.228459
1002.070312,-14.915432,-14.332837,-15.165267,-11.675345
1002.074219,-7.499780,-11.648775,-7.958743,-11.643902
1002.078125,-12.204824,-10.493165,-9.531266,-6.039685
1002.082031,-14.440009,-16.046385,-10.070330,-8.870225
1002.085938,-6.126491,-6.347632,-8.070857,-1.618159
1002.089844,-7.085310,-6.835044,-12.260870,-1.529721
1002.093750,-8.941100,-8.005489,-11.043404,-4.083669
1002.097656,-5.341203,-2.492268,-2.066359,7.536685
1002.101562,-3.254704,-0.544288,-0.106099,3.765854
1002.105469,0.589153,2.843254,4.345577,1.513526
1002.109375,5.963514,-0.742572,7.998647,8.398472
1002.113281,9.404418,6.564526,4.091302,0.635839
1002.117188,8.482801,9.266456,11.490586,9.433644
1002.121094,16.804079,14.900411,2.895922,6.114916
1002.125000,6.575991,9.892627,6.688999,9.691994
1002.128906,11.489392,13.629829,11.677175,8.163566
1002.132812,15.827010,5.339075,12.498294,7.494697
1002.136719,0.661558,9.611815,11.434921,7.890103
1002.140625,6.465642,5.125163,13.051627,8.534599
1002.144531,10.219443,-2.127175,7.371560,3.795542
1002.148438,5.024352,-1.593720,2.394970,9.965741
1002.152344,-7.831954,-7.106326,7.647725,-2.451496
1002.156250,-6.173706,1.702292,-7.665065,1.795656
1002.160156,-3.888749,-2.496484,-10.622079,-7.208213
1002.164062,-7.686609,-10.167014,-3.312541,-12.753879
1002.167969,-4.512384,-4.901681,-10.083525,-4.638410
1002.171875,-8.100588,-16.629642,-9.620226,-4.250876
1002.175781,-9.157552,-8.246664,-7.540416,-13.981415
1002.179688,-5.531811,-10.341794,-7.014764,-12.885046
1002.183594,-10.198586,-11.599593,-20.007505,-8.200438
1002.187500,-7.059177,-4.618584,0.495329,-4.908559
1002.191406,-9.872083,-8.901481,-9.940466,-6.374170
1002.195312,-1.502323,-4.127515,0.112251,-3.022017
1002.199219,-1.676198,3.642381,4.348348,0.066285
1002.203125,-3.037707,-0.472264,-3.072390,1.447744
1002.207031,8.022010,8.379538,5.531780,14.374741
1002.210938,2.216006,12.938164,0.491181,7.356262
1002.214844,9.729275,7.868616,5.081655,4.453947
1002.218750,7.677268,8.975598,16.956486,7.812127
1002.222656,3.518016,9.051280,12.947012,19.221299
1002.226562,11.750991,4.760903,4.870890,12.030063
1002.230469,15.196237,13.324020,7.746750,20.303000
1002.234375,-2.603251,5.435096,17.151820,6.418970
1002.238281,8.173551,6.968506,-0.285548,4.424390
1002.242188,-0.416025,6.899254,2.444766,5.897218
1002.246094,4.937455,2.006745,-4.980109,5.471471
1002.250000,4.465808,0.710196,3.623107,-2.513475
1002.253906,-4.919422,3.605960,-2.765649,-1.653510
1002.257812,-5.782519,-5.304212,1.731662,-6.278100
1002.261719,4.550712,-7.158429,-11.430465,-6.971179
1002.265625,-6.081624,-9.471389,-11.233424,-11.846545
1002.269531,-15.720677,-3.711299,-12.926611,-12.485845
1002.273438,-9.412427,-0.993918,-12.992525,-6.912166
1002.277344,-6.961071,-9.666411,-12.778820,-10.469401
1002.281250,-5.737073,-13.884646,-10.535826,-13.185792
1002.285156,-10.333148,-10.244169,-6.914347,-18.780981
1002.289062,-7.023067,-8.926224,-11.302883,-9.789540
1002.292969,-6.318504,-5.789511,-7.804625,-6.442332
1002.296875,4.252442,0.511111,-11.573365,-6.849243
1002.300781,-3.857413,3.494435,-0.541844,-3.675144
1002.304688,9.110014,2.037120,-2.986812,8.617359
1002.308594,8.910804,0.088556,4.878732,13.595775
1002.312500,6.442665,10.209293,2.797709,8.746697
1002.316406,2.805883,5.197925,4.177039,4.139062
1002.320312,15.359704,9.777753,10.912092,9.811355
1002.324219,9.477527,13.435837,5.828803,4.094519
1002.328125,6.376575,16.606571,10.591522,7.549459
1002.332031,8.577539,14.682153,9.818375,1.475069
1002.335938,9.083888,7.153727,15.086570,9.889357
1002.339844,6.253751,11.791683,5.270492,2.680312
1002.343750,0.854947,3.038224,2.399701,1.147118
1002.347656,0.435753,2.268661,-1.950004,-4.524748
1002.351562,-5.616054,3.089977,3.693618,-3.498300
1002.355469,-11.011327,-6.962509,-9.849486,-2.628595
1002.359375,-4.012763,-13.927697,-9.775076,-7.766713
1002.363281,-5.935859,-5.187855,-5.599721,-2.251556
1002.367188,-11.931403,-7.454306,-12.556916,-19.296076
1002.371094,-1.573234,-8.627609,-8.040185,-3.640433
1002.375000,-11.711312,-10.011082,-11.191783,-9.368547
1002.378906,-4.591920,-11.033250,-0.277154,-14.121188
1002.382812,-18.454534,-4.547626,-8.466739,-6.428826
1002.386719,-7.151478,-13.045875,-0.629077,-7.964871
1002.390625,-6.706907,-6.569953,-6.557656,0.910500
1002.394531,-3.279241,-11.049399,-5.609798,-7.292181
1002.398438,-6.399862,2.838062,-1.082903,-3.464307
1002.402344,-4.038598,-5.519445,2.873535,0.105770
1002.406250,1.493058,6.657103,1.917595,2.908539
1002.410156,13.800117,0.811245,11.638816,6.647078
1002.414062,5.853407,8.790664,3.586237,7.768048
1002.417969,6.306629,5.755496,17.620975,6.665223
1002.421875,7.651581,7.016216,8.961311,8.866796
1002.425781,10.115710,10.912041,5.981761,2.868671
1002.429688,7.496701,12.624174,5.222729,8.556343
1002.433594,5.095463,4.007683,5.670023,8.551066
1002.437500,3.094226,12.268249,10.140708,2.711641
1002.441406,5.032688,7.552999,2.781878,11.039611
1002.445312,0.519634,6.232494,0.179633,-0.918547
1002.449219,-4.839430,6.377794,-3.459992,-2.963380
1002.453125,-1.738089,-1.844728,-1.305987,-3.726604
1002.457031,-2.403080,-0.364704,-6.538897,-1.558303
1002.460938,-2.535961,-3.355586,-7.430154,-4.198935
1002.464844,-5.902414,-6.917901,-10.440115,-11.619114
1002.468750,-5.253368,-8.296055,-9.161816,-11.333653
1002.472656,-9.643339,-8.998206,-12.865738,-5.233335
1002.476562,-7.990838,-9.571099,-19.367634,-5.310229
1002.480469,-12.145325,-9.724831,-12.023745,-17.720817
1002.484375,-7.267811,-14.028442,-1.064029,-14.050706
1002.488281,-2.957249,-5.647989,-8.646103,-7.629776
1002.492188,-3.882125,-9.798659,-2.906315,-7.789486
1002.496094,-2.698570,-1.016342,-3.585154,-4.605165
1002.500000,-4.020148,-4.842552,7.214279,-4.898799
1002.503906,-1.603874,-0.094476,2.832315,7.661108
1002.507812,12.281186,1.148086,6.903907,3.870438
1002.511719,3.992014,5.016547,10.585760,5.060763
1002.515625,7.083096,8.132174,6.014831,10.749641
1002.519531,6.928375,13.400409,5.798714,0.545044
1002.523438,11.775933,8.814259,13.556388,12.388334
1002.527344,3.818697,8.918432,7.268516,14.226935
1002.531250,5.463478,8.395267,4.738773,15.214754
1002.535156,5.360450,6.868716,7.918532,5.918355
1002.539062,7.820256,3.156593,12.091099,7.451218
1002.542969,9.843072,9.267315,0.703923,5.207717
1002.546875,-0.477857,-6.904642,1.688782,4.947073
1002.550781,3.333816,1.469799,-1.537041,-5.050427
1002.554688,-2.268204,-1.337721,-5.469288,-3.944740
1002.558594,-3.925050,-7.004359,-1.422212,-5.000613
1002.562500,-8.130681,-11.651054,-4.651165,-6.548954
1002.566406,-13.663775,-11.728337,-9.084673,-7.372710
1002.570312,-8.121858,-8.089393,-7.782205,-12.935209
1002.574219,-3.152160,-3.683802,-13.134371,-11.911611
1002.578125,-3.136217,-14.133857,-12.248322,-0.695429
1002.582031,-10.846416,-8.267430,-7.669204,-10.726367
1002.585938,-12.023111,-15.161058,-13.211878,-1.713490
1002.589844,-3.655903,-4.078989,-2.439215,1.309741
1002.593750,-3.446713,1.320243,0.619106,-9.522726
1002.597656,2.379299,-3.400918,-6.360268,-0.825597
1002.601562,3.150349,2.935827,2.328802,-1.015325
1002.605469,1.651388,9.934914,3.258717,-4.036939
1002.609375,3.814082,3.860209,10.602128,8.566274
1002.613281,7.843395,4.730009,3.842302,3.002346
1002.617188,10.907855,6.411837,8.953192,9.164708
1002.621094,10.325075,4.060207,5.808108,6.683926
1002.625000,8.290273,9.251986,8.108291,8.050179
1002.628906,13.340392,2.339405,9.029355,3.723058
1002.632812,12.347494,6.607886,10.283449,7.299453
1002.636719,8.056945,5.156739,5.183769,9.213756
1002.640625,11.770143,3.751615,-2.050666,6.580330
1002.644531,5.905851,2.158821,-1.324665,5.001323
1002.648438,-3.228976,-0.047480,2.675983,-0.664259
1002.652344,-0.181507,-4.414369,-2.602520,2.761911
1002.656250,3.875402,-5.930079,-5.548077,2.518653
1002.660156,-4.842053,-7.676535,0.557471,-6.648450
1002.664062,-10.705851,-3.536324,-7.604938,-19.237576
1002.667969,-4.249913,-9.359543,-16.937576,-5.533806
1002.671875,-6.985218,-4.930103,-14.639467,-12.831081
1002.675781,-4.879555,-12.005280,-7.563970,-16.897764
1002.679688,-7.601856,-12.184318,-9.441543,-8.775669
1002.683594,-12.864268,-6.206941,-7.530455,-7.730626
1002.687500,-10.985235,-8.882081,-5.461201,-10.630538
1002.691406,-5.172367,-9.344115,-1.768845,-10.551963
1002.695312,-6.715294,-2.591125,1.265741,1.044985
1002.699219,2.776224,3.911591,1.903372,-0.150676
1002.703125,-0.550605,12.573915,5.076556,-3.901915
1002.707031,1.989857,5.694558,-1.967593,2.837591
1002.710938,10.758693,13.452609,1.136905,8.469414
1002.714844,14.181614,13.190718,5.897054,6.866619
1002.718750,3.892096,6.985905,0.828774,10.896353
1002.722656,5.083491,11.193143,10.051649,5.682775
1002.726562,4.774260,9.720060,7.156273,11.494484
1002.730469,10.366325,5.252183,5.645355,7.659397
1002.734375,15.392887,8.740986,7.940896,7.200594
1002.738281,8.044650,5.425388,5.271485,11.254888
1002.742188,9.062023,12.034869,-3.088680,3.958653
1002.746094,2.812085,0.534308,-2.968608,14.534486
1002.750000,-3.026610,-4.737338,-0.172929,7.974050
1002.753906,-11.667835,-8.507117,-3.551949,-6.449576
1002.757812,-6.938797,3.227381,-7.445582,-6.010686
1002.761719,-5.719754,-8.136151,-0.746957,1.318790
1002.765625,-1.626374,-13.502858,-11.014726,-14.631266
1002.769531,-11.971065,-12.911324,-5.426630,-7.755353
1002.773438,-7.279787,-14.648678,-8.397560,-12.691734
1002.777344,-10.378510,-12.797562,-10.109008,-12.568413
1002.781250,-12.766216,-8.738419,-14.297482,-9.314932
1002.785156,-7.024442,-4.453757,-9.751059,-6.089428
1002.789062,-7.357250,-6.146585,-0.781113,-6.466937
1002.792969,-2.054325,-7.328276,-2.070730,-0.601862
1002.796875,-7.841680,-4.648667,-6.804009,-7.361493
1002.800781,3.727863,2.158223,8.152353,-1.679772
1002.804688,-1.120329,-3.716640,2.196118,3.691138
1002.808594,-0.185319,2.494486,6.551013,6.514211
1002.812500,6.602401,8.784658,4.222193,2.043124
1002.816406,-0.967507,15.637066,6.558392,1.837051
1002.820312,9.077454,12.866819,5.566174,14.478153
1002.824219,4.351937,8.406255,9.444445,9.232213
1002.828125,6.601669,2.383868,5.422982,4.803308
1002.832031,7.193000,6.745640,6.786560,13.030965
1002.835938,14.295699,8.322533,9.005704,7.547234
1002.839844,0.637130,11.518750,8.686043,8.123112
1002.843750,2.988866,4.743810,-3.907310,13.200316
1002.847656,-0.526061,-1.796521,-3.503266,-0.660427
1002.851562,-0.147481,-0.670751,-1.196664,-5.433309
1002.855469,-3.255807,-0.716091,-3.000962,-1.300512
1002.859375,-5.191650,-9.128947,0.880080,-3.523282
1002.863281,-11.618508,-9.809348,-8.378379,-6.510634
1002.867188,-8.802092,-10.724377,-17.966403,-7.602350
1002.871094,-7.158919,-15.856162,-14.009426,-12.009257
1002.875000,-11.275419,-13.802701,-13.093631,-6.214530
1002.878906,-14.046130,-14.552551,-14.472915,-15.196337
1002.882812,-2.976914,-0.641429,0.782307,-13.436374
1002.886719,-8.176331,-9.699252,-6.512401,-2.358821
1002.890625,-2.182410,-9.838637,-4.613538,-8.209124
1002.894531,-10.223349,-4.723044,0.698790,-13.947720
1002.898438,-9.350486,-0.762882,-0.408394,-6.221035
1002.902344,7.756645,-3.281603,-4.916305,-1.179329
1002.906250,4.121428,3.163054,0.597042,2.612163
1002.910156,3.122166,2.511092,4.888510,5.337456
1002.914062,3.416635,4.890103,6.687119,9.214487
1002.917969,8.632594,4.583130,11.721405,3.851038
1002.921875,6.722049,3.850540,15.234391,10.983060
1002.925781,6.270682,7.084363,16.413411,9.898173
1002.929688,14.521980,8.441306,9.765452,13.155220
1002.933594,8.676593,12.121980,9.125342,6.043142
1002.937500,9.239770,9.283631,11.209085,2.214230
1002.941406,-2.102726,14.671863,1.503790,8.868028
1002.945312,6.789452,-0.912698,-3.708706,12.693895
1002.949219,1.658289,1.179534,-3.988242,4.537523
1002.953125,-1.848575,2.497021,-1.645901,2.839274
1002.957031,-10.231078,-3.605783,-5.959956,1.473774
1002.960938,-10.072959,-2.838702,-9.363523,-8.259231
1002.964844,-14.222758,-2.545080,-6.405962,-8.041352
1002.968750,-2.844879,-6.453907,-2.326683,-3.785692
1002.972656,-6.417019,-8.316221,-9.503727,-9.005411
1002.976562,-4.289374,-8.129877,-8.824835,-15.417488
1002.980469,-7.467074,-5.859175,-13.644103,-12.030992
1002.984375,-5.334104,-16.634832,-4.041844,-7.965581
1002.988281,-6.549510,-11.236471,-7.526184,-0.720847
1002.992188,-8.212964,-2.486629,-13.324020,-3.765771
1002.996094,-8.383508,-1.270642,-7.724116,-0.705780
1003.000000,3.951283,0.763309,-2.696096,3.602512
1003.003906,-0.962038,1.555635,5.543802,7.602913
1003.007812,2.147556,0.947958,0.779633,6.385441
1003.011719,10.041174,10.462713,9.870509,5.265917
1003.015625,6.849522,6.681326,9.591381,5.948585
1003.019531,15.482684,10.515127,10.678129,2.190483
1003.023438,7.291157,19.736440,10.315641,14.249040
1003.027344,9.329438,15.811342,2.792988,6.815743
1003.031250,15.165078,18.900652,11.978687,10.015810
1003.035156,12.198187,6.404885,10.529153,10.279874
1003.039062,7.632383,8.085529,1.642744,6.179791
1003.042969,0.748262,-1.198550,-0.494746,-0.060566
1003.046875,-3.982784,2.377320,-7.330185,-0.356824
1003.050781,-2.642054,-1.971186,3.744344,-0.192018
1003.054688,-3.092072,-5.156233,-7.833172,-2.326316
1003.058594,-4.699335,-10.756747,-2.250491,-4.888065
1003.062500,-12.012124,-10.388169,-8.751871,-8.212009
1003.066406,-8.571452,-1.533522,-14.233410,-9.577512
1003.070312,-10.658532,-6.593217,-8.733379,-4.659296
1003.074219,-9.277889,-11.905499,-10.519305,-14.631539
1003.078125,-16.105240,-16.052285,-7.536829,-13.104912
1003.082031,-7.235282,-6.155342,-8.615794,-6.449289
1003.085938,-9.805421,-9.685383,-4.819296,-7.073397
1003.089844,-6.390149,-10.652866,-9.086799,-1.069261
1003.093750,1.928335,-1.262325,0.710578,7.000101
1003.097656,-3.733773,-3.658038,-13.354589,-3.007895
1003.101562,2.673760,-1.702012,-1.291306,-3.561849
1003.105469,6.471929,-4.498071,4.528309,13.235261
1003.109375,14.109998,4.439955,11.818521,7.140266
1003.113281,12.388179,6.380699,13.448628,9.749431
1003.117188,20.219009,5.041965,4.004199,14.078656
1003.121094,10.438201,8.119903,17.732248,2.472719
1003.125000,11.067767,11.717822,12.344226,10.398702
1003.128906,12.820348,14.594715,14.201870,12.516032
1003.132812,0.125418,10.171804,6.702620,14.804260
1003.136719,8.078490,6.733826,2.262975,5.910043
1003.140625,9.872540,5.387298,4.900971,-1.309369
1003.144531,-0.649873,7.963466,3.311563,1.147019
1003.148438,6.052850,4.334999,4.548144,0.710009
1003.152344,-0.065099,0.093468,-1.620099,-5.463840
1003.156250,-8.552039,-6.061620,-3.215368,4.517237
1003.160156,3.555702,-8.999772,-4.499437,-9.376354
1003.164062,-4.161996,-1.944965,-9.161913,-11.722871
1003.167969,-8.776480,-9.211092,-5.791776,-12.674925
1003.171875,-3.780092,-10.479450,-5.573568,-20.427345
1003.175781,-15.742903,-9.597035,-8.100106,-3.460567
1003.179688,-14.586158,-8.038499,-3.659924,-10.503055
1003.183594,-15.198888,-8.010423,-9.075628,-10.101314
1003.187500,-2.616759,-14.257852,0.068641,-11.609637
1003.191406,-2.460612,-7.486080,-4.333446,-0.666415
1003.195312,-5.065740,-8.115070,1.065112,-4.234361
1003.199219,-0.957815,1.260618,3.266664,-4.163092
1003.203125,-1.159559,-1.601525,6.999784,-3.993996
1003.207031,0.814091,4.997912,5.660643,-0.471814
1003.210938,9.606955,10.488183,7.842212,8.839479
1003.214844,15.333236,-3.260786,3.675274,7.266127
1003.218750,13.393163,9.602327,9.755426,5.038336
1003.222656,9.639275,12.977825,8.916551,12.878838
1003.226562,7.954284,10.442925,9.566400,9.576014
1003.230469,11.499206,11.225728,12.647426,5.239646
1003.234375,7.859771,6.553509,11.293733,7.598860
1003.238281,4.432215,7.702607,10.226793,10.539497
1003.242188,7.078986,9.540970,11.127306,4.451742
1003.246094,7.057489,-3.550761,-2.844974,8.589523
1003.250000,3.599876,0.129276,1.372285,2.550315
1003.253906,-3.813697,2.036970,-5.218429,-4.093592
1003.257812,-4.396785,-7.898256,0.539568,0.241255
1003.261719,-7.736792,-14.937080,-4.100112,-15.452604
1003.265625,-7.918903,-12.178210,-3.815450,-13.638378
1003.269531,-7.996438,-16.536432,-10.444290,-10.249172
1003.273438,-11.558299,-2.325779,-8.047083,-7.500159
1003.277344,-12.552362,-13.264237,-7.777057,-4.330097
1003.281250,-4.251274,-4.451236,-5.309310,-4.341598
1003.285156,-7.471995,-14.264873,-17.212228,-11.604849
1003.289062,-9.584448,-8.743906,-2.492454,-1.360092
1003.292969,-9.223847,-4.200551,-1.526931,1.268286
1003.296875,-3.027082,-1.489951,-4.897333,0.176330
1003.300781,0.093554,5.746568,0.558614,-2.221898
1003.304688,3.358304,3.048544,4.259860,-0.785210
1003.308594,10.254023,3.554495,7.201124,7.363929
1003.312500,3.006342,11.696635,4.505319,3.832376
1003.316406,7.082846,12.683230,11.844416,1.331603
1003.320312,10.507632,2.846717,9.380336,4.501227
1003.324219,6.628853,15.300940,11.533413,11.302174
1003.328125,12.540330,6.183002,8.228031,-0.413984
1003.332031,6.051261,7.671520,12.555376,11.778088
1003.335938,12.869937,1.139853,7.882109,4.293246
1003.339844,3.566587,0.948623,10.231165,6.652497
1003.343750,7.804564,-3.212260,7.579651,10.311396
1003.347656,5.410608,5.995225,1.870651,-2.156853
1003.351562,4.799128,1.682166,-2.142325,-0.439002
1003.355469,0.057212,-3.006566,-8.451701,-1.895521
1003.359375,-2.606380,-3.281462,-0.089890,1.011439
1003.363281,-8.878560,-2.737910,-9.133658,0.617163
1003.367188,-7.192846,-1.438194,-4.722151,-6.506641
1003.371094,-8.427539,-10.758256,-13.972578,-10.181099
1003.375000,-6.521032,-7.295976,-10.742109,-5.263687
1003.378906,-12.689026,-4.440643,2.198521,-9.008759
1003.382812,-7.490592,-4.944442,-24.843030,-11.376682
1003.386719,-1.103649,-9.144290,-13.398586,-10.629781
1003.390625,-9.422313,-0.771680,-5.212728,-7.158270
1003.394531,-3.233825,2.322627,-4.069634,-4.020934
1003.398438,-1.410139,-1.610568,-0.734512,-4.247667
1003.402344,7.601442,-0.656476,0.409409,-3.493118
1003.406250,4.209318,-2.243844,0.243232,6.501078
1003.410156,8.556044,9.437445,7.749163,7.821769
1003.414062,7.223094,13.986953,2.157997,12.472051
1003.417969,10.533041,5.127715,8.455767,12.194085
1003.421875,5.333388,12.443240,10.025327,16.221630
1003.425781,12.732363,8.612292,10.249843,10.861826
1003.429688,9.423740,12.195027,5.398609,9.259098
1003.433594,9.531519,7.164977,6.513839,1.865580
1003.437500,-2.246673,-3.535236,8.538201,7.593766
1003.441406,3.394640,11.277420,4.415263,9.747883
1003.445312,-1.233420,-0.245828,1.514596,5.987096
1003.449219,1.860365,0.264060,-1.507084,1.740758
1003.453125,-3.127911,-3.610587,1.642795,-2.572171
1003.457031,-2.519808,-7.362610,0.210153,-3.323919
1003.460938,-8.885674,-4.047885,-5.978689,-1.985275
1003.464844,-3.289150,-6.607692,-6.364502,-11.712483
1003.468750,-9.997925,-5.042040,-15.973333,-10.395169
1003.472656,-15.045741,-7.419349,-4.282599,-4.503111
1003.476562,-11.709844,-10.726254,-1.733383,-6.754102
1003.480469,-10.319996,2.188790,-8.569139,-6.735295
1003.484375,-0.680685,-14.356811,-11.998551,-6.731251
1003.488281,-6.456716,-9.698107,-0.304373,-3.561482
1003.492188,-6.260085,-0.054745,-1.865194,-4.037489
1003.496094,-4.377557,1.990620,-0.907082,-0.052227
1003.500000,-5.251843,3.549883,-2.921710,2.477570
1003.503906,3.676578,5.120882,0.564438,5.434323
1003.507812,7.578912,-1.633472,7.280854,-1.845183
1003.511719,5.351156,4.263791,11.437823,11.041149
1003.515625,15.405915,8.616862,19.595442,10.880377
1003.519531,10.663616,5.765733,3.063513,7.653193
1003.523438,7.130190,10.390939,20.067822,4.272613
1003.527344,7.114628,10.151795,9.839583,14.435931
1003.531250,4.943367,6.689775,12.931067,9.426617
1003.535156,10.038116,8.779017,12.884562,7.194532
1003.539062,7.330873,4.126553,8.801487,11.783549
1003.542969,2.236101,1.215996,3.253735,7.413408
1003.546875,2.891992,-3.663097,-8.321731,8.326347
1003.550781,-5.008176,1.197693,8.922014,-12.530350
1003.554688,-0.562872,-3.301749,-5.087729,-0.543615
1003.558594,-3.353091,-9.467568,-4.138024,-2.652561
1003.562500,-4.492645,-9.915142,-9.181406,-12.260156
1003.566406,-12.262692,-5.952721,-12.194174,-5.115532
1003.570312,-10.148485,-5.290115,-13.793289,-14.437934
1003.574219,-8.908494,-6.236518,-17.317013,-6.620264
1003.578125,-7.080928,-7.696792,-10.179398,-13.867504
1003.582031,-9.453171,2.230417,-7.771248,-7.658935
1003.585938,-6.892629,-7.328918,-9.631245,-4.801783
1003.589844,-0.903732,-5.941886,-3.645008,-0.063305
1003.593750,-5.632937,-5.407023,0.425763,1.772446
1003.597656,3.132219,-8.432674,-1.197095,2.618432
1003.601562,-2.728432,7.024844,0.912969,-0.517026
1003.605469,6.375470,2.116499,0.924653,5.644683
1003.609375,8.215402,3.274821,9.990859,7.745931
1003.613281,9.916931,11.310508,8.225803,2.235341
1003.617188,4.527082,6.982335,3.845821,9.671084
1003.621094,13.214364,6.125294,15.657845,13.584913
1003.625000,11.012690,12.397440,13.260222,13.490257
1003.628906,12.179002,8.056429,17.170891,6.807366
1003.632812,13.462012,8.624136,8.395456,4.990780
1003.636719,8.812724,6.183465,7.254316,15.658741
1003.640625,4.470251,11.034824,6.532983,9.776902
1003.644531,5.821164,0.365621,0.484164,0.825191
1003.648438,2.989410,-1.940069,0.057066,3.776805
1003.652344,-1.904593,5.324343,4.182993,1.665218
1003.656250,2.858914,6.070150,-1.667801,-8.608196
1003.660156,-1.693776,-1.758919,-4.694611,-10.703866
1003.664062,-8.673088,-16.144694,-1.053966,-11.063815
1003.667969,-13.156138,-8.745427,-17.204025,-7.630557
1003.671875,-11.799586,-9.990072,-14.936142,-9.866336
1003.675781,-12.947960,-8.729240,-7.054638,-14.558779
1003.679688,-7.091478,-10.624070,-2.302826,-8.409481
1003.683594,-2.204313,-10.108130,-8.765020,-8.006656
1003.687500,-8.461186,-4.490406,-10.034775,-0.253283
1003.691406,-0.507779,3.150081,-10.380340,-15.382436
1003.695312,-5.843637,1.157056,-4.874485,-4.003770
1003.699219,0.356433,-4.238454,0.527915,-3.730949
1003.703125,0.505877,-0.747184,1.037728,0.328942
1003.707031,7.659562,5.319235,1.618872,1.612209
1003.710938,4.285188,5.974341,-0.659605,-0.073599
1003.714844,9.690981,7.252529,7.554683,4.387556
1003.718750,12.114932,13.690533,6.435241,12.715044
1003.722656,12.347165,11.873397,10.155062,15.174826
1003.726562,2.441308,5.479794,5.902794,16.867332
1003.730469,8.982850,16.643463,10.387087,10.149708
1003.734375,4.214325,10.186564,5.635282,8.697920
1003.738281,0.568177,4.782819,0.385575,3.400782
1003.742188,13.549954,0.444553,4.560122,3.741524
1003.746094,3.009749,9.105329,0.843870,3.120728
1003.750000,-1.922360,7.276771,-5.740609,-3.524382
1003.753906,-5.558555,0.463892,-6.348395,3.416726
1003.757812,-3.932815,-2.858904,-2.979884,-6.556988
1003.761719,-5.445201,-6.920473,-7.460319,-6.915857
1003.765625,-7.538590,-2.751933,-8.434588,-9.035973
1003.769531,-14.879529,-11.628823,-6.542870,-7.102517
1003.773438,-9.467321,-8.941566,-8.762122,-12.320764
1003.777344,-15.588588,-7.443583,-11.707842,-9.273680
1003.781250,-1.252384,-11.129705,-9.877113,-11.395359
1003.785156,-5.358809,-8.228218,-3.657062,-9.638809
1003.789062,-0.009603,-6.602166,0.893046,-7.450346
1003.792969,-9.493076,-0.759059,-7.015692,-0.323894
1003.796875,1.551939,-2.029593,-1.172565,-4.851964
1003.800781,2.006223,-0.711249,0.665386,0.151554
1003.804688,4.058336,4.051526,9.505109,5.888768
1003.808594,3.826161,3.528685,0.668581,4.441292
1003.812500,5.067791,8.075020,3.994939,7.785732
1003.816406,8.421703,7.423367,9.967874,4.053720
1003.820312,13.571015,7.728876,9.946648,8.410195
1003.824219,10.344105,14.674158,7.094076,2.256380
1003.828125,4.743101,13.791634,10.769281,10.927274
1003.832031,13.846308,9.437556,11.132496,4.919510
1003.835938,14.205694,9.637944,6.082178,7.339511
1003.839844,4.565268,9.552239,4.969182,14.134717
1003.843750,2.043332,3.272931,0.999461,2.330212
1003.847656,-2.327535,1.492424,6.284959,-0.228414
1003.851562,-0.745432,-4.397743,4.282439,-2.310493
1003.855469,-5.024687,-8.322872,-3.987676,-5.882237
1003.859375,-10.372728,-5.421705,-6.055730,-4.289898
1003.863281,-15.287442,-10.549249,-3.159862,-4.194952
1003.867188,-4.190756,-9.437322,-8.215088,-6.595922
1003.871094,-17.710981,-3.198130,-10.343510,-7.421439
1003.875000,-2.332439,-8.866648,-5.953985,-7.724824
1003.878906,-7.228765,-10.346782,-8.524940,-13.415117
1003.882812,-6.745325,-9.308570,-7.726099,-9.535446
1003.886719,-9.914340,-5.082204,-6.778764,-8.606459
1003.890625,1.383388,-5.497571,-6.046201,-5.740526
1003.894531,-7.683413,-4.554630,-3.759673,-3.222077
1003.898438,1.819984,-8.045348,1.309678,6.103073
1003.902344,10.566864,3.146118,2.542573,0.369989
1003.906250,2.088212,2.545598,1.051643,2.812741
1003.910156,-2.971604,4.634856,4.378452,7.000668
1003.914062,8.406805,6.275453,14.282486,12.736427
1003.917969,5.910823,10.170343,11.306368,9.341182
1003.921875,10.325973,10.644629,6.735814,7.611122
1003.925781,5.064376,17.635815,7.705007,17.022226
1003.929688,8.436405,11.110931,8.380447,8.070896
1003.933594,3.812548,4.044313,6.366787,8.946499
1003.937500,8.740921,9.510081,2.251735,10.728002
1003.941406,6.399629,9.662733,5.511508,7.230306
1003.945312,-0.129433,0.277757,-0.399750,6.516953
1003.949219,3.684283,0.968192,2.444461,6.520095
1003.953125,-5.448083,-7.136187,-6.046115,-2.572456
1003.957031,-5.313090,-4.396084,-2.761323,-7.372997
1003.960938,-7.743074,-2.123902,-5.981385,-6.762747
1003.964844,-13.705161,-1.705559,-5.243828,-4.630464
1003.968750,-5.751086,-9.112164,-8.283983,-11.498188
1003.972656,-7.130445,-6.643439,-6.490607,-4.645062
1003.976562,-7.153093,-16.510873,-2.918271,-14.266273
1003.980469,-9.564100,-0.019298,-6.493031,-3.922366
1003.984375,-4.857576,-10.510795,-11.281500,-7.155126
1003.988281,3.386518,-2.689194,-4.680159,-1.378309
1003.992188,-1.624713,-0.810880,-9.943655,-7.914566
1003.996094,-3.797113,0.026703,-5.809771,-2.788987
1004.000000,-5.969800,2.165327,0.328550,6.088698
1004.003906,-4.168476,3.052184,-4.444389,-3.338506
1004.007812,-0.393418,11.684359,-0.707234,1.757808
1004.011719,13.884500,3.757041,2.099713,3.772003
1004.015625,10.675681,4.546877,15.337308,4.503771
1004.019531,0.688140,7.606277,5.037917,15.592041
1004.023438,3.582312,11.614273,3.460115,2.829038
1004.027344,12.002154,9.618960,7.474816,13.737747
1004.031250,7.020937,1.126743,11.558917,6.744010
1004.035156,6.058937,7.902733,4.808000,7.541619
1004.039062,3.517715,3.944059,7.995818,7.096156
1004.042969,-3.182243,10.016352,0.547872,0.383041
1004.046875,0.620892,1.578737,10.447644,-10.336980
1004.050781,1.299322,6.236456,1.525238,1.051069
1004.054688,-3.759474,0.890299,-8.412566,-2.623607
1004.058594,-3.066607,-3.397930,-10.065417,-7.998610
1004.062500,-4.006956,-7.047896,-11.206559,-4.643437
1004.066406,-9.011680,-4.526396,-12.232479,-15.345191
1004.070312,-11.275913,-8.445654,-14.289132,-12.794049
1004.074219,-5.214451,-12.490803,-7.038070,-10.362902
1004.078125,-4.296836,-7.261399,-4.983922,-15.612456
1004.082031,-4.730894,-13.680741,-13.809573,-16.175433
1004.085938,-11.801536,-5.474759,-9.907486,-9.231506
1004.089844,-6.872193,-8.240430,-2.962196,-8.254520
1004.093750,-1.669236,-1.418188,-3.280426,-6.195025
1004.097656,7.172324,-6.854663,-6.941195,-4.393755
1004.101562,6.636705,2.484564,4.993286,2.527270
1004.105469,6.651707,6.767472,3.080548,1.717918
1004.109375,2.276212,1.203893,2.737062,-5.154795
1004.113281,2.855031,15.567582,5.913749,5.749098
1004.117188,12.062017,15.282352,10.352111,10.147519
1004.121094,5.568861,13.783206,18.288839,8.532904
1004.125000,7.959505,5.332799,3.261038,13.040843
1004.128906,10.219400,7.976705,8.194014,12.722215
1004.132812,6.440064,3.602538,9.862995,10.638859
1004.136719,8.105344,1.068312,10.318924,7.866562
1004.140625,4.721854,7.740124,7.040118,3.003541
1004.144531,8.190869,-1.503541,0.002419,1.735483
1004.148438,-0.057547,-2.123616,-5.991760,-7.880460
1004.152344,-0.828743,-7.235525,0.923063,-4.521995
1004.156250,-4.859465,-2.783583,-6.963633,-4.930452
1004.160156,-9.005783,-1.770474,-4.623510,-6.368658
1004.164062,-15.082878,-14.673953,-3.769996,-4.157224
1004.167969,-4.231570,-10.489341,-10.616923,-15.448411
1004.171875,-11.080572,-10.082708,-9.807370,-9.353811
1004.175781,-7.300418,-8.059036,-11.209409,-7.448150
1004.179688,-10.251892,-12.433978,-4.596448,-10.062179
1004.183594,-2.385516,-10.449812,-4.115071,-18.406504
1004.187500,-8.905012,-4.246119,-8.949165,-12.640735
1004.191406,-1.495726,-12.750585,-5.392607,8.659676
1004.195312,-7.745368,-2.677756,-9.209949,-4.289719
1004.199219,-4.182993,-1.501047,-3.472177,6.094080
1004.203125,1.055760,1.222820,2.312776,4.333251
1004.207031,8.323612,5.000952,1.240671,3.455643
1004.210938,8.685287,0.508922,7.918595,7.920932
1004.214844,15.292140,5.289925,11.272996,7.528137
1004.218750,10.983084,15.372309,3.412725,8.390467
1004.222656,12.803038,11.935179,16.144858,7.665549
1004.226562,13.076980,15.130485,12.783612,13.182244
1004.230469,7.246463,11.081530,4.485692,12.557995
1004.234375,7.834558,12.491230,11.332736,4.247521
1004.238281,7.280203,11.245911,15.299618,10.040913
1004.242188,-0.110681,4.978166,4.983304,2.695215
1004.246094,1.356933,4.091348,-6.412629,-0.548887
1004.250000,-1.627269,1.984540,-0.287167,4.438785
1004.253906,-0.859512,-2.979115,-4.332316,4.274473
1004.257812,-7.594298,-3.104142,-5.961870,-4.327228
1004.261719,-2.475514,-17.972615,-11.867749,-8.087555
1004.265625,-9.442662,-11.162334,0.073717,-8.029759
1004.269531,-4.096979,-4.640778,-12.536380,-11.534258
1004.273438,-4.146280,-5.049451,-2.842311,-9.986129
1004.277344,-3.824786,-7.839406,-13.797092,-5.455419
1004.281250,-14.055832,-9.720782,-10.540777,-11.703875
1004.285156,-7.709395,-5.631978,-0.448475,-9.050758
1004.289062,-6.977560,-8.957032,-10.610809,-11.504004
1004.292969,-1.410070,-8.939822,-5.859276,0.629070
1004.296875,-6.518292,0.978425,-5.627073,0.175462
1004.300781,-0.510800,3.484508,-0.438838,1.210797
1004.304688,3.776415,2.639166,0.235624,3.502153
1004.308594,2.119450,-0.051148,2.527748,7.903955
1004.312500,7.883790,11.833292,5.241031,5.591978
1004.316406,6.385266,7.383615,8.262375,4.721113
1004.320312,7.741672,6.104982,15.307302,15.384768
1004.324219,11.677911,14.493059,10.157572,15.944232
1004.328125,7.947016,2.304913,8.103251,14.423612
1004.332031,9.588077,8.772503,6.461168,10.553515
1004.335938,5.499044,9.071856,9.737249,8.580398
1004.339844,6.899222,6.134982,5.687409,3.854202
1004.343750,1.517972,12.539009,-7.316947,-2.931677
1004.347656,3.358182,-2.446701,2.852685,-0.085086
1004.351562,4.861213,-9.819083,3.130395,-5.390396
1004.355469,-5.639586,-3.160210,-7.165605,0.433603
1004.359375,1.490035,-5.416721,-6.407540,-2.904105
1004.363281,-10.893217,-9.281156,2.230165,-7.062938
1004.367188,-10.143304,-12.073619,-11.056376,-9.613088
1004.371094,-8.732174,-5.093176,-13.581719,-10.430914
1004.375000,-13.487100,-17.005982,-8.259315,-8.417376
1004.378906,-10.001491,-13.816199,-9.827419,-2.534533
1004.382812,-9.284958,-7.294923,-4.996774,-5.829002
1004.386719,-6.092311,-8.613389,-14.535115,-12.523221
1004.390625,-12.184435,-10.448904,-1.926911,-7.423979
1004.394531,-4.625379,-4.889175,-0.159342,-0.693632
1004.398438,1.737803,-1.650086,-10.385956,-6.961051
1004.402344,0.505956,13.289265,-2.107712,1.189805
1004.406250,-4.050331,-4.185639,5.813048,6.376455
1004.410156,7.003269,1.502812,10.050158,5.299497
1004.414062,13.115499,1.942951,8.360819,11.333426
1004.417969,9.996653,6.648035,9.759937,16.689828
1004.421875,12.379799,7.201304,14.619498,10.079566
1004.425781,10.947165,5.259902,9.670710,8.684586
1004.429688,7.837000,2.835732,8.802370,6.716408
1004.433594,6.923021,10.460965,16.731018,11.508407
1004.437500,2.520339,2.773477,2.030129,0.469678
1004.441406,-0.013924,10.151161,4.809487,6.746242
1004.445312,2.105981,-1.451605,6.043750,-2.465332
1004.449219,-0.016797,-6.161096,3.248011,5.488987
1004.453125,-1.445276,-4.188768,-7.220653,-3.023193
1004.457031,-2.092881,-5.783836,-8.704723,-9.635834
1004.460938,-5.976491,-7.430770,-11.925072,-4.472142
1004.464844,-6.358178,-3.657287,-10.422496,-4.037455
1004.468750,-8.289752,-9.804960,-12.610542,-12.048578
1004.472656,-14.972834,-5.525400,-13.175344,-14.568584
1004.476562,-9.726108,-6.117002,-13.105079,-12.588922
1004.480469,-12.909034,-17.393536,-4.462948,-6.760258
1004.484375,-16.827384,-9.668964,-7.510251,-3.794149
1004.488281,-11.797404,-5.583541,-5.157543,-2.376399
1004.492188,-2.626076,-0.949328,-5.538030,-9.757291
1004.496094,0.972965,-0.613446,-6.778273,5.454069
1004.500000,-0.323629,0.020938,6.826329,-1.952470
1004.503906,10.606401,5.952804,9.240903,3.077747
1004.507812,3.805641,6.118142,5.270488,4.862045
1004.511719,14.479130,16.276259,10.769514,6.528413
1004.515625,7.590234,12.184357,14.016548,8.433874
1004.519531,14.170123,13.818384,8.824136,3.116018
1004.523438,7.848304,4.526824,10.837635,9.873093
1004.527344,8.234357,6.914524,13.587959,10.122254
1004.531250,6.514121,10.184677,6.797318,10.498754
1004.535156,6.397113,7.706043,13.542198,15.026047
1004.539062,11.432261,14.554018,0.356933,6.630438
1004.542969,0.550328,3.531454,2.524132,5.614239
1004.546875,2.812834,-0.901367,7.080935,1.779821
1004.550781,-6.276194,4.143253,-1.193288,-4.444507
1004.554688,-4.317371,-1.860706,-1.380260,-5.650116
1004.558594,-6.736498,-3.304395,-9.045875,-1.585615
1004.562500,-21.205255,-5.732173,-10.330347,-13.057545
1004.566406,-8.871430,-14.569893,-3.178146,-2.540074
1004.570312,-10.165700,-5.912880,-8.470326,-7.091302
1004.574219,-17.549808,-6.014219,-7.902805,-9.819455
1004.578125,-13.373036,-4.498006,-7.115148,-4.553069
1004.582031,-6.364344,-14.602194,-5.421704,-9.850948
1004.585938,-15.947516,-13.866197,-5.200115,-6.995688
1004.589844,-8.627436,-7.307894,-2.798666,-8.422075
1004.593750,-6.684780,0.155049,-11.232814,-5.316103
1004.597656,-4.808448,-9.644657,-9.513951,0.410509
1004.601562,1.759566,7.503610,-3.393052,0.687099
1004.605469,4.103800,1.199266,4.194968,11.839354
1004.609375,8.651752,3.184931,9.673261,0.284614
1004.613281,4.112204,8.529552,11.005122,5.764449
1004.617188,7.449874,11.571911,6.146617,11.282426
1004.621094,18.211470,15.950161,9.910245,13.416223
1004.625000,10.721525,9.282175,10.513936,10.127837
1004.628906,15.495462,10.128958,11.167186,3.229342
1004.632812,8.778684,20.341136,9.755751,9.779423
1004.636719,11.534931,6.756459,7.204898,6.788963
1004.640625,4.548878,4.351706,0.009885,6.500989
1004.644531,1.996585,1.672139,-0.507678,3.701521
1004.648438,6.128302,1.912132,3.850526,-6.419623
1004.652344,14.272483,-2.296738,3.537628,3.864768
1004.656250,-0.470717,-4.270026,-9.831390,-4.816959
1004.660156,-1.829269,-1.850526,-6.215674,-2.960772
1004.664062,-9.313875,-5.994028,-8.128390,-4.706033
1004.667969,-10.010630,-11.949666,-7.070954,-5.735497
1004.671875,-11.290325,-14.776160,-1.207903,-3.096771
1004.675781,-6.403383,-5.143455,-7.257829,-5.934751
1004.679688,-9.262736,-13.244786,-10.581098,-11.691885
1004.683594,-7.890877,-3.330749,-8.562878,-7.375838
1004.687500,-12.902204,-4.087644,-6.789737,-3.970569
1004.691406,-3.112904,0.786133,-8.568936,0.097438
1004.695312,-8.966308,-1.056241,-3.016808,-11.214997
1004.699219,-7.083604,4.796418,-3.894601,4.361947
1004.703125,8.606599,4.854253,13.321399,5.273161
1004.707031,7.908792,5.296924,3.298824,8.305521
1004.710938,11.293044,5.586177,3.265331,2.572437
1004.714844,4.349501,6.033411,11.833826,9.279142
1004.718750,4.020655,15.240391,5.372115,14.322847
1004.722656,11.185242,12.452445,13.630124,8.005529
1004.726562,9.514109,10.773055,18.289079,7.664329
1004.730469,8.795453,6.879005,5.293057,10.966933
1004.734375,14.080436,12.064046,7.246983,8.806435
1004.738281,3.710101,11.584437,7.408377,1.837472
1004.742188,11.695842,1.680808,3.702929,1.140934
1004.746094,8.643172,3.621936,3.356979,-0.735575
1004.750000,-0.312775,-1.980280,1.539851,2.577433
1004.753906,-4.758524,-2.269251,-6.080473,8.127733
1004.757812,-8.832140,-7.819747,-7.071441,-8.639081
1004.761719,-10.431343,-4.847500,0.061453,-6.178573
1004.765625,-9.424348,-13.517567,-14.906296,-10.386157
1004.769531,-6.879379,-7.921237,-12.469605,-10.728777
1004.773438,-11.693661,-2.943350,-12.819561,-5.151964
1004.777344,-5.519514,-8.640724,-15.413844,-11.795307
1004.781250,-12.608433,-11.898778,-9.550381,-5.219128
1004.785156,-8.793313,-16.369307,-12.941034,-1.923104
1004.789062,-5.426821,-11.789283,6.146005,-5.699168
1004.792969,-8.952261,-6.112163,-7.830469,1.194121
1004.796875,-6.095616,-2.460414,2.341304,-4.180315
1004.800781,6.363356,3.354768,1.375230,-13.144711
1004.804688,3.077562,0.534301,6.090756,2.211724
1004.808594,5.213125,1.922063,-5.080030,-2.482520
1004.812500,4.798112,7.938605,7.690193,2.715441
1004.816406,9.567612,2.374729,11.200901,10.709155
1004.820312,10.961928,6.350016,2.766672,3.842428
1004.824219,11.903842,9.024917,10.564904,3.153136
1004.828125,10.038897,3.658741,7.102324,2.885087
1004.832031,13.953356,7.802595,10.077452,10.386228
1004.835938,12.789950,13.213175,8.947319,5.277517
1004.839844,-1.944099,0.610715,3.714186,1.699074
1004.843750,0.406726,8.265403,-1.509858,-1.747897
1004.847656,6.373792,-0.693842,4.934081,4.766853
1004.851562,-0.039639,1.440895,-2.521327,3.552162
1004.855469,-4.420436,4.337146,-2.530503,-9.144005
1004.859375,-8.912811,0.303342,-0.771283,-1.956643
1004.863281,-8.111840,-6.122813,0.634273,-6.779143
1004.867188,-4.223087,-8.165720,-13.465247,-5.588602
1004.871094,-8.020036,-14.214041,-8.568794,-11.946203
1004.875000,-12.184486,-9.794089,-10.576256,-5.939163
1004.878906,-8.371971,-8.974765,-6.912462,-14.661784
1004.882812,-12.404476,-10.347119,-3.387028,-6.085310
1004.886719,-7.653007,-8.900141,-12.093529,-8.535303
1004.890625,-10.315796,-11.304380,-0.674822,-6.409060
1004.894531,-9.900320,-6.990590,-1.504931,-7.892042
1004.898438,-1.029292,-1.654640,-1.437674,-0.740381
1004.902344,-4.077038,7.250056,1.830664,-2.580256
1004.906250,10.817650,8.048520,9.717239,2.550337
1004.910156,10.332933,5.015595,4.691339,6.689610
1004.914062,8.665932,9.751393,4.695131,7.738707
1004.917969,7.035296,8.195766,4.216178,10.505857
1004.921875,16.455078,8.344367,13.944062,7.025227
1004.925781,15.460651,12.737979,10.513358,8.165648
1004.929688,12.252837,9.709448,12.436444,4.826383
1004.933594,0.472510,14.261965,4.710741,9.591100
1004.937500,5.568042,1.434349,12.699196,-1.676272
1004.941406,1.941211,4.997500,6.918792,2.350255
1004.945312,6.679760,-3.381354,0.631719,-3.674597
1004.949219,0.753521,-0.678682,2.602199,7.253673
1004.953125,0.490126,-5.028708,0.041706,-1.210208
1004.957031,-0.497579,-4.943044,-8.423907,-10.741359
1004.960938,-7.057974,-5.733609,-10.360256,-2.100113
1004.964844,-6.328467,-5.739288,-5.633862,-8.403043
1004.968750,-8.660986,-14.806978,-11.880053,-8.736588
1004.972656,-16.139691,-7.847649,-11.482461,-11.255760
1004.976562,-2.913979,-10.129851,-15.716786,-13.404092
1004.980469,-15.848299,-7.347948,-15.809747,-10.762187
1004.984375,-7.402890,-11.180917,-6.316916,-8.433045
1004.988281,-11.897345,-4.693884,-4.526497,-9.440322
1004.992188,-9.483092,-2.738498,-13.783694,-6.725171
1004.996094,-9.501565,-1.726601,-2.041941,-5.709489
1005.000000,-1.851715,-1.140960,-3.791282,-4.350465
1005.003906,0.814174,2.981122,0.444055,1.333303
1005.007812,1.434000,4.326782,7.525913,-6.499359
1005.011719,7.691986,3.087886,13.912427,4.608180
1005.015625,7.304335,3.127419,12.400874,9.112122
1005.019531,11.400304,10.970518,7.055657,4.459786
1005.023438,7.005543,13.903243,9.325017,12.446444
1005.027344,9.064599,0.482903,4.718852,11.375401
1005.031250,5.356551,2.652430,7.196735,11.049297
1005.035156,2.694857,1.982600,1.752478,6.702904
1005.039062,-0.728192,6.318147,7.449213,9.593485
1005.042969,0.946008,5.957583,2.270217,9.155279
1005.046875,2.117437,6.588641,-7.959794,10.508612
1005.050781,-1.999561,4.645220,-1.318637,-0.055321
1005.054688,-4.888737,-2.879888,-0.095230,3.631331
1005.058594,-8.990427,-0.012907,0.875054,-10.994489
1005.062500,-1.923603,-6.339430,-10.291153,-4.661147
1005.066406,-16.404838,-13.224537,-11.833479,-4.097696
1005.070312,-9.126027,-8.543155,-4.966945,-15.360495
1005.074219,-6.735154,-14.752487,-8.559682,-11.793552
1005.078125,-6.486761,-12.529438,-18.888521,-4.920955
1005.082031,-5.575848,-13.038819,-6.325308,-10.448271
1005.085938,-12.053692,-6.761803,-10.614089,0.578111
1005.089844,-10.838824,-2.828326,-3.937956,-5.914184
1005.093750,-4.700056,-0.745572,-4.618893,-5.944446
1005.097656,0.783085,-3.156753,5.927378,-4.030955
1005.101562,2.688031,-0.239256,1.138665,-2.071451
1005.105469,6.694044,1.594721,2.045739,4.572830
1005.109375,6.859692,4.094499,6.771598,1.489809
1005.113281,9.356696,2.434939,4.765048,10.948410
1005.117188,10.225474,11.285492,13.959090,6.675992
1005.121094,4.967117,13.328181,9.873844,3.774384
1005.125000,8.261424,15.377927,-0.031894,9.315063
1005.128906,11.676083,8.861618,17.421301,12.817394
1005.132812,10.825175,9.916299,0.176389,11.294825
1005.136719,3.886454,15.156001,6.458445,8.429752
1005.140625,5.579448,-2.337725,-2.783754,6.476551
1005.144531,1.694085,11.393008,4.670827,3.021366
1005.148438,3.625336,5.676753,0.796160,-3.671115
1005.152344,-5.575448,-0.261941,-8.919926,0.820972
1005.156250,3.523075,-4.160788,1.469505,-2.544359
1005.160156,-13.517480,-1.709121,-3.944460,-10.281939
1005.164062,-11.694819,-2.696803,-8.208768,-6.409182
1005.167969,-6.167262,-6.432467,-13.581928,-14.776161
1005.171875,-4.869058,-10.462347,-8.511360,-4.501103
1005.175781,-11.364174,-8.701904,-7.577625,-4.666601
1005.179688,-8.845675,-15.614089,-11.267150,-15.925764
1005.183594,-13.194519,-7.381733,-8.459511,-10.060119
1005.187500,-6.206292,-11.726702,-2.570151,-8.076255
1005.191406,-5.512166,-1.478419,-14.066811,-2.557085
1005.195312,-0.301458,-0.448142,-3.513120,-2.517999
1005.199219,1.287141,1.397577,0.229257,0.644080
1005.203125,-2.489969,4.092324,7.095199,-0.667556
1005.207031,7.358432,-2.223701,-5.537508,3.406386
1005.210938,5.410385,1.772398,12.097014,5.271117
1005.214844,19.085125,5.762739,5.401557,5.999140
1005.218750,7.306681,5.679235,12.210518,16.826509
1005.222656,13.481510,14.029232,19.555558,15.346635
1005.226562,12.813839,11.471616,16.463944,3.451056
1005.230469,13.497572,9.678689,9.599773,9.003804
1005.234375,14.395053,9.958018,5.514970,1.142361
1005.238281,2.992826,4.732719,0.718429,4.178680
1005.242188,-0.079378,8.131758,6.536935,1.136267
1005.246094,6.272153,3.603800,-6.534845,3.514822
1005.250000,-0.672168,-3.444778,-0.980066,9.137643
1005.253906,4.277695,-3.461850,-5.174247,-8.188212
1005.257812,-5.101387,-3.891794,-4.496051,-5.936762
1005.261719,-10.286486,-14.215346,-4.061931,-6.912135
1005.265625,-14.143470,-9.378664,-8.832356,-12.688039
1005.269531,-9.632397,-13.989322,-12.388347,-8.750236
1005.273438,-13.656133,-14.178216,-7.773343,-9.922539
1005.277344,-10.447366,-5.490121,-7.928105,-14.666855
1005.281250,-7.794786,-4.930511,-12.575981,-10.244413
1005.285156,-9.128337,-9.082421,-5.443027,-9.360592
1005.289062,-6.821920,-7.482401,-1.808439,-8.453596
1005.292969,-0.224000,-4.040975,-12.378766,0.437501
1005.296875,-6.387060,-0.315975,-5.553290,2.292349
1005.300781,0.944246,2.080079,-0.767648,-4.390537
1005.304688,-6.023052,1.028393,4.416539,4.093808
1005.308594,8.441610,0.834334,5.087065,6.721080
1005.312500,4.423792,9.460452,15.164623,3.961851
1005.316406,7.636540,11.365554,10.617648,4.919517
1005.320312,8.610745,12.012780,6.644567,8.801692
1005.324219,18.094990,5.719945,7.344864,12.778281
1005.328125,13.195501,15.164276,10.622245,7.516532
1005.332031,12.476425,8.994412,11.287659,14.360773
1005.335938,8.628828,4.517428,7.116716,7.501867
1005.339844,6.062032,2.615960,0.901931,2.590385
1005.343750,0.715220,10.483349,4.520572,0.788493
1005.347656,7.483585,6.206612,4.500508,1.073737
1005.351562,-0.194642,-2.938827,-3.521075,9.078229
1005.355469,-4.343453,2.043022,-6.607443,-3.877060
1005.359375,-5.412931,-5.846678,-5.017333,-8.663156
1005.363281,-5.446844,-6.878101,-12.616270,-3.131405
1005.367188,-6.354697,-8.460768,-9.207977,-5.928606
1005.371094,-5.120813,-2.048232,-18.300625,-11.186484
1005.375000,-13.158142,-7.815875,-6.999362,-14.499895
1005.378906,-13.714147,-14.854401,-6.232291,-9.923189
1005.382812,-9.588206,-7.109092,-7.056753,-12.893810
1005.386719,-9.424333,-14.151141,-11.664149,-12.206716
1005.390625,-0.697457,-12.935353,-2.285218,2.826875
1005.394531,-9.417454,-2.130686,-8.669392,-5.733702
1005.398438,-9.748011,-1.899345,1.127822,-3.856648
1005.402344,2.943070,9.948105,-0.292822,1.957953
1005.406250,5.242212,-1.358438,4.715832,-5.642372
1005.410156,13.780677,8.063077,4.967029,3.557655
1005.414062,12.698478,11.180042,5.995918,13.247869
1005.417969,13.067176,12.761738,14.483234,13.437099
1005.421875,8.978958,12.284799,8.869003,10.139518
1005.425781,9.347842,7.649206,13.809041,6.527493
1005.429688,6.397877,2.450166,7.768697,11.443772
1005.433594,6.586601,14.012232,0.042419,13.217486
1005.437500,10.173333,2.522874,6.207507,9.973965
1005.441406,11.522553,-4.528369,-1.033392,1.201326
1005.445312,-1.512453,5.346792,4.938241,3.411214
1005.449219,-0.454661,7.102077,2.370818,-2.558697
1005.453125,-5.719330,1.557138,-2.322718,-7.038507
1005.457031,-4.608507,0.234066,-8.816086,-10.016017
1005.460938,-2.027395,-9.796010,-8.793428,-7.625482
1005.464844,-15.130144,-7.329444,-8.214829,-11.120217
1005.468750,-6.441894,-2.478024,-8.833257,-7.516260
1005.472656,-10.050361,-3.660564,-12.026637,-13.119187
1005.476562,-4.243993,-7.506592,-7.164216,-14.680436
1005.480469,-9.942192,-11.350466,-16.924278,-11.911087
1005.484375,-12.881816,-10.959195,-10.021761,-0.460188
1005.488281,-10.726466,-5.956856,-1.026929,-8.491289
1005.492188,-4.347479,-4.235013,-11.406239,-4.359823
1005.496094,-6.184524,0.776560,0.540903,-0.824370
1005.500000,-0.539930,-1.753545,0.484046,0.547164
1005.503906,-3.023330,0.195729,5.443707,8.821777
1005.507812,-1.934894,6.483411,5.378508,1.312325
1005.511719,1.409460,8.806830,8.318609,8.356752
1005.515625,9.715691,7.810207,16.521753,10.222214
1005.519531,8.965738,8.760190,9.763440,11.774300
1005.523438,8.002285,3.908450,16.474661,10.872642
1005.527344,11.703384,3.930080,9.610921,13.468443
1005.531250,14.381487,9.417665,8.654289,9.183216
1005.535156,3.584349,17.335841,6.586589,8.963050
1005.539062,10.293781,11.972316,4.224050,8.682562
1005.542969,6.138740,6.793996,-2.916082,2.077856
1005.546875,1.751974,6.874350,0.274160,9.540858
1005.550781,-6.812239,2.482824,3.078531,3.895215
1005.554688,-5.016720,-6.566914,-2.922719,-3.195256
1005.558594,1.552841,-0.378900,-8.402122,-4.570480
1005.562500,-6.883991,-7.786113,-2.937299,-14.364535
1005.566406,-8.771782,-6.424972,-3.222221,-9.633638
1005.570312,-8.686826,-13.338658,-9.899309,-12.268123
1005.574219,-15.490830,-14.078792,-3.173675,-2.660845
1005.578125,-9.479229,-9.493620,-17.247836,-9.663857
1005.582031,-8.314445,-8.616784,-11.113274,-10.628943
1005.585938,-8.870156,-2.875688,-4.148678,-1.311084
1005.589844,-6.566531,-0.942111,-1.410490,-9.255100
1005.593750,1.148866,-6.182449,-5.067188,2.722406
1005.597656,-0.949737,-0.227279,-1.158674,5.840710
1005.601562,3.317075,0.308979,-0.149641,-3.366049
1005.605469,-0.013979,-5.710850,0.689725,1.969599
1005.609375,0.531437,5.881815,6.485495,4.118926
1005.613281,8.323471,4.202718,6.857071,5.511102
1005.617188,10.632140,3.906434,9.428689,8.476426
1005.621094,9.384287,6.900744,6.242422,7.027411
1005.625000,16.778237,8.180259,6.798624,20.323859
1005.628906,7.967443,10.279261,6.186343,-0.015184
1005.632812,9.957279,1.001739,12.792085,6.267675
1005.636719,19.258354,4.720742,8.005217,5.862758
1005.640625,-2.413512,1.126818,10.123118,2.245729
1005.644531,5.224377,8.027779,7.834223,7.700059
1005.648438,-2.376772,0.042510,-0.106791,1.628289
1005.652344,-1.634186,3.229998,3.671518,5.199144
1005.656250,0.671113,-0.463524,-7.939341,1.378917
1005.660156,-0.091260,-12.349979,-10.629703,-3.889690
1005.664062,-13.018193,-0.237964,-12.679825,-3.789381
1005.667969,-9.493653,-12.723729,-7.762156,-10.585526
1005.671875,-2.014287,-4.948053,-11.730382,-6.648123
1005.675781,-12.643973,-14.948910,-7.552826,-6.408539
1005.679688,-15.899548,-11.164339,-3.895194,-10.027008
1005.683594,-6.437533,-13.420393,-11.049335,-5.853731
1005.687500,0.390584,-10.832693,-7.123015,-9.223565
1005.691406,-0.122583,-6.019468,-1.242002,-7.234776
1005.695312,-5.301251,-8.161952,-6.561044,7.351787
1005.699219,1.386861,-5.836403,-1.795958,-6.936299
1005.703125,-2.415734,4.357337,0.846304,2.837002
1005.707031,8.420760,6.339894,7.266139,13.016051
1005.710938,8.775005,1.851063,5.031966,3.761688
1005.714844,10.659537,6.423346,9.307172,8.577058
1005.718750,2.390141,11.102672,15.810934,9.124813
1005.722656,19.211770,9.928185,14.209463,10.348412
1005.726562,19.615858,10.677196,15.887284,15.735818
1005.730469,4.342713,9.585810,9.056829,6.650169
1005.734375,3.922810,2.570889,13.991891,3.862474
1005.738281,6.707897,3.099848,-1.574926,10.472883
1005.742188,8.055934,2.850451,7.712511,2.591761
1005.746094,7.131716,3.317231,-1.666321,3.910052
1005.750000,3.012001,-1.073922,-0.843757,-3.046768
1005.753906,0.153664,-4.708468,-6.001530,0.794084
1005.757812,-8.316580,-9.337014,-3.920842,-7.968510
1005.761719,-11.246909,-19.786564,-1.227837,-4.763414
1005.765625,-8.381769,-8.862202,-14.869417,-12.220271
1005.769531,-13.669393,-2.805604,-6.445610,-10.091942
1005.773438,-7.690004,-12.783216,-10.210036,-12.634646
1005.777344,-7.114006,-18.610787,-11.923707,-10.130451
1005.781250,-12.223793,-6.649000,-10.435757,-11.663125
1005.785156,-17.405031,-6.912902,-14.064867,-10.740079
1005.789062,-3.439347,-5.016386,-7.766712,-4.196972
1005.792969,-4.190333,-12.468572,-8.229209,0.773239
1005.796875,-1.538157,-5.579940,-0.800000,-2.546059
1005.800781,-5.787649,-0.091732,-3.726114,-2.386387
1005.804688,4.282767,-1.059917,2.043089,8.429523
1005.808594,10.879124,6.330043,10.407271,9.974611
1005.812500,11.231967,-1.531511,7.047359,3.361381
1005.816406,0.866934,8.748274,9.157504,6.988139
1005.820312,18.537564,7.621105,7.669124,7.609443
1005.824219,13.693540,12.623877,1.623969,16.794928
1005.828125,10.141724,9.404288,12.041109,15.096234
1005.832031,8.804677,3.937341,7.033478,2.047327
1005.835938,13.794314,6.629868,3.070140,8.448384
1005.839844,7.629834,-1.202102,2.502873,7.466622
1005.843750,8.374531,6.128848,0.850719,10.343672
1005.847656,6.042144,-2.228480,7.042629,2.465573
1005.851562,-1.401873,-2.006755,-1.578500,-5.491072
1005.855469,0.286778,-5.465196,-3.963798,-1.820855
1005.859375,-7.647606,-10.234654,-9.146580,-8.306139
1005.863281,-9.227412,-8.209760,-2.532427,-6.751022
1005.867188,-8.474330,-8.435664,-8.712156,-8.321088
1005.871094,-12.371538,-8.019289,-6.726966,-9.222691
1005.875000,-9.925730,-4.151276,-8.575409,-13.618020
1005.878906,-8.774416,-11.910084,-12.089143,-11.001453
1005.882812,-9.454455,-15.156697,-9.583775,-14.702074
1005.886719,-8.554417,-20.561988,-8.181188,-9.181874
1005.890625,-11.655996,-3.974082,-0.098515,-4.105545
1005.894531,-4.579119,-1.169597,-12.739144,-3.484361
1005.898438,4.589061,-4.903633,1.250171,-0.622313
1005.902344,4.753930,10.394393,0.041208,1.553297
1005.906250,2.859355,6.852264,-0.342225,4.004711
1005.910156,9.789883,7.895292,4.900260,6.473831
1005.914062,-1.043725,10.275826,7.766444,12.336063
1005.917969,10.950078,7.177538,13.162623,9.183983
1005.921875,7.730307,10.153150,16.121910,17.119875
1005.925781,4.663490,16.658361,13.627871,11.349457
1005.929688,11.758695,7.226193,6.588785,9.063818
1005.933594,11.295811,9.541161,13.011960,13.372771
1005.937500,5.164928,-2.375385,8.943867,1.875433
1005.941406,2.885870,6.611635,7.783123,13.979894
1005.945312,-1.308609,1.737329,-0.192270,13.064928
1005.949219,1.493512,0.174114,-5.409208,1.864186
1005.953125,-5.347513,-1.459221,-2.420259,-5.494248
1005.957031,-13.303364,-6.161561,-7.731896,-3.272399
1005.960938,-6.652950,-4.566251,-5.747508,-4.377146
1005.964844,-7.877528,-6.944650,-4.450112,-15.244933
1005.968750,-11.959288,-10.648377,-6.514582,-7.401147
1005.972656,-15.235893,-11.971533,-13.503717,-11.970864
1005.976562,-4.910215,-15.398545,-8.328176,-14.817678
1005.980469,-7.531463,-13.000088,-10.218823,-5.223195
1005.984375,-5.789302,-6.372737,-6.593709,-14.595644
1005.988281,-10.467256,-2.180424,-2.030341,-5.720432
1005.992188,-4.001458,-3.280737,-7.074960,-11.051601
1005.996094,0.688513,-9.737003,-0.313602,-4.142692
1006.000000,-4.122113,-1.939005,5.006804,3.329928
1006.003906,0.667671,11.868926,9.257246,-1.747797
1006.007812,4.000705,5.039139,3.057560,2.813031
1006.011719,0.734837,12.263754,4.903419,4.931333
1006.015625,8.861378,10.261957,2.926364,8.315873
1006.019531,6.363410,9.484202,14.766898,13.024241
1006.023438,10.750508,5.530979,11.794295,6.867555
1006.027344,8.149969,11.633755,7.706382,9.808307
1006.031250,17.721286,10.920219,12.320948,5.191518
1006.035156,15.097670,11.849119,14.686697,13.179305
1006.039062,11.351489,0.704495,12.838567,9.731980
1006.042969,2.221323,3.991831,8.721374,7.665432
1006.046875,7.896582,4.260971,3.223015,0.050765
1006.050781,-10.185265,5.923632,-7.017294,1.300830
1006.054688,-3.122689,2.106353,-4.806394,0.985313
1006.058594,4.152684,-3.544890,-5.666271,3.075989
1006.062500,-17.961170,-0.589640,-0.999709,-0.751956
1006.066406,-12.382356,-10.118988,-11.728064,-5.191052
1006.070312,-8.724787,-4.075634,-8.739232,-5.366956
1006.074219,-12.553491,-3.741559,-13.147509,-10.431117
1006.078125,-7.432489,-6.573448,-0.850756,-0.359875
1006.082031,-8.668578,-10.623388,-11.605048,-9.361263
1006.085938,-7.478704,-5.506925,-7.081141,-5.464579
1006.089844,0.899777,-8.201971,-0.796533,-3.057978
1006.093750,-11.647519,-0.187559,0.023891,-4.668372
1006.097656,1.448079,-6.659144,3.472342,1.268712
1006.101562,-1.395339,-0.489281,1.104545,-1.939660
1006.105469,4.238377,0.474514,-1.250358,-1.418815
1006.109375,12.824474,5.314161,9.996867,-0.141348
1006.113281,2.016179,1.138297,7.433754,8.809287
1006.117188,16.684403,2.942318,1.534409,10.962230
1006.121094,14.807374,9.368955,15.273693,5.543736
1006.125000,9.006860,6.629457,5.433526,10.615219
1006.128906,9.024582,10.205481,9.764918,15.918861
1006.132812,7.376661,10.429985,4.226386,12.064394
1006.136719,8.151474,4.906347,6.624253,9.981778
1006.140625,-1.425308,9.207091,6.751614,11.654804
1006.144531,10.639106,1.375994,1.822993,2.027121
1006.148438,-2.357356,-2.414778,0.204826,0.885083
1006.152344,-2.057281,3.013685,-2.061042,0.944128
1006.156250,-1.609083,-1.637974,-5.034450,-4.805927
1006.160156,1.642634,-10.560651,-6.031256,-11.842404
1006.164062,-12.388435,-10.237609,-7.966725,-5.964667
1006.167969,-0.686830,-5.442020,-9.812476,-8.750425
1006.171875,-10.028402,-12.246558,-7.823063,-14.870041
1006.175781,-19.227795,-10.062931,-15.140048,-9.876555
1006.179688,-12.763333,-13.153945,-9.010573,-5.153748
1006.183594,-9.656044,-7.430908,-13.732013,-3.052053
1006.187500,-1.861014,-3.062269,-6.088520,-6.523666
1006.191406,0.135862,1.324357,-3.432365,-3.509922
1006.195312,4.237217,-2.123511,-3.323635,1.900955
1006.199219,-7.910177,3.979068,-1.729128,1.571146
1006.203125,-3.795624,8.490883,-3.239964,0.882288
1006.207031,6.923610,8.347472,1.847294,1.221192
1006.210938,11.062625,3.225669,-0.539189,2.419829
1006.214844,13.404478,-1.915663,5.198256,6.561386
1006.218750,0.484399,12.588877,8.915681,5.080033
1006.222656,15.478822,22.030665,9.389804,8.329941
1006.226562,9.950545,9.894480,13.621916,12.069139
1006.230469,8.948823,9.180316,14.908696,13.343334
1006.234375,11.698288,6.698074,7.199634,9.854817
1006.238281,0.538188,10.170835,5.676216,5.734911
1006.242188,1.835099,1.737535,3.218056,-1.798803
1006.246094,7.497128,3.710097,9.999481,1.574344
1006.250000,-3.317630,0.172763,-4.526932,4.108822
1006.253906,-4.046893,-3.648625,0.183860,-4.576559
1006.257812,-2.992475,-5.983102,-5.702550,-2.712403
1006.261719,-10.258652,-5.523362,-2.711882,-7.815565
1006.265625,-4.658955,-9.074139,-7.390109,-6.750125
1006.269531,-14.221901,-11.688459,-7.856287,-8.818448
1006.273438,-6.735787,-10.068452,-11.125780,-13.885069
1006.277344,-6.839494,-8.757142,-0.720455,-4.888900
1006.281250,-8.190123,-11.431066,-7.313573,-11.143213
1006.285156,-1.130681,-9.000158,-6.693759,-15.326272
1006.289062,-2.615092,-5.273490,-6.720744,-7.904883
1006.292969,-4.228680,-5.871432,-2.770036,-0.249779
1006.296875,-11.038175,-1.142912,8.333855,-7.435463
1006.300781,4.447045,3.972621,-3.205371,5.523597
1006.304688,3.672268,2.034193,-0.873332,10.900466
1006.308594,4.398747,10.102428,7.542019,-2.687890
1006.312500,7.711917,2.821643,7.734304,5.244037
1006.316406,11.592710,7.035881,13.907945,7.752052
1006.320312,8.627063,10.973092,5.309211,5.113956
1006.324219,9.682121,19.596198,10.645804,9.147804
1006.328125,7.789658,7.518573,6.930828,16.447981
1006.332031,13.051973,16.680541,6.604494,13.058661
1006.335938,3.717013,10.665176,11.212284,7.293718
1006.339844,5.722848,4.747405,3.071217,2.911694
1006.343750,4.357646,5.457733,-7.316275,3.793343
1006.347656,-2.181219,-0.135540,4.587447,1.604238
1006.351562,-2.320019,0.926190,-8.667919,9.800424
1006.355469,-3.477045,1.606873,-5.808766,-1.384264
1006.359375,-2.394620,-5.254917,-4.413952,-2.222276
1006.363281,-3.954207,-2.854405,-8.988211,-3.750843
1006.367188,-10.949766,-10.412655,-8.522372,-4.188802
1006.371094,-10.867945,-4.800013,-5.155314,-9.078459
1006.375000,-12.131395,-6.230119,-5.954929,-13.470730
1006.378906,-10.928754,-1.047380,-8.337409,-7.090161
1006.382812,-3.587379,-8.913692,-7.349022,-12.643849
1006.386719,-5.340117,0.656020,-10.302572,-8.127380
1006.390625,-5.742950,-5.814193,-0.523416,-7.927878
1006.394531,-3.125774,-2.711407,-1.139391,-10.666004
1006.398438,-0.609918,-8.400464,-1.357907,-4.808638
1006.402344,-8.860442,-1.919458,6.916808,-0.263423
1006.406250,4.315630,4.254445,5.185879,8.258986
1006.410156,8.060173,11.022914,5.536413,13.707743
1006.414062,10.467774,3.812603,10.104813,10.292054
1006.417969,9.112577,7.283833,8.752637,8.653424
1006.421875,13.573633,11.202866,16.913554,18.416469
1006.425781,20.645838,10.300298,15.014926,6.871462
1006.429688,11.999528,8.910519,5.774133,5.791017
1006.433594,13.879298,10.567329,11.327391,8.045075
1006.437500,5.903864,6.576884,0.886592,10.988700
1006.441406,1.875731,8.638300,4.919214,-3.573976
1006.445312,0.635210,-0.574225,-2.139341,0.123327
1006.449219,-4.393314,-1.083926,4.846284,6.162225
1006.453125,-1.246073,4.060220,-9.054674,-2.799557
1006.457031,-14.862858,-6.218902,-11.120111,-1.022931
1006.460938,-5.745197,-8.755560,-5.323570,-5.811017
1006.464844,-10.256041,-7.695812,-4.228283,-6.224541
1006.468750,-5.816377,-4.547958,-7.571646,-7.347050
1006.472656,-8.305914,-9.554446,-5.642173,-3.278462
1006.476562,-9.677755,-12.360678,-10.926853,-6.761118
1006.480469,-12.814114,-5.306518,-11.096353,-6.608176
1006.484375,-10.660017,-11.409828,-4.938289,-4.533322
1006.488281,-8.961851,-6.140994,-4.994415,-6.038856
1006.492188,-7.973066,-3.534426,-1.855412,-2.146841
1006.496094,-2.492782,-8.002644,2.585674,-5.303143
1006.500000,-5.042029,0.998606,12.799962,1.806934
1006.503906,0.935276,-3.543335,-2.276025,1.617413
1006.507812,6.958063,5.013517,1.281345,-0.770979
1006.511719,4.539308,19.054610,1.547791,5.071120
1006.515625,10.574979,2.185569,9.700171,-4.544971
1006.519531,7.858712,10.833816,9.850768,6.240475
1006.523438,10.816736,8.444755,10.437930,11.017207
1006.527344,11.575402,3.788640,11.539389,7.309047
1006.531250,6.394024,8.867869,11.079200,7.587084
1006.535156,12.103108,11.383495,7.766383,5.638291
1006.539062,5.167889,0.773655,7.947147,1.805223
1006.542969,1.672320,9.199575,2.889202,7.961844
1006.546875,-3.062345,4.401019,-1.814606,-5.136759
1006.550781,4.913669,2.784309,-0.785473,2.390607
1006.554688,-5.237402,0.793474,-2.493572,-2.839635
1006.558594,-7.562226,-3.849776,-6.937022,-11.392942
1006.562500,-8.076794,-5.631837,-10.580976,4.212336
1006.566406,-11.590141,-3.522772,-8.072159,-17.621223
1006.570312,-13.857988,-17.283297,-9.661643,-16.532378
1006.574219,-8.295384,-9.943212,-7.922056,-9.876638
1006.578125,-5.031189,-12.388488,-16.496873,-12.535615
1006.582031,-11.535438,-15.577597,-6.886690,-16.158976
1006.585938,-0.811962,-4.693636,-12.710256,-2.685637
1006.589844,-10.265440,-9.769048,-4.459420,-4.078314
1006.593750,-13.533894,-4.438842,-9.529337,-4.459126
1006.597656,6.820395,-7.551306,-6.521742,1.946198
1006.601562,1.775008,-7.504167,-0.373451,0.013347
1006.605469,1.098600,4.635576,5.606969,-3.504324
1006.609375,8.781560,8.461476,8.102163,9.265374
1006.613281,6.957580,5.394476,6.533969,3.015333
1006.617188,15.097306,13.863512,9.318445,10.277441
1006.621094,7.110989,9.173581,14.963737,7.965308
1006.625000,14.135043,14.377701,-0.957789,11.343337
1006.628906,8.517767,6.963096,17.101497,11.955091
1006.632812,10.456793,8.594440,11.497748,6.282008
1006.636719,7.329460,3.916632,4.830438,6.588506
1006.640625,6.005018,8.809796,7.136455,-8.401239
1006.644531,4.753045,6.278349,5.787800,-1.419846
1006.648438,9.525439,4.315655,-2.841394,7.204681
1006.652344,4.243962,1.815199,0.032817,5.523012
1006.656250,2.753098,-6.237954,-7.889386,-2.030832
1006.660156,-9.033116,-10.363829,-10.565004,-7.474323
1006.664062,-7.554982,-3.832605,-12.451027,-5.558460
1006.667969,-17.766055,-6.590933,-7.320343,-9.522383
1006.671875,-5.285881,-6.157549,-12.118393,-0.246803
1006.675781,-12.455969,-10.050472,-18.071852,-10.142676
1006.679688,-4.427602,-6.598756,-9.308671,-0.434220
1006.683594,-5.325651,-8.550106,-5.392010,-4.401331
1006.687500,-6.905398,-2.127321,-9.717124,-7.154848
1006.691406,-11.438667,-6.476750,-6.249353,-1.704401
1006.695312,-2.707884,-7.380586,-5.856374,-4.137629
1006.699219,-4.551988,0.266948,-1.932505,-12.862520
1006.703125,0.002842,1.629709,7.928086,3.759834
1006.707031,5.064966,9.265944,4.035013,-1.401308
1006.710938,8.127216,5.257295,3.219933,1.225130
1006.714844,13.595164,6.265576,12.484192,13.804146
1006.718750,5.787840,15.220193,11.697507,5.418437
1006.722656,7.616249,14.275989,6.832452,7.036709
1006.726562,10.451552,11.182826,8.706491,13.296518
1006.730469,-2.487716,5.074642,14.424717,7.167536
1006.734375,11.465201,12.710374,10.935445,11.571568
1006.738281,7.726316,4.448124,6.734502,7.549968
1006.742188,1.050074,1.645302,-0.210887,3.575968
1006.746094,0.335850,8.440703,0.216455,0.110901
1006.750000,-2.524331,0.617037,4.261129,-3.687195
1006.753906,0.267840,2.202461,2.910935,-3.440621
1006.757812,2.421651,-6.867968,1.588089,-3.596147
1006.761719,-1.767526,-7.751887,-8.748718,-1.035957
1006.765625,-8.890045,-13.851400,-3.437054,-8.644115
1006.769531,-5.878779,-16.781046,-2.558044,-9.838926
1006.773438,-7.307728,-9.750079,-16.937852,-13.018976
1006.777344,-10.709937,-10.736041,-14.385570,-9.371173
1006.781250,-6.897597,-11.484191,-12.865726,-6.681135
1006.785156,-10.739331,-13.856399,-8.531320,-2.510611
1006.789062,-8.781843,-15.483008,-15.847128,-8.875787
1006.792969,-4.614442,0.337906,-3.833793,-5.096192
1006.796875,-5.365714,-2.646171,1.488193,-0.124840
1006.800781,3.018987,-2.584556,5.417285,-4.082805
1006.804688,-2.797480,9.050026,-0.331717,2.009017
1006.808594,9.846771,8.453597,9.720044,5.160024
1006.812500,6.323981,12.290608,1.900444,10.081841
1006.816406,13.515564,10.737288,7.274649,4.362741
1006.820312,13.950915,-1.690220,12.425448,8.312325
1006.824219,-3.983523,10.158436,14.055495,9.096289
1006.828125,1.391687,10.933219,13.519361,8.219089
1006.832031,16.900784,11.284256,8.137180,11.297086
1006.835938,5.946877,2.825784,8.394277,11.317839
1006.839844,13.246552,5.374373,10.111234,7.747666
1006.843750,5.915483,5.743331,7.315353,1.128843
1006.847656,-0.138633,-2.375617,1.321197,6.185140
1006.851562,4.169280,-5.241760,-0.787931,-2.907886
1006.855469,0.139784,-0.892619,-3.191864,-1.014872
1006.859375,-7.906306,-0.929792,-7.884357,-5.414689
1006.863281,-10.714099,-13.341634,-8.167422,-6.960643
1006.867188,-13.216481,-7.924033,-2.581216,-9.397991
1006.871094,-14.304080,-4.559483,-12.169614,-12.747791
1006.875000,-3.348556,-13.634014,-17.250732,-14.283776
1006.878906,-8.176579,-7.851770,-12.940295,-10.948340
1006.882812,-13.747577,-8.551710,-10.340114,-8.506265
1006.886719,-3.886426,-0.829302,0.776016,-3.113002
1006.890625,-4.997650,-12.314049,-6.104023,-4.181439
1006.894531,-5.261474,-1.545104,-1.746689,-1.311775
1006.898438,-4.124933,4.111511,-5.947761,-1.313557
1006.902344,1.709491,4.729293,1.540198,-1.078597
1006.906250,2.669421,4.463960,6.698804,2.867939
1006.910156,-2.146547,3.501289,5.292378,2.571841
1006.914062,11.351019,11.789090,12.795057,3.465017
1006.917969,3.716232,6.551156,11.595679,0.072156
1006.921875,9.189372,15.897657,6.748137,13.987507
1006.925781,6.227251,16.770940,7.350664,12.841971
1006.929688,11.673271,5.295986,8.056850,13.197099
1006.933594,9.998639,14.494613,14.530069,5.750525
1006.937500,9.560615,13.566416,12.342691,7.789935
1006.941406,15.886936,-0.396264,11.046422,2.748061
1006.945312,1.084788,6.803426,-0.571556,11.160673
1006.949219,1.022890,2.442394,-1.145258,5.398907
1006.953125,-4.030998,2.095719,-3.604258,-5.591031
1006.957031,-12.965001,-2.396645,-2.631038,-6.882112
1006.960938,-16.682185,-10.522933,-10.497114,-3.839632
1006.964844,-8.832454,-8.914643,-17.083290,-13.761308
1006.968750,-7.274935,-6.377589,-10.139099,-6.342544
1006.972656,-10.474606,-9.656781,-13.907289,-10.475386
1006.976562,-13.004218,-2.733494,-8.816763,-11.247749
1006.980469,-5.624908,-14.531558,-10.873657,-12.744770
1006.984375,-8.895246,-6.465397,-9.818105,-7.124723
1006.988281,-13.604360,-10.371202,-0.333101,0.459501
1006.992188,3.046543,4.200430,-4.781139,-4.724788
1006.996094,5.413122,-7.023179,5.698266,5.589680
1007.000000,5.499687,-4.312366,6.252243,-0.043384
1007.003906,-0.552428,-2.073847,6.217004,4.240417
1007.007812,5.587822,7.180927,-2.546999,4.137764
1007.011719,9.538008,4.237478,6.672219,8.378009
1007.015625,10.548850,0.948636,11.387232,14.959053
1007.019531,12.913063,9.834587,8.025821,12.584499
1007.023438,8.225262,13.334605,13.333803,0.665637
1007.027344,14.029489,10.801751,6.432486,12.041420
1007.031250,11.661263,6.251454,-3.355710,13.860919
1007.035156,5.185604,7.191026,8.361394,12.048039
1007.039062,6.855842,8.745541,5.330316,6.835663
1007.042969,9.314377,4.043844,4.471566,0.514386
1007.046875,8.245846,-1.578214,4.614746,-4.903644
1007.050781,-4.852481,-1.286425,-1.621799,1.585745
1007.054688,-0.104617,-0.783503,-11.185933,-5.326294
1007.058594,-7.381697,-4.789386,-0.788186,-6.676215
1007.062500,-6.516054,-4.457335,-6.107083,-7.771460
1007.066406,-1.082052,-16.630978,-10.729996,-10.552942
1007.070312,-4.692445,-9.572892,-5.476194,-15.538809
1007.074219,-10.882706,-15.188797,-3.118167,-10.807101
1007.078125,-12.639618,-11.029454,-7.531497,-10.818209
1007.082031,-5.427092,-3.425582,-3.265693,-8.099145
1007.085938,-14.441973,-1.290217,-1.626410,-8.276801
1007.089844,-4.127174,-5.656518,-6.989482,-9.710158
1007.093750,-7.161555,-2.782499,-13.913212,-5.440186
1007.097656,-4.315758,5.349190,1.571624,-2.642838
1007.101562,2.327996,4.181037,-9.286097,-0.187235
1007.105469,8.249690,4.256578,0.382014,4.932975
1007.109375,4.794390,6.290380,8.688907,6.830476
1007.113281,6.196542,10.521008,3.421529,9.686987
1007.117188,4.332837,5.581349,11.282917,5.745047
1007.121094,15.503383,11.594750,13.108966,12.718959
1007.125000,16.422108,16.133911,9.068418,9.891476
1007.128906,8.734426,11.668692,14.457008,7.126762
1007.132812,10.729608,6.559009,6.939178,11.302673
1007.136719,2.740011,7.315674,5.061192,3.825001
1007.140625,7.032518,10.629091,7.849915,8.161829
1007.144531,4.894318,1.246604,2.691440,5.821862
1007.148438,4.508480,-1.348460,-5.404794,-0.426563
1007.152344,1.342304,4.095980,3.556758,0.244078
1007.156250,-6.840062,3.050138,-5.082661,-3.330417
1007.160156,-3.425199,-10.833028,-1.551882,-13.130463
1007.164062,-9.757847,-3.592184,1.405639,-10.057693
1007.167969,-8.685325,-14.021010,-14.036668,-10.551497
1007.171875,-2.834396,-12.669064,-4.509663,-8.008629
1007.175781,-14.594406,-10.871671,-10.097940,-8.177963
1007.179688,-6.611045,-10.897628,-15.651801,-11.917046
1007.183594,-3.818038,-4.189816,-12.512684,-6.133191
1007.187500,-5.566987,-9.077451,-14.895698,-10.336213
1007.191406,-1.469763,-4.730254,-9.363144,-1.367444
1007.195312,-4.439650,-4.948743,6.343496,-2.006076
1007.199219,3.479213,-4.707914,0.659954,-0.798027
1007.203125,7.419208,-1.737747,0.845563,-4.489154
1007.207031,-0.854738,7.413799,5.591462,3.601327
1007.210938,8.612681,3.193377,13.040328,11.559283
1007.214844,8.664016,4.383724,7.064364,6.518963
1007.218750,0.522024,15.903594,3.910981,12.391998
1007.222656,10.891195,7.469143,2.094040,8.645687
1007.226562,14.550336,8.617744,3.972689,13.425387
1007.230469,13.674273,15.133935,5.684617,7.991760
1007.234375,3.377604,9.820689,13.859263,13.401415
1007.238281,11.646583,2.401190,7.570088,12.693148
1007.242188,3.599779,1.941313,3.727173,4.230352
1007.246094,11.907160,3.595111,6.605239,1.774845
1007.250000,10.228361,1.512848,-0.183448,-0.287879
1007.253906,-3.681875,-1.573660,-8.019478,-4.230293
1007.257812,-5.005113,-6.366627,-5.400123,-1.976729
1007.261719,-9.850166,-10.437858,-6.760362,-0.287812
1007.265625,-9.232759,-4.473468,-2.393370,-7.334666
1007.269531,-6.278773,-2.402253,-13.964085,-10.374334
1007.273438,-9.872657,-9.081011,-3.795501,-5.408073
1007.277344,-11.210232,-4.242334,-7.489244,-11.387237
1007.281250,-15.805469,-0.576911,-16.534065,-15.020960
1007.285156,-11.448826,-12.962108,-2.803551,-8.520684
1007.289062,-8.933557,-15.198127,-6.435576,-3.271821
1007.292969,1.472312,-2.653277,-4.358258,-8.113035
1007.296875,-1.513491,-0.875772,-5.394062,-5.449899
1007.300781,4.227154,2.673663,2.793518,-4.445692
1007.304688,-2.795312,0.019003,4.388207,10.924055
1007.308594,5.403927,4.589287,7.640261,12.421376
1007.312500,6.072151,1.323165,7.311308,4.142045
1007.316406,8.420504,17.097143,13.339928,11.285230
1007.320312,12.632852,16.943274,7.661333,0.689307
1007.324219,5.240339,10.963923,19.929782,10.571140
1007.328125,8.022359,14.033368,16.013104,5.148655
1007.332031,12.784300,5.256524,8.629296,18.877393
1007.335938,4.054194,7.364654,5.515290,1.537485
1007.339844,4.770174,10.322310,1.627427,12.118304
1007.343750,4.385845,3.571157,1.287522,8.698793
1007.347656,2.285878,3.305922,1.440568,3.361519
1007.351562,1.185664,-2.110436,-6.741059,-3.650708
1007.355469,1.834960,-5.870327,-5.780925,-5.615650
1007.359375,-4.726220,-3.415409,-9.225932,-4.196022
1007.363281,-1.222239,-14.240450,-1.822303,-9.164402
1007.367188,-10.814085,-8.668289,-10.706066,-10.680369
1007.371094,1.418697,-7.201059,-10.818733,-7.767539
1007.375000,-15.344321,-12.606676,-8.860615,-9.892587
1007.378906,-15.205761,-8.319606,-13.643565,-8.657831
1007.382812,-7.860631,-13.674830,-10.096009,-9.698484
1007.386719,-13.551314,0.207559,-6.326333,-15.531720
1007.390625,-10.843864,-7.558250,-9.188680,-0.904489
1007.394531,-4.032763,0.212716,-3.357425,-2.016215
1007.398438,-0.387499,-1.121918,1.272535,-4.130285
1007.402344,-3.167349,2.549706,2.559426,5.815270
1007.406250,0.503605,3.524588,4.594608,9.540305
1007.410156,1.011990,8.724780,2.822308,4.803143
1007.414062,-0.348050,5.744684,9.355555,6.571339
1007.417969,8.174126,9.965412,6.036452,9.964198
1007.421875,2.543041,14.262399,8.813154,12.973616
1007.425781,10.498164,7.020900,12.681234,10.697929
1007.429688,8.223907,11.949972,8.896870,8.897578
1007.433594,5.174688,2.000291,3.456423,13.222373
1007.437500,6.200195,6.977884,15.015475,9.471689
1007.441406,5.378270,8.193646,-0.064675,10.579669
1007.445312,3.099178,8.000746,-3.240070,5.195256
1007.449219,0.692801,4.664120,0.541255,1.103606
1007.453125,-2.287388,-8.829360,-7.769339,3.609438
1007.457031,-1.865596,-7.318139,-5.576310,-1.946105
1007.460938,-7.877188,-5.629191,-12.839479,-7.906008
1007.464844,-7.506251,-9.688055,-4.533023,-7.832912
1007.468750,-7.184364,-12.295435,-6.288727,-9.559998
1007.472656,-10.139572,-8.783655,-10.255538,-5.524682
1007.476562,-14.354744,-12.476989,-15.579592,-10.255165
1007.480469,-2.010495,-7.256779,-10.575922,-14.517308
1007.484375,-8.405668,-12.120621,-6.266065,-12.755959
1007.488281,0.738974,-12.611340,-3.746057,-5.655161
1007.492188,1.497406,-3.628982,-7.941064,-8.832619
1007.496094,-10.113027,-4.098438,-4.454436,-6.745644
1007.500000,-2.031962,1.820920,3.167020,3.421258
1007.503906,6.828707,4.794982,5.561023,1.833780
1007.507812,5.560744,8.308817,6.129773,11.777712
1007.511719,5.154020,9.882261,2.672991,11.991341
1007.515625,8.163937,8.817031,12.486748,1.186257
1007.519531,-2.746574,7.718023,6.498293,6.242605
1007.523438,16.087378,9.888419,12.493160,9.987592
1007.527344,13.520636,11.198737,7.605470,14.176459
1007.531250,8.064685,14.911185,5.566796,13.643193
1007.535156,7.763669,4.810829,13.210701,-0.580048
1007.539062,4.655830,7.241512,15.679343,7.303429
1007.542969,4.293483,5.133794,3.319928,1.930337
1007.546875,7.761894,3.191417,1.178977,-0.060577
1007.550781,1.424230,1.940771,1.406499,5.047016
1007.554688,-4.885718,4.684549,1.741414,-3.454778
1007.558594,-6.538880,-3.625819,-6.648039,-11.435886
1007.562500,-7.316606,-3.203046,-10.827073,-11.748592
1007.566406,-10.534956,-14.265473,-12.124033,-14.137813
1007.570312,-7.642556,1.793901,-9.614908,-7.449591
1007.574219,-9.335799,-14.218845,-3.284997,-5.232748
1007.578125,-10.746522,-9.936193,-4.273502,-8.851851
1007.582031,-11.252158,-9.168087,-3.935376,-1.511276
1007.585938,-7.351966,-11.419347,-5.162410,-3.455187
1007.589844,-10.261745,-0.580803,-3.341021,-1.201656
1007.593750,2.179960,-2.478405,-5.631727,-3.350442
1007.597656,-1.361982,8.609993,-1.600457,-4.945321
1007.601562,-4.290591,13.867167,7.763261,-0.864412
1007.605469,6.453669,-1.103914,0.155631,6.673213
1007.609375,8.365959,4.179642,4.706809,1.411118
1007.613281,5.567014,3.282260,10.730195,9.405683
1007.617188,1.689586,4.609194,5.602438,14.441921
1007.621094,12.820931,9.006392,13.126597,5.732106
1007.625000,12.867157,5.743255,8.834704,3.640140
1007.628906,7.015383,7.606941,10.898041,7.529858
1007.632812,1.341101,8.725919,3.741884,12.356396
1007.636719,10.990994,10.684372,3.401176,10.504119
1007.640625,6.412427,1.247855,10.784444,-1.458896
1007.644531,6.813801,4.052040,9.495300,4.377283
1007.648438,7.303148,2.439850,-10.823224,4.419826
1007.652344,-0.508169,4.901725,-5.480357,-2.287241
1007.656250,-5.533783,-7.382598,-5.611871,-7.626567
1007.660156,-1.992166,-9.946981,-3.072696,-2.467015
1007.664062,-3.981123,-5.338267,-6.583832,-12.312119
1007.667969,-4.381330,-9.594079,-5.177833,-13.289351
1007.671875,-9.229504,-9.340471,-8.746941,-11.250795
1007.675781,-3.354482,-10.788064,-7.591301,-8.861701
1007.679688,-6.782358,-19.221415,-13.231984,-10.340000
1007.683594,-10.998400,-6.372876,-16.551639,-2.972125
1007.687500,-7.780878,-9.504339,-10.216063,-9.569358
1007.691406,-6.685631,-4.600237,-0.194573,-0.893650
1007.695312,-0.954340,2.327345,-2.737973,-0.527939
1007.699219,-0.397779,3.393120,5.501012,-3.039835
1007.703125,3.384034,6.974616,2.186335,7.630277
1007.707031,0.045414,-2.438994,8.740154,4.426858
1007.710938,11.379816,9.997382,9.792002,1.160283
1007.714844,12.431906,5.924020,10.382920,10.106157
1007.718750,5.337449,12.251311,12.115613,0.323390
1007.722656,7.935989,14.359731,1.361898,9.139175
1007.726562,1.715172,13.729651,5.064664,12.898192
1007.730469,9.842247,11.458474,11.933778,12.411962
1007.734375,10.962300,2.634578,1.102279,11.803602
1007.738281,11.656712,6.949605,6.769645,8.143906
1007.742188,4.475889,3.957693,2.184496,6.843971
1007.746094,-0.882169,3.071451,3.188178,2.818716
1007.750000,1.323061,-2.941499,-3.878337,-1.444692
1007.753906,-0.193933,6.353335,-6.074651,-2.559398
1007.757812,-7.821505,2.880666,-15.025026,-5.935756
1007.761719,-1.261188,-9.611594,-2.194337,-1.000130
1007.765625,-3.264582,-9.770760,-10.870732,0.730700
1007.769531,-9.767367,-11.547105,-5.367072,-7.098059
1007.773438,-6.220183,-8.808211,-5.833935,-12.543837
1007.777344,-12.789129,-6.451422,-9.958463,-11.705316
1007.781250,-1.318169,-4.454399,-13.944904,-6.371656
1007.785156,-12.319643,-8.923950,-7.278028,-17.425881
1007.789062,-5.013618,-6.594878,-9.476848,-14.638202
1007.792969,3.634030,3.083707,-3.889622,-10.565391
1007.796875,2.416704,-0.825458,-0.572070,-3.393375
1007.800781,2.801845,-2.414828,-7.321678,3.363851
1007.804688,-2.309455,2.846594,7.800568,5.676618
1007.808594,3.589492,8.189452,1.671939,5.976308
1007.812500,10.718014,8.755191,3.706883,10.852995
1007.816406,8.435031,11.721985,12.389928,10.568178
1007.820312,4.584903,14.601683,14.460118,13.370031
1007.824219,11.025724,6.825211,11.199693,9.658363
1007.828125,8.157748,5.426794,16.820600,10.121439
1007.832031,7.156370,9.917029,8.292930,8.147782
1007.835938,9.771272,5.559816,5.056174,1.213285
1007.839844,6.575403,9.129405,5.280399,10.316633
1007.843750,4.835511,1.289748,6.157039,6.356265
1007.847656,0.202927,-0.442956,6.816069,-4.700904
1007.851562,-2.598560,5.323993,0.500417,-1.442954
1007.855469,-10.127473,6.456988,-4.837797,-1.770016
1007.859375,-4.712726,-1.504145,-7.642954,-4.016751
1007.863281,-6.104113,-10.251294,-1.338693,-9.543744
1007.867188,-6.362337,-1.041533,-4.805493,-7.365645
1007.871094,-5.046715,-17.832833,-7.822315,-9.318435
1007.875000,-10.946165,-11.975797,-7.126542,-13.945641
1007.878906,-3.369285,-9.904428,-16.996325,-7.341005
1007.882812,-10.192023,-12.103176,-13.349940,-8.878280
1007.886719,-10.208021,-10.988268,-9.426754,-6.714956
1007.890625,-8.182590,-2.700417,-1.200611,-1.399871
1007.894531,-4.866731,2.164436,-6.549330,1.630471
1007.898438,0.209277,-6.474220,3.306745,9.670914
1007.902344,8.887813,-2.690602,0.919792,-2.256182
1007.906250,6.171289,10.963875,8.478353,0.374008
1007.910156,4.994674,-2.758867,12.983837,4.918774
1007.914062,7.143707,2.834486,11.315787,2.977620
1007.917969,7.446329,2.781024,10.636979,1.967964
1007.921875,18.798899,5.631123,9.012666,13.229626
1007.925781,13.919266,10.323935,16.129420,6.412956
1007.929688,12.474002,16.208599,14.198398,6.680800
1007.933594,13.046011,12.243767,13.987596,7.996853
1007.937500,10.856527,9.471812,7.256965,3.422004
1007.941406,6.454784,7.880784,10.841481,2.675993
1007.945312,5.748864,5.150146,4.456213,9.188839
1007.949219,0.368247,1.162942,3.433348,-0.463654
1007.953125,-4.967483,-2.951348,-9.721619,1.641914
1007.957031,-7.927023,-5.400313,-8.718849,-7.387161
1007.960938,-7.277635,-5.663079,-5.909432,-7.368868
1007.964844,-11.452534,-4.861747,-6.354505,-8.276133
1007.968750,-6.379190,-14.048656,-11.997269,-8.476655
1007.972656,-16.202691,-14.948909,-4.530855,-8.387868
1007.976562,-12.501669,-2.650570,-14.144838,-11.345114
1007.980469,-8.124437,-4.658348,-4.257062,-15.445940
1007.984375,-9.469938,-13.988632,-8.938864,-9.660979
1007.988281,-10.510019,-4.693408,-10.148033,-11.162860
1007.992188,-6.394838,-7.817074,-6.093381,-3.054683
1007.996094,4.119668,1.006457,-11.293310,0.736477
1008.000000,15.585937,-2.577137,3.413681,4.957308
1008.003906,11.179464,0.956061,2.721311,5.817968
1008.007812,4.533282,3.098926,4.635924,5.163300
1008.011719,14.666936,6.366023,4.395487,9.293510
1008.015625,6.200782,16.444127,12.473914,10.429620
1008.019531,8.037189,9.776945,3.426388,13.158507
1008.023438,13.113741,7.430255,14.206890,5.126895
1008.027344,3.349483,15.577454,1.894478,3.262940
1008.031250,9.829032,3.475033,9.153400,9.135871
1008.035156,4.527964,0.413705,12.704404,10.020151
1008.039062,3.007677,-0.140431,10.875977,2.555973
1008.042969,6.225296,5.098404,1.895565,7.198634
1008.046875,6.524201,-1.811587,7.937369,-7.112188
1008.050781,5.952030,1.051115,2.260373,-7.901732
1008.054688,-2.771726,-2.342238,-1.656232,-0.237081
1008.058594,-7.558186,-12.953032,-11.078109,-7.624802
1008.062500,-8.216172,-3.249229,-9.876931,-4.031605
1008.066406,-6.322430,-9.775890,-12.113907,-8.339936
1008.070312,-6.549046,-7.860728,-3.237904,-21.252582
1008.074219,-11.705128,-10.506840,-11.665920,-10.422798
1008.078125,-8.542018,-11.723398,-7.139812,-12.776019
1008.082031,-9.778708,-17.885349,-8.947471,-9.593397
1008.085938,-6.942089,-12.184249,-6.710359,-13.347239
1008.089844,-8.097304,-4.662440,-7.253422,1.155668
1008.093750,-5.774425,-7.679029,1.596061,-8.933205
1008.097656,-1.454638,-7.109690,-7.812203,-1.865785
1008.101562,-1.570839,0.048258,2.747494,-1.644400
1008.105469,6.417836,5.206101,2.582830,-2.132325
1008.109375,8.167386,5.402619,12.435322,-0.339633
1008.113281,5.428701,4.811607,18.488146,8.182685
1008.117188,8.727266,1.273829,4.304293,6.688073
1008.121094,10.173520,8.872309,14.202170,13.104206
1008.125000,8.040939,17.226006,6.619636,11.733295
1008.128906,7.066119,15.094079,10.032937,8.902092
1008.132812,14.396506,4.055351,7.824886,20.422229
1008.136719,14.116931,8.723202,10.178968,10.932230
1008.140625,8.256081,-0.391465,3.268676,3.713435
1008.144531,-1.914820,6.110919,4.368119,2.733240
1008.148438,1.690661,-4.140806,0.075722,0.180836
1008.152344,0.224425,-0.219751,3.502364,8.393364
1008.156250,1.651240,-0.526130,-1.341082,-10.417001
1008.160156,-13.178904,-0.273264,-3.411539,-7.782045
1008.164062,-7.728780,-12.078509,-5.709313,-5.242675
1008.167969,-4.870049,-12.761608,-13.616829,-8.161913
1008.171875,-12.702209,-11.998993,-15.012809,-12.543473
1008.175781,-12.252408,-8.399449,-7.549318,-9.082877
1008.179688,-8.154434,-5.859407,-12.281034,-8.203475
1008.183594,-3.721938,-8.840776,-4.893649,-14.682417
1008.187500,-9.107052,-5.043626,-0.089580,-13.825590
1008.191406,-1.197699,-1.929600,-11.918931,0.015541
1008.195312,-6.344837,3.036598,2.071020,1.118874
1008.199219,-3.030299,-1.884483,-0.793367,-8.518203
1008.203125,3.407709,5.888603,2.874184,4.690890
1008.207031,1.281603,1.377765,3.955415,-4.401582
1008.210938,11.987839,4.074042,11.493938,2.251334
1008.214844,12.329408,9.375411,0.353526,4.351530
1008.218750,6.582117,12.737512,5.196566,2.306595
1008.222656,11.649563,4.550829,5.648218,10.783568
1008.226562,17.256060,5.094350,13.600868,9.625370
1008.230469,2.214884,13.792218,4.186080,11.721104
1008.234375,6.374980,18.451833,3.604490,10.542672
1008.238281,7.713623,4.373124,5.115483,3.215544
1008.242188,-0.419443,4.989614,-0.570078,9.231532
1008.246094,-1.601112,-5.193956,5.907330,5.013216
1008.250000,-0.937000,4.480669,-1.493126,-2.913191
1008.253906,4.153090,-3.068118,1.042062,-7.197324
1008.257812,-6.368310,-8.003545,-0.210366,-11.119504
1008.261719,-8.085664,-13.105142,-2.974980,-9.206748
1008.265625,-13.030549,-10.884188,-18.009002,-4.449841
1008.269531,-13.665329,-13.788063,-9.694287,-3.595774
1008.273438,-9.731952,-15.303299,-8.357007,-10.608644
1008.277344,-15.712631,-10.424892,-16.910580,-9.970083
1008.281250,-5.611144,-2.388303,-14.192117,-7.607322
1008.285156,-11.453924,-13.331585,-5.036473,-5.433624
1008.289062,-3.964295,-5.382221,-7.946971,1.369887
1008.292969,-5.119919,-2.386886,3.039494,-6.060969
1008.296875,-14.569608,2.090151,-0.588439,-3.382176
1008.300781,3.091108,4.122946,1.751216,-1.741992
1008.304688,-5.774897,6.449518,7.096518,3.764588
1008.308594,4.178586,6.699808,9.088125,-0.410291
1008.312500,6.185642,3.830712,7.130650,3.454547
1008.316406,0.953198,7.833476,10.331204,5.958740
1008.320312,0.440474,4.345528,11.039020,16.130139
1008.324219,2.383657,9.546851,12.667699,13.037889
1008.328125,8.438885,-3.009027,10.108464,8.063229
1008.332031,8.850358,8.169659,9.653434,15.393729
1008.335938,12.260710,-0.530222,-1.797092,10.090109
1008.339844,7.236568,0.363074,6.037271,8.814836
1008.343750,3.585749,3.319395,-0.063693,-1.636309
1008.347656,7.624387,1.394758,3.317002,5.959762
1008.351562,5.763347,6.070462,3.427016,-3.753165
1008.355469,0.222758,-3.085491,-8.896649,-3.768801
1008.359375,-3.881074,-8.870894,-11.298823,-5.361092
1008.363281,-11.505651,-11.799848,-7.048659,-9.123012
1008.367188,-14.804618,-10.950853,-4.542502,-9.555308
1008.371094,-5.298717,-11.184391,-4.246165,-10.097108
1008.375000,-9.315459,-6.334908,-8.777330,-12.591759
1008.378906,-3.770786,-8.939980,-15.358003,-5.959774
1008.382812,-2.427709,-9.523393,-1.248662,-13.866149
1008.386719,-7.120566,-12.889790,-16.482464,-0.169412
1008.390625,-6.764443,-4.648998,-11.311130,-5.544493
1008.394531,-2.385572,-6.920643,2.186681,-7.517895
1008.398438,-1.830952,1.410578,-0.548056,2.390791
1008.402344,-1.337558,0.456643,-0.133997,-1.073777
1008.406250,4.840752,2.567917,4.708409,6.529538
1008.410156,3.969291,5.322266,5.588331,8.158151
1008.414062,7.604425,9.196657,7.876960,1.813232
1008.417969,9.571777,13.339827,10.740856,12.894906
1008.421875,7.783309,13.953496,6.854708,12.055484
1008.425781,8.030219,13.455716,6.765938,10.902581
1008.429688,10.175090,9.313134,6.495289,12.669443
1008.433594,4.020840,5.452234,2.469914,7.755495
1008.437500,9.489533,7.015444,17.255581,1.992833
1008.441406,10.049363,3.637790,3.962910,0.640040
1008.445312,3.192741,5.460837,8.472667,8.649841
1008.449219,5.543676,0.327550,-3.418020,-0.251578
1008.453125,-6.341410,-7.088902,-1.383793,-4.779047
1008.457031,-3.042015,2.957066,-15.762713,-9.222862
1008.460938,-3.633847,-8.291568,-6.646398,-6.605804
1008.464844,-9.991115,-10.543620,-10.763285,-2.780655
1008.468750,-9.431590,-5.970446,-8.602854,-17.172042
1008.472656,-3.140149,-8.689760,-9.191474,-9.849785
1008.476562,-10.487533,-20.119950,-3.695683,-10.921255
1008.480469,-10.253098,-10.114116,-7.189708,0.272919
1008.484375,-11.922296,-15.734192,-10.896611,-7.915592
1008.488281,-4.949940,-4.742672,-4.591205,-6.739813
1008.492188,-3.167084,-3.542177,-8.214108,-7.381441
1008.496094,7.167537,-0.083150,6.604433,-4.066981
1008.500000,3.316594,1.058246,3.868840,6.209212
1008.503906,-3.072563,3.585056,-5.714472,-0.785834
1008.507812,11.130793,-1.368480,4.835258,6.186339
1008.511719,7.301700,3.898077,12.467533,10.238478
1008.515625,11.843203,15.145066,12.807605,11.150140
1008.519531,6.578560,3.454581,3.896915,12.672763
1008.523438,9.071912,1.877663,13.137076,7.934538
1008.527344,8.592431,9.610945,5.306429,5.278619
1008.531250,13.440120,15.322331,0.748832,5.324222
1008.535156,2.851519,7.747031,5.140112,1.037348
1008.539062,1.858524,2.607120,2.530204,3.979826
1008.542969,-1.497883,8.020767,-6.154546,6.708099
1008.546875,5.397467,7.203387,-1.606220,-5.047752
1008.550781,-7.142905,-0.364252,0.668404,-2.398909
1008.554688,-3.925525,-1.020077,-1.997377,4.462835
1008.558594,-0.906521,-6.308969,-6.883222,-4.145564
1008.562500,-5.685334,-14.150602,-1.453848,-4.914673
1008.566406,-8.523303,-11.291839,-17.651405,-2.496229
1008.570312,-5.422169,-20.176582,-10.736545,-6.188112
1008.574219,-9.016372,-7.285470,-8.185052,-8.218433
1008.578125,-11.738655,-13.591124,-15.069718,-10.683447
1008.582031,-13.150081,-11.296048,-9.102310,-17.950686
1008.585938,-13.558321,-14.080182,-16.451211,-10.328515
1008.589844,1.411686,-7.451649,-6.376700,-17.948309
1008.593750,-0.575069,-7.290220,-7.441398,2.547350
1008.597656,-4.044512,-4.018006,-1.048550,-4.023474
1008.601562,6.251551,5.901509,-4.814676,3.087385
1008.605469,8.742539,4.350996,4.096081,5.839262
1008.609375,-6.756998,4.190425,12.683344,4.344575
1008.613281,7.333287,2.182897,2.166551,1.870123
1008.617188,10.114537,10.825403,7.187597,6.262590
1008.621094,8.822849,14.088135,15.341737,9.979305
1008.625000,12.836158,7.195970,13.645847,10.806329
1008.628906,9.072577,8.548350,11.119585,11.003159
1008.632812,19.700445,8.412212,12.241846,12.882368
1008.636719,4.264270,8.581484,6.513706,8.447181
1008.640625,1.154840,7.399451,-1.342751,3.013222
1008.644531,-4.005071,2.256868,3.633402,4.869982
1008.648438,0.457905,1.833080,3.914935,0.271685
1008.652344,5.457820,-0.873435,-5.205012,-0.412998
1008.656250,-12.873795,-2.053175,-4.440710,1.984270
1008.660156,-3.220913,-4.416967,-15.621599,-9.419737
1008.664062,-8.459280,-19.686731,-11.499007,-5.429716
1008.667969,-11.812707,-13.406200,-8.183360,-14.358793
1008.671875,-5.767932,-3.555820,-13.200007,-10.393366
1008.675781,-11.916873,-11.005524,-15.539205,-11.333992
1008.679688,-4.085504,-12.443108,-4.826617,-2.518337
1008.683594,-0.311959,-11.213826,-6.406643,-10.590784
1008.687500,-2.742035,2.708514,-10.671657,-4.115541
1008.691406,-10.718697,-4.320836,1.716097,-4.388041
1008.695312,-0.952024,-0.165034,-0.854937,-1.777120
1008.699219,-3.603746,-8.654504,-0.042208,5.167935
1008.703125,-3.529888,5.871968,1.838210,-1.812939
1008.707031,-1.017110,2.161357,4.505161,1.845623
1008.710938,1.503717,9.459201,5.222487,20.240222
1008.714844,1.907588,12.093878,7.443190,19.345305
1008.718750,7.878342,8.220695,5.410385,8.986763
1008.722656,6.909357,12.499325,9.804917,8.242087
1008.726562,11.840765,0.149981,17.609754,18.381656
1008.730469,14.515909,8.776498,13.915494,11.215221
1008.734375,14.095329,7.316974,7.393911,17.211770
1008.738281,4.090123,6.940675,6.572015,7.567983
1008.742188,5.706534,5.944649,-1.770279,-0.563383
1008.746094,3.335287,2.147688,-5.403532,-1.414373
1008.750000,-3.690304,0.875158,-0.431755,1.567024
1008.753906,-5.339186,-5.641167,-1.162989,-1.795945
1008.757812,-3.487832,0.664020,-4.667936,-2.370721
1008.761719,-10.231628,-6.973399,-14.564797,-5.183831
1008.765625,-6.264355,-4.282175,-9.259864,-6.776803
1008.769531,-7.838154,-9.137730,-8.780251,-13.362311
1008.773438,-8.235296,-5.902372,-12.938770,-14.853708
1008.777344,-3.663506,-12.646061,-7.233465,-5.983211
1008.781250,-5.866760,-11.308565,-6.897900,-4.931482
1008.785156,-11.213089,-4.626213,-6.184752,-4.974466
1008.789062,-5.331867,-11.818758,-9.815245,-0.716770
1008.792969,-2.548652,-2.052239,-5.646249,-1.299355
1008.796875,-2.305184,5.073367,-12.008461,2.486963
1008.800781,0.695954,8.584579,-1.915925,-1.514624
1008.804688,6.588220,5.275157,3.546351,10.504190
1008.808594,1.416047,6.966407,6.654306,-2.188373
1008.812500,11.208155,11.211935,13.247098,7.009875
1008.816406,11.834286,12.960134,9.260710,8.186700
1008.820312,16.460754,8.081309,11.886207,7.094479
1008.824219,9.180020,14.337725,11.267551,11.684980
1008.828125,9.480054,9.942998,7.979192,5.316511
1008.832031,9.968519,5.753205,7.556068,11.658182
1008.835938,5.385760,9.414546,8.063947,12.827803
1008.839844,8.076966,6.514522,1.163177,8.518707
1008.843750,0.049250,0.551503,10.912373,5.524549
1008.847656,-1.380156,-1.263469,3.709060,3.682465
1008.851562,7.284002,-0.736832,6.857453,0.098249
1008.855469,-3.460356,-3.239194,-2.594527,-9.836991
1008.859375,1.486048,-11.710423,-13.044637,-8.209069
1008.863281,-11.334834,-6.596383,-4.170340,-8.335990
1008.867188,-6.086826,-10.795236,-6.663256,-11.030106
1008.871094,-8.124431,-5.926871,-6.318214,-7.055101
1008.875000,-6.723290,-5.747165,-9.128468,-6.722504
1008.878906,-13.638674,-8.072284,-10.556634,-13.991495
1008.882812,-4.566289,-13.424180,-13.649859,-10.256235
1008.886719,-2.613963,-11.583723,1.775720,-13.403701
1008.890625,-13.149657,-6.620836,-4.772112,-3.475107
1008.894531,-2.352428,-0.660388,-0.539912,-4.454559
1008.898438,0.481782,-10.166221,5.739510,-6.766725
1008.902344,8.587913,0.476705,5.290513,2.902287
1008.906250,4.807360,-5.313718,8.631020,-0.629000
1008.910156,3.894485,1.754999,9.716309,6.066129
1008.914062,6.162439,16.967359,9.661978,9.460398
1008.917969,6.334980,7.937543,6.450787,12.736018
1008.921875,3.491248,8.392339,8.401339,12.015435
1008.925781,7.525090,13.906554,10.584747,8.845927
1008.929688,11.960389,12.084128,6.021226,6.818625
1008.933594,9.154744,15.802445,8.896835,17.118442
1008.937500,8.829260,5.443926,11.911219,6.149806
1008.941406,8.488229,4.969897,5.138469,-1.354825
1008.945312,-0.388371,8.838921,1.956816,9.345038
1008.949219,8.065433,-1.943373,1.955159,6.665659
1008.953125,1.736369,0.821238,-8.624198,0.274171
1008.957031,-9.509358,-3.759375,-7.295129,6.166863
1008.960938,-6.352411,-8.125733,-4.765019,-15.077885
1008.964844,-1.129564,-3.092546,-7.588363,-4.720400
1008.968750,-11.077984,-12.762837,-2.393436,-10.026218
1008.972656,-9.931108,-9.903294,-10.256745,-14.628178
1008.976562,-8.521605,-13.108354,-8.838791,-6.145723
1008.980469,-7.184798,-13.095661,-10.794204,-12.700046
1008.984375,-6.106410,-10.944532,-11.236368,-9.614794
1008.988281,-7.346265,-9.163455,-2.205355,-3.296710
1008.992188,-8.559347,1.507785,-3.995215,-0.623710
1008.996094,-2.415612,1.512455,-1.063967,-6.798598
1009.000000,-4.514275,-3.891048,3.475720,4.888218
1009.003906,-0.955587,-2.767672,5.304590,2.013535
1009.007812,2.296196,7.815906,-0.641837,7.810621
1009.011719,5.165352,14.824932,5.879439,9.261862
1009.015625,7.772632,8.217574,10.095967,6.618732
1009.019531,11.920879,14.460098,9.007197,4.345478
1009.023438,8.358798,12.060893,6.133177,10.295233
1009.027344,4.483212,14.072040,0.127610,9.133946
1009.031250,13.330090,11.186152,7.572785,11.611105
1009.035156,12.253507,11.361937,5.554597,11.626898
1009.039062,4.158907,9.499736,8.598887,6.955287
1009.042969,1.395800,3.837116,8.268281,3.509762
1009.046875,-11.226576,4.013208,-4.033697,-1.845982
1009.050781,0.526462,4.392989,-6.856883,-3.513234
1009.054688,-10.065484,-2.683685,1.086795,-4.370332
1009.058594,-8.615631,-3.509886,2.799744,-2.066968
1009.062500,-9.464187,-10.275329,-6.734189,-8.537271
1009.066406,-7.044161,-14.221926,-15.439563,-7.772680
1009.070312,-8.417171,-13.633071,-18.517547,-6.000925
1009.074219,-12.749186,-14.496309,-7.871368,-8.644122
1009.078125,-6.567058,-15.788494,-8.258609,-7.924447
1009.082031,-8.361076,-12.123890,-8.385963,-3.560511
1009.085938,-13.994818,-13.828037,-17.438694,-12.764908
1009.089844,-3.513296,-8.491102,-6.321785,-12.417285
1009.093750,-11.256436,-4.830413,-0.537246,0.311221
1009.097656,0.249020,1.670154,1.655598,-7.758854
1009.101562,-0.995541,-2.237870,-1.518008,4.410281
1009.105469,1.430204,4.826810,4.561523,5.143383
1009.109375,7.707123,6.056114,-2.186031,2.701957
1009.113281,9.061988,2.960287,3.084211,4.932339
1009.117188,12.164587,3.687742,10.255675,10.886131
1009.121094,11.471025,5.037805,8.809892,6.179453
1009.125000,13.406811,8.978850,13.626157,13.973810
1009.128906,9.008323,6.151780,9.822496,10.529716
1009.132812,13.000420,4.123746,12.340466,5.554173
1009.136719,7.479325,3.916753,9.135864,5.744903
1009.140625,2.133515,7.094835,0.871944,2.364710
1009.144531,3.176457,2.973861,1.890465,3.064181
1009.148438,-0.195495,-3.550510,-1.215993,6.705256
1009.152344,-3.287945,3.680223,-2.460814,-5.014876
1009.156250,-2.191635,-4.432311,-12.240412,-1.253379
1009.160156,-10.624525,0.067206,-0.890610,-11.609558
1009.164062,-7.548702,0.430722,-13.730233,-13.949944
1009.167969,-9.171813,-10.499786,-13.069915,-9.926473
1009.171875,-4.668310,-7.272945,-12.010462,-17.196913
1009.175781,-4.692331,-12.705436,-13.216319,-14.252843
1009.179688,-12.714541,-11.518530,-5.344092,-8.015838
