timestamp,TP9,AF7,AF8,TP10
1000.000000,-2.744413,-1.771314,-3.558280,-4.721356
1000.003906,2.581485,-0.301672,-4.163899,-3.368870
1000.007812,3.448060,1.603229,0.869585,4.192190
1000.011719,7.823593,5.840120,5.026881,4.723223
1000.015625,5.961322,2.290146,5.309798,17.869136
1000.019531,11.991909,2.112126,14.548781,8.781704
1000.023438,8.744639,10.573527,7.443240,8.195732
1000.027344,17.998664,10.273229,11.714358,3.736168
1000.031250,5.582276,17.014081,9.897327,11.491436
1000.035156,4.978741,6.524701,11.103615,9.254503
1000.039062,6.740974,3.932159,6.461314,8.780636
1000.042969,4.087427,4.387249,7.183046,-0.229887
1000.046875,0.784023,-1.830782,4.015098,2.026954
1000.050781,3.180841,0.876126,1.963834,-4.312693
1000.054688,-6.286751,-6.108096,-5.632821,-8.388035
1000.058594,-1.555155,-4.328695,-4.727313,-14.787975
1000.062500,-13.983985,-15.653832,-6.469966,-3.380382
1000.066406,-7.027446,-4.893064,-7.079087,-7.484660
1000.070312,-9.763904,-15.143460,-7.338158,-12.594405
1000.074219,-8.782524,-10.131757,-7.856937,-8.666710
1000.078125,-9.705420,-12.277159,-12.845309,-1.261615
1000.082031,-8.820663,-6.372349,-9.984463,-11.193389
1000.085938,-7.314220,-11.490946,-10.043692,-6.473838
1000.089844,-1.717692,0.318078,-11.828412,2.428131
1000.093750,-5.943129,-4.723509,-0.246151,-8.525782
1000.097656,1.938881,1.767952,6.562184,-1.209881
1000.101562,3.351834,1.009635,-2.066151,1.487513
1000.105469,2.812796,6.634356,1.950313,8.454617
1000.109375,9.037969,5.723713,9.089910,2.449088
1000.113281,6.816123,8.531440,11.071894,3.988370
1000.117188,0.504534,10.756904,9.872158,12.706519
1000.121094,16.961866,5.290392,5.166741,11.417856
1000.125000,12.552673,9.645415,12.082224,2.531467
1000.128906,13.157401,17.550880,9.810581,6.681736
1000.132812,13.287844,7.782588,6.697731,7.171154
1000.136719,5.763054,8.119313,1.506356,6.549031
1000.140625,11.167128,7.491902,4.884088,0.770000
1000.144531,3.194912,7.191025,4.329876,-1.077135
1000.148438,-0.592846,0.049380,3.821494,-3.772478
1000.152344,-7.422140,5.501083,-2.202280,0.155209
1000.156250,-1.489470,-12.120157,-6.579512,-4.921238
1000.160156,-10.089998,-8.224517,-11.839503,-6.114448
1000.164062,-3.316411,-5.502184,-9.606182,-8.187263
1000.167969,-13.008893,-10.911648,-9.672552,-11.813364
1000.171875,-7.823109,-4.924546,-5.383761,-12.227107
1000.175781,-15.293690,-16.166541,-1.967624,-14.528726
1000.179688,-13.658950,-7.159669,-15.211724,-12.377229
1000.183594,-4.848898,-9.746498,-0.494185,-14.693543
1000.187500,-3.169064,-5.677240,-7.922766,-11.859559
1000.191406,-12.773290,-4.604513,-7.712421,0.585297
1000.195312,-0.005882,-3.363362,-2.332111,0.115172
1000.199219,3.379676,-2.735826,-4.008890,1.007817
1000.203125,-6.007084,-6.310814,4.419359,2.927042
1000.207031,1.800292,1.874234,1.726747,1.382842
1000.210938,0.553003,3.007101,15.251208,9.036489
1000.214844,9.183271,10.705013,11.658021,6.554187
1000.218750,8.540762,11.221631,6.880920,13.962547
1000.222656,9.969109,7.247591,10.475840,7.798509
1000.226562,8.136524,19.995263,12.732635,4.197026
1000.230469,5.924058,8.545437,14.665564,12.275773
1000.234375,3.866735,6.263894,3.079737,9.770383
1000.238281,5.621761,5.483558,13.179578,13.487372
1000.242188,0.813809,13.816405,2.033723,-3.583812
1000.246094,1.354366,2.515983,1.426043,-3.415346
1000.250000,-1.799989,-2.021326,-3.505250,2.290882
1000.253906,-1.491133,-5.613818,-0.050054,-1.923877
1000.257812,-12.060556,-5.977062,-1.762372,-5.343963
1000.261719,-11.745035,-8.863016,-6.001840,-5.977023
1000.265625,-17.319233,-0.677540,-8.923076,-12.127204
1000.269531,-10.392031,-13.889005,-4.210898,-10.054523
1000.273438,-8.304997,-9.435351,-10.387195,-3.561313
1000.277344,-12.537288,-19.540414,-12.650996,-18.363207
1000.281250,-7.234976,-8.530648,-4.815751,-15.075528
1000.285156,-5.992007,-15.672070,-12.690320,-4.176963
1000.289062,-5.057866,-9.481081,-4.092378,-9.336191
1000.292969,-3.722409,-4.682691,-12.123671,-5.610820
1000.296875,1.731169,-10.017949,0.241520,-4.882497
1000.300781,0.586162,4.585042,2.861892,1.949883
1000.304688,-3.064350,-2.867556,-0.696031,2.860994
1000.308594,3.990375,4.882167,7.029483,10.593187
1000.312500,8.501154,4.649531,6.864216,8.689306
1000.316406,7.186483,0.679547,4.943755,7.857701
1000.320312,9.676933,5.352423,15.191690,11.624469
1000.324219,11.682879,8.008672,8.913526,9.201142
1000.328125,4.102849,7.409176,17.326620,10.404342
1000.332031,6.378533,12.043213,17.570254,11.569847
1000.335938,8.638735,7.742982,6.031453,-2.766321
1000.339844,7.433557,6.595627,-0.823053,9.092000
1000.343750,4.598137,1.691804,-0.944610,-3.973799
1000.347656,-3.299267,-2.197227,-2.725300,6.747178
1000.351562,-5.581723,-6.272538,-5.388344,-3.785592
1000.355469,-5.992262,-5.987624,-4.725347,1.606410
1000.359375,-11.256530,-3.432297,-9.854577,-10.849897
1000.363281,-2.310938,-11.329938,-6.577983,-11.628814
1000.367188,-17.158086,-10.849983,-9.405657,-9.647078
1000.371094,-3.220504,-15.650316,-6.241324,-14.351104
1000.375000,-10.788384,-14.709660,-10.753053,-13.217839
1000.378906,-7.325213,-12.871934,-19.601343,-16.808508
1000.382812,-12.793709,-9.990060,-9.655462,-9.239263
1000.386719,-5.490772,-3.897263,-11.169680,-7.511827
1000.390625,-12.904474,-8.832158,-8.793239,-4.147579
1000.394531,-4.743942,-0.118397,-0.095465,-6.781030
1000.398438,-2.840905,-0.680959,-0.563629,-6.620546
1000.402344,0.899650,6.120311,6.216089,1.854217
1000.406250,5.629167,4.948590,9.573896,2.185391
1000.410156,7.159859,3.294773,6.895527,4.022847
1000.414062,10.825903,6.432720,5.105396,9.484760
1000.417969,8.598856,9.848514,14.533723,9.852831
1000.421875,11.189187,7.784002,10.415536,3.337849
1000.425781,9.724282,12.836292,6.809718,2.468585
1000.429688,12.185058,5.119662,1.584054,9.371304
1000.433594,5.967091,13.512589,2.013634,9.370191
1000.437500,9.880037,11.304586,10.246114,7.273354
1000.441406,5.598197,4.704104,6.972650,3.917759
1000.445312,2.176697,7.438566,3.907238,1.634048
1000.449219,0.457890,-5.417917,-1.605466,4.820086
1000.453125,2.034688,4.071965,-4.824609,-1.795977
1000.457031,-5.165731,-8.963313,-3.394974,-3.135144
1000.460938,0.225014,-2.714069,-5.970834,-13.416833
1000.464844,-12.990128,-9.725319,-12.074682,-12.313519
1000.468750,-15.802174,-16.683588,-10.036532,-9.244672
1000.472656,-12.172338,-11.353879,-9.918186,-6.497923
1000.476562,-7.425260,-9.500634,-7.112882,-16.857147
1000.480469,-11.346883,-8.378822,-8.107778,-7.376760
1000.484375,-9.284148,-7.554497,-17.700246,-4.234454
1000.488281,-6.313413,-7.354064,-6.760512,-9.870862
1000.492188,-0.901974,-3.548724,-9.747495,-13.708744
1000.496094,-9.300060,-3.149612,-4.530872,-2.411823
1000.500000,1.485663,-2.267708,-1.232869,3.401500
1000.503906,0.943641,-0.707225,6.977211,0.676792
1000.507812,3.518916,4.445866,5.767131,0.784399
1000.511719,4.574157,6.199934,5.574228,10.262426
1000.515625,8.864021,12.919651,8.834371,5.958886
1000.519531,14.750132,13.230708,9.511255,18.593034
1000.523438,7.233542,7.352022,8.612625,19.575040
1000.527344,8.234516,8.108888,11.489210,11.654182
1000.531250,6.906305,7.214290,9.407397,11.284815
1000.535156,9.762239,11.419776,-0.485561,4.533814
1000.539062,20.768034,11.705915,10.611801,8.438852
1000.542969,2.599544,-0.777119,-1.833535,7.263263
1000.546875,-1.111941,6.466710,2.301418,7.245309
1000.550781,3.648045,-2.236625,1.601196,0.545223
1000.554688,-2.162301,3.984535,-8.531927,2.166893
1000.558594,-1.911981,-4.087773,-1.819893,-7.319065
1000.562500,-6.901815,-8.687692,-11.705069,-3.206453
1000.566406,-8.495764,-9.845824,-6.172200,-7.162677
1000.570312,-11.124059,-5.610762,-1.945172,-4.961603
1000.574219,-10.610417,-17.046450,-6.963576,-16.381800
1000.578125,-4.439235,-10.273187,-13.348683,-7.722553
1000.582031,-19.646901,-13.011367,-9.167584,0.817187
1000.585938,-8.232230,-12.806977,-12.164153,-11.236942
1000.589844,-3.105350,-1.724568,-6.377470,-6.643649
1000.593750,-7.009288,1.817829,-5.487729,-4.800611
1000.597656,-5.183856,4.573541,-1.754468,-3.015797
1000.601562,0.671617,-3.654185,1.616821,1.247024
1000.605469,6.364586,4.688337,8.990036,5.921437
1000.609375,3.351449,2.942197,14.967137,-0.909795
1000.613281,5.785102,6.135111,4.411803,1.852280
1000.617188,11.707564,1.439818,12.715552,5.526338
1000.621094,14.438874,13.847900,11.973187,12.097908
1000.625000,12.790826,10.624832,7.248838,5.799513
1000.628906,3.399190,12.080728,7.804846,7.561221
1000.632812,5.590426,6.888570,7.693937,14.253166
1000.636719,5.016005,8.206609,10.511358,15.000074
1000.640625,4.238082,-0.254957,9.534844,6.348564
1000.644531,3.196803,1.609002,6.937194,2.299679
1000.648438,-0.642837,2.385402,5.057391,1.010188
1000.652344,-2.311629,-0.533691,-1.889558,-2.321240
1000.656250,-8.208665,-6.874026,-10.034953,3.811829
1000.660156,-5.885409,2.639096,-11.165930,-9.976294
1000.664062,-5.832539,-12.431534,-11.976038,-5.495188
1000.667969,-14.575737,-9.626598,-8.126394,-5.291377
1000.671875,-5.077848,-2.770334,-11.118724,-7.795769
1000.675781,-12.575180,-6.544965,-7.212300,-13.469312
1000.679688,-6.268536,-8.533606,-6.582968,-10.673319
1000.683594,-11.590934,-10.046903,-11.474262,0.764146
1000.687500,-10.941818,-12.696895,-10.835419,-9.975389
1000.691406,-6.979075,0.625298,0.360212,-5.984725
1000.695312,-5.513872,0.745618,-0.754316,-1.619986
1000.699219,-9.182900,-0.044364,3.051723,-0.308786
1000.703125,2.816578,0.847361,5.090982,-0.112498
1000.707031,6.359084,0.249986,5.467920,6.042267
1000.710938,7.260879,9.727672,7.178998,10.927882
1000.714844,6.276998,11.206267,1.404523,12.330306
1000.718750,12.308605,14.449064,5.587030,15.903393
1000.722656,10.815833,6.466294,14.687663,0.058955
1000.726562,7.390458,11.719765,10.433294,8.986505
1000.730469,10.115965,3.405965,10.021566,8.797908
1000.734375,11.522022,0.461654,8.126719,5.893911
1000.738281,4.055979,10.719990,6.423027,3.531284
1000.742188,16.307315,7.228046,7.807923,-0.845291
1000.746094,2.051409,7.782842,0.491046,-2.998435
1000.750000,4.345199,-7.718545,2.994878,-1.185173
1000.753906,0.333057,-4.601036,-0.480826,-6.053537
1000.757812,-13.984486,-5.685618,-1.622068,-5.962712
1000.761719,-11.582535,-1.863886,-9.348493,-9.231960
1000.765625,-10.309472,-15.694344,-7.961147,-5.353089
1000.769531,-14.454806,-9.812478,-12.223650,-4.751931
1000.773438,-7.842021,-12.586470,-7.913515,-9.685921
1000.777344,-4.378089,-0.824866,-10.512712,-12.492040
1000.781250,-9.420738,-15.630310,-2.455407,-4.815446
1000.785156,-9.382223,-6.195796,-12.765397,-8.128791
1000.789062,-4.675279,-11.752066,-10.172365,-12.523445
1000.792969,-14.299757,-5.678164,-11.658398,-7.453718
1000.796875,-1.852486,0.192851,-1.096087,0.325213
1000.800781,-2.015792,8.599700,0.371812,-1.070298
1000.804688,1.954944,8.003835,4.233312,8.339078
1000.808594,-1.007989,1.117978,5.275764,2.543228
1000.812500,11.584173,8.763763,10.019993,9.176553
1000.816406,10.182673,12.859981,11.934475,15.810638
1000.820312,8.109885,9.973037,14.675704,12.409885
1000.824219,12.267597,12.684198,9.443113,12.777411
1000.828125,13.269458,7.561663,13.778795,14.079503
1000.832031,6.593929,16.192308,9.497448,12.558831
1000.835938,11.901805,3.639438,5.456458,3.479709
1000.839844,-1.680928,4.752373,-1.070118,5.252009
1000.843750,3.874637,7.817777,5.813216,9.782997
1000.847656,0.950141,1.005216,-2.137839,4.433305
1000.851562,2.040036,2.021081,-1.075988,-1.076664
1000.855469,-3.401735,-0.729582,-5.917001,-3.000595
1000.859375,-12.370155,-7.346484,-9.587030,-7.066580
1000.863281,-4.492274,-10.482056,-9.659319,-9.182352
1000.867188,-11.797321,-9.387994,-10.030814,-13.085361
1000.871094,-9.207176,-12.061318,-9.870875,-13.677525
1000.875000,-7.418196,-3.190640,-23.008429,-7.304353
1000.878906,-7.094804,-13.767684,-16.129265,-9.650169
1000.882812,-7.325169,-10.007550,-10.225162,-10.259467
1000.886719,-8.410133,-9.142991,-9.976483,-7.785404
1000.890625,-3.544107,-3.976944,-11.449715,-3.573458
1000.894531,-5.868168,-7.177156,-3.310580,-6.128734
1000.898438,-10.029554,-8.757527,0.620777,-6.490929
1000.902344,2.630077,-1.863051,0.128594,-0.168572
1000.906250,10.303265,6.325371,-0.676035,4.631888
1000.910156,2.619621,-1.407621,6.935433,2.196942
1000.914062,3.737262,5.415872,7.777451,10.510888
1000.917969,-0.519086,11.304152,6.961127,11.413942
1000.921875,9.768129,9.463524,9.361385,2.086350
1000.925781,11.878735,9.786830,14.653930,9.855109
1000.929688,10.037278,11.416224,6.848921,10.166375
1000.933594,2.791647,10.046261,13.264015,10.759011
1000.937500,9.984779,9.151291,2.328950,8.205053
1000.941406,7.990033,11.373883,2.802493,6.253947
1000.945312,4.677384,-5.125433,1.830800,1.844546
1000.949219,-0.489252,0.698568,3.022475,-8.327234
1000.953125,-0.675315,-4.468913,-1.665584,-0.526608
1000.957031,-0.484194,-8.623699,-6.309424,-5.627501
1000.960938,-6.953907,-2.091248,-8.302790,-1.660335
1000.964844,-7.693802,-7.956245,-18.041544,-12.424489
1000.968750,-5.353846,-11.193770,-4.004496,-10.975069
1000.972656,-4.933318,-11.285426,-12.138370,-10.316476
1000.976562,-9.207127,-12.932893,-7.431479,-10.642167
1000.980469,-3.006500,-6.908141,-12.279142,-4.103771
1000.984375,-8.446847,-10.380735,-8.245013,-11.592968
1000.988281,-3.267786,-9.070715,-15.549443,-6.831834
1000.992188,-3.694668,-8.124485,-7.951229,-4.630841
1000.996094,-1.498723,-8.073044,0.762991,-4.737728
1001.000000,-4.488723,0.386478,1.907236,-0.851411
1001.003906,1.874886,-0.516715,1.056808,7.150920
1001.007812,6.581161,1.737412,0.944329,1.856695
1001.011719,8.470067,7.214961,9.449712,10.491537
1001.015625,12.479053,6.507055,2.091904,11.620876
1001.019531,20.213088,11.625701,14.584375,3.332918
1001.023438,13.126337,9.239215,9.597878,4.685216
1001.027344,3.919930,12.009291,19.241894,5.513795
1001.031250,10.875512,8.639218,3.511611,12.157740
1001.035156,15.237741,17.074809,8.040482,3.976044
1001.039062,13.376441,2.601274,3.732686,7.865303
1001.042969,7.298507,4.918682,-1.306102,8.344568
1001.046875,-0.638028,-2.834842,8.757827,7.397971
1001.050781,-0.740336,-2.430485,7.236469,6.382561
1001.054688,-0.554665,-9.549181,0.812122,-3.200391
1001.058594,-5.930476,-0.205665,-10.412864,2.314143
1001.062500,-9.399189,-13.173202,-2.768932,-10.822399
1001.066406,-9.540002,0.487122,-4.497446,-6.607685
1001.070312,-12.906478,-7.721385,-2.866498,-7.452870
1001.074219,-13.845840,-8.861942,-11.526468,-14.934785
1001.078125,-1.652762,-5.408405,-12.542974,-8.577713
1001.082031,-11.355616,-11.100525,-13.704150,-9.633565
1001.085938,-7.196586,-12.148741,-5.373657,0.873698
1001.089844,-8.416047,-5.925285,-8.027769,-3.501993
1001.093750,-2.972152,-8.788850,-2.065549,-5.600991
1001.097656,-0.885554,-3.679156,-5.299304,3.906810
1001.101562,-4.925890,5.125851,-5.457875,1.943852
1001.105469,-2.085648,1.708911,2.680941,3.644714
1001.109375,-5.460073,8.208307,9.930894,10.131512
1001.113281,9.453054,10.312303,8.255501,4.380705
1001.117188,14.930958,8.873165,14.584944,9.997615
1001.121094,12.803687,10.037177,8.076695,10.346878
1001.125000,8.806609,6.460505,4.592712,9.446883
1001.128906,9.425079,7.542806,7.382138,12.332462
1001.132812,6.617251,11.233005,9.901850,6.352624
1001.136719,4.766445,1.917378,7.258584,8.832493
1001.140625,4.540491,9.981354,5.699600,7.946524
1001.144531,4.564629,3.188013,-1.558879,3.319480
1001.148438,3.610850,-1.864630,11.507149,6.149749
1001.152344,-4.109121,2.695039,6.062634,1.004747
1001.156250,-3.675453,-2.276048,-4.846735,-0.246305
1001.160156,-9.102297,6.820578,-7.922507,-8.665873
1001.164062,-10.265009,-7.689683,-6.701571,-10.617635
1001.167969,-9.823271,-4.849778,-12.060508,-16.706997
1001.171875,-12.318597,-11.085771,-8.306580,-13.153971
1001.175781,-9.513475,-10.718192,-5.493589,-7.346198
1001.179688,-11.917401,-10.715118,-9.601532,-18.963877
1001.183594,-2.865107,-2.989415,-9.151357,-13.199833
1001.187500,-4.391198,-12.055755,-6.878007,-9.914767
1001.191406,-10.760333,-9.404715,-7.620973,-3.315195
1001.195312,-0.805672,5.519709,-9.113432,-0.876926
1001.199219,-4.332468,4.194687,2.208525,3.639715
1001.203125,5.168496,-1.355582,-3.947378,3.380750
1001.207031,0.693676,2.492144,5.382921,2.258331
1001.210938,10.751883,10.210190,5.520903,1.747526
1001.214844,7.276740,3.477537,14.810219,3.624887
1001.218750,16.683312,9.819723,10.207119,10.750414
1001.222656,12.318753,13.234913,8.795659,14.769356
1001.226562,13.857401,15.061255,11.840478,17.787916
1001.230469,10.742148,8.388904,5.868339,8.201092
1001.234375,4.147160,7.010340,1.839550,7.651424
1001.238281,3.505175,4.423561,6.381066,12.766316
1001.242188,1.065725,10.723032,-4.319196,4.813750
1001.246094,8.049190,3.783357,5.198879,5.111193
1001.250000,4.814915,-4.152151,7.412744,-3.933649
1001.253906,-4.285537,-2.692117,1.474854,-5.319670
1001.257812,-3.288552,-12.398654,-2.544246,-4.738958
1001.261719,-3.231108,-13.402042,-6.644493,-9.561812
1001.265625,-5.918990,-12.618411,-3.333249,-7.508528
1001.269531,-15.930599,-6.027433,-12.780699,-10.670842
1001.273438,-15.139333,-6.109284,-10.969029,-7.879927
1001.277344,-11.799543,-10.840731,-9.102618,-0.664294
1001.281250,-6.983657,-10.127547,-0.410060,-6.318398
1001.285156,-8.986582,-5.399446,-12.770261,-15.267503
1001.289062,-7.552328,-10.239614,-8.903365,-5.855296
1001.292969,2.259345,-3.843835,1.494827,2.736746
1001.296875,-7.632135,0.242035,-9.126581,-7.885713
1001.300781,0.862885,3.561767,-2.338388,1.002115
1001.304688,1.927712,6.930483,9.350051,-0.145895
1001.308594,-0.270756,1.830352,6.137693,4.463872
1001.312500,6.383631,5.007961,9.913636,8.592075
1001.316406,3.782828,9.094069,9.566964,11.224085
1001.320312,7.971996,15.063243,12.657078,9.521456
1001.324219,16.825717,8.395228,10.785600,15.269971
1001.328125,9.820018,12.261926,11.655198,11.601948
1001.332031,15.424368,10.513776,10.789088,14.127660
1001.335938,9.933881,3.506079,9.569990,6.056233
1001.339844,0.521663,8.448234,3.381693,7.291846
1001.343750,6.997592,12.049905,3.960153,0.676183
1001.347656,-4.941899,-0.605341,1.996944,-5.221083
1001.351562,-7.228189,0.311860,-6.255471,1.912204
1001.355469,-1.367829,-4.503950,-1.701050,-7.582491
1001.359375,-10.287551,-4.914188,-6.804652,-0.264075
1001.363281,-4.264634,-2.426279,-6.946195,-3.926194
1001.367188,-13.101596,-2.953444,-5.138595,-8.308581
1001.371094,-1.344336,-17.654680,-14.997463,-5.375950
1001.375000,-8.730579,-12.632905,-17.629650,-10.096609
1001.378906,-9.454712,-7.111940,-10.926876,-12.439762
1001.382812,-10.854208,-9.847261,-11.224770,-12.586124
1001.386719,0.032036,-11.461335,-12.990337,1.082661
1001.390625,-1.462408,-2.368485,3.942481,-2.410259
1001.394531,3.491791,-5.662237,-2.872473,-4.483650
1001.398438,6.736796,-3.265074,-2.851130,0.457544
1001.402344,2.690269,6.532578,4.337465,7.006209
1001.406250,10.542963,5.153547,4.214800,4.083046
1001.410156,2.250083,0.454463,0.372620,2.258266
1001.414062,6.513509,12.049586,7.670557,7.511809
1001.417969,8.180377,10.011687,0.563428,12.991024
1001.421875,1.833873,7.788766,16.183743,4.960001
1001.425781,7.164763,11.141733,12.077924,13.123049
1001.429688,8.509117,8.079507,12.294714,14.488910
1001.433594,15.479163,15.436685,10.460366,9.834448
1001.437500,6.221333,12.831152,19.850752,0.487297
1001.441406,7.983279,2.722657,0.570156,3.404923
1001.445312,4.118471,-2.276950,4.987255,-0.434119
1001.449219,2.064580,0.926229,-6.019098,4.385261
1001.453125,5.917794,3.157042,-4.021325,-0.167204
1001.457031,-3.889269,-9.674448,-10.377981,-4.161460
1001.460938,-5.538367,-8.250780,-5.878059,-2.921629
1001.464844,-10.439168,-0.273144,-5.586536,-10.924805
1001.468750,-10.299089,-9.777028,-8.582549,-10.144493
1001.472656,-13.888808,-15.112846,-11.855980,-5.334528
1001.476562,-10.146487,-5.266091,-11.172841,-4.898775
1001.480469,-5.842706,-11.431238,-4.957051,-10.937817
1001.484375,-5.597917,-3.666030,-7.268641,-0.995471
1001.488281,-8.737412,-6.193194,-11.629948,-5.978023
1001.492188,-6.488846,-5.685640,-5.322150,-7.762033
1001.496094,-5.118584,-6.074096,3.291461,4.668997
1001.500000,-1.172740,2.255849,9.391087,-0.020661
1001.503906,0.185543,-1.431130,4.385955,2.499549
1001.507812,1.950320,5.426723,-2.465718,7.887141
1001.511719,9.857987,0.134439,12.125025,8.496619
1001.515625,6.335622,11.880180,10.745697,8.663376
1001.519531,13.428271,4.443265,6.478508,8.773792
1001.523438,14.717554,8.179611,8.687073,14.755357
1001.527344,10.214448,12.397049,4.527754,5.136521
1001.531250,7.265862,7.024795,14.423697,15.365911
1001.535156,6.420626,-1.384182,6.007779,10.383201
1001.539062,6.954138,5.190754,4.013995,8.316062
1001.542969,5.089906,7.822676,7.623023,-5.352957
1001.546875,6.557828,-2.157499,-0.082869,6.865992
1001.550781,6.514268,-2.828939,3.540989,-1.917315
1001.554688,0.140443,-5.018411,-7.251426,-4.602060
1001.558594,-6.650284,-4.858172,-4.322988,-3.051125
1001.562500,-1.468699,-7.084149,-3.459275,-8.973422
1001.566406,-12.725687,-6.387303,-13.835312,-24.818907
1001.570312,-11.243862,-6.415932,-6.712086,-15.374683
1001.574219,-10.567852,-10.191691,-16.255789,-9.292426
1001.578125,-8.187985,-13.468247,-7.715742,-5.634056
1001.582031,-11.049690,-7.864075,-7.705223,-10.511840
1001.585938,-3.488898,-7.186865,-13.437877,-10.186969
1001.589844,-9.312184,-11.674135,-3.522605,-2.505881
1001.593750,-6.260783,-4.622387,2.520468,-3.769124
1001.597656,0.162615,2.159180,-6.455748,-2.710120
1001.601562,3.575774,4.036589,0.010605,5.366807
1001.605469,6.837645,6.061327,0.201283,-0.567054
1001.609375,6.175368,-0.006856,9.977202,7.822419
1001.613281,8.475348,14.102383,14.053486,5.382204
1001.617188,8.079499,5.744718,9.405579,11.308412
1001.621094,13.781025,18.078662,12.679389,9.569257
1001.625000,8.704048,4.425390,11.463606,5.365796
1001.628906,3.754516,6.943803,6.676365,10.059254
1001.632812,3.598609,13.947246,13.439707,11.752105
1001.636719,4.456303,5.743316,13.118472,2.540355
1001.640625,2.813167,13.095513,2.528200,-0.475955
1001.644531,5.166310,1.984363,1.843361,1.920793
1001.648438,-2.446171,3.660571,2.089143,0.008978
1001.652344,9.556958,-5.114474,-3.938071,-6.167908
1001.656250,3.196304,1.289420,-4.481800,-10.710638
1001.660156,-8.487713,5.159873,-7.507940,-3.651339
1001.664062,-7.373523,-6.484515,-5.745295,-14.055585
1001.667969,-7.351923,0.115033,-9.009251,-11.777679
1001.671875,-10.815637,-9.112383,-7.510542,-8.615525
1001.675781,-7.172951,-13.893756,-8.108500,-14.238151
1001.679688,-3.947915,-10.086556,-1.797802,-9.385843
1001.683594,-8.321594,-0.526866,-9.478143,-5.075791
1001.687500,-16.062268,-13.971916,-3.380289,-1.638619
1001.691406,-7.460728,-14.219096,0.931969,-8.701649
1001.695312,-10.942878,1.547801,-4.877490,2.314219
1001.699219,-2.992683,-2.043252,-4.352199,-0.702186
1001.703125,6.519186,-2.307475,3.581464,-3.783676
1001.707031,6.553944,5.589388,6.298082,6.537658
1001.710938,11.569718,2.262323,8.279931,5.115348
1001.714844,2.502008,11.529729,0.564267,4.808068
1001.718750,7.995797,4.742210,9.708285,7.757913
1001.722656,8.948975,4.683278,9.894069,14.959763
1001.726562,19.129878,12.396297,5.054160,3.502054
1001.730469,6.352236,8.546112,12.907180,-2.851259
1001.734375,4.341355,11.603357,3.532145,9.282637
1001.738281,8.654786,11.099164,3.186890,7.819553
1001.742188,2.842042,8.280660,0.420866,14.020220
1001.746094,5.148722,6.931533,-8.599247,6.148282
1001.750000,-0.139893,-2.608437,8.019227,-0.121333
1001.753906,-5.151531,-2.155405,-1.704905,-2.053919
1001.757812,-0.214563,-7.204249,-5.265373,-5.984024
1001.761719,-6.148251,-2.783114,-10.299356,-7.495241
1001.765625,-10.446214,-2.216695,-9.629448,-6.626693
1001.769531,-7.808015,-3.943903,-3.657779,-10.006818
1001.773438,-16.476195,-11.426160,-8.333743,-6.305428
1001.777344,-10.907541,-9.988647,-10.345239,-7.821298
1001.781250,-14.187174,-12.701236,-1.823276,-8.806040
1001.785156,-0.295194,2.623449,-7.755193,-8.839384
1001.789062,-4.346434,-6.969893,-5.679353,-5.449245
1001.792969,2.148212,-0.022166,1.236588,-4.030788
1001.796875,0.928817,0.583552,-1.315624,3.889434
1001.800781,-10.991584,-1.702275,1.273660,10.903000
1001.804688,14.104297,0.960844,-1.682887,-0.207158
1001.808594,9.680619,2.356106,6.155986,0.663788
1001.812500,14.262826,9.994424,6.065129,5.249209
1001.816406,5.605916,14.888121,6.237465,10.591802
1001.820312,12.594098,14.986475,2.795420,5.124283
1001.824219,4.827834,7.165919,7.666876,10.342057
1001.828125,8.888840,3.430193,5.581284,9.081311
1001.832031,16.276864,10.526649,5.507800,0.362480
1001.835938,5.583138,3.596180,4.844035,1.854559
1001.839844,3.568424,-8.101845,3.222323,4.784188
1001.843750,5.410103,7.733470,3.357559,2.054154
1001.847656,2.331209,4.658883,-3.519979,1.016288
1001.851562,-5.530047,-7.629635,-3.562582,4.966120
1001.855469,-1.596485,-5.709079,-3.654683,-7.036657
1001.859375,-5.690364,-12.810034,-7.847491,-7.743213
1001.863281,-9.883978,-1.184296,-1.222054,-10.240022
1001.867188,-10.796914,-3.167713,-10.732120,-12.056252
1001.871094,-12.143082,-11.767257,-5.601551,-10.305259
1001.875000,-10.657220,-11.810313,-7.643240,-12.013698
1001.878906,-4.564487,-2.461131,-4.302368,-6.350902
1001.882812,-10.815046,-11.520431,-10.884752,-8.776659
1001.886719,-4.975478,-7.232999,-7.356895,-5.895962
1001.890625,-3.490906,-8.170198,-3.988647,-5.439376
1001.894531,-6.704054,-7.347353,-0.145656,-3.821105
1001.898438,-9.214595,-0.305453,-0.565584,1.854921
1001.902344,5.137288,5.273971,6.063477,-1.433106
1001.906250,0.899312,-0.537077,6.235066,0.942271
1001.910156,10.299764,4.808426,4.608462,4.143170
1001.914062,10.368991,12.970750,3.706059,5.264231
1001.917969,8.711551,16.788204,8.006783,7.590169
1001.921875,9.525438,4.761250,4.898543,10.663768
1001.925781,11.294178,4.980051,9.172748,9.385334
1001.929688,2.660740,18.812284,8.911270,16.163473
1001.933594,6.660166,3.776302,11.095034,14.544306
1001.937500,-0.159345,11.553619,11.297604,0.347803
1001.941406,6.089784,3.488149,3.452119,11.078102
1001.945312,-8.660321,1.527030,8.603018,0.532168
1001.949219,-0.540519,0.622554,3.502119,4.968378
1001.953125,-2.834514,0.566844,-0.353731,0.423558
1001.957031,-3.033158,-8.040009,0.019310,-7.268245
1001.960938,-2.327698,-5.515686,-5.770909,-4.868021
1001.964844,-6.998003,-6.250797,-15.023980,-9.766051
1001.968750,-11.081075,-10.710037,-6.201598,-10.813607
1001.972656,-11.993062,-9.583264,-9.401900,-4.082421
1001.976562,-5.933866,-7.608373,-3.022340,-13.363858
1001.980469,-13.311766,-8.975637,-11.334991,-7.755520
1001.984375,-12.352155,-2.220033,-2.480775,-5.333393
1001.988281,-5.378460,-6.407487,-3.354153,-9.239824
1001.992188,-2.426933,-7.924239,-7.424184,-4.313884
1001.996094,5.137352,-8.969685,-11.008284,-1.097399
1002.000000,2.103418,-0.634909,-0.680191,-2.193263
1002.003906,-0.062869,6.178567,5.692527,9.858357
1002.007812,7.480283,-2.354059,-1.030083,-2.735523
1002.011719,15.338219,-2.027224,11.445685,12.960336
1002.015625,2.077608,4.317996,8.371000,9.552727
1002.019531,17.655597,14.043799,10.745766,15.011933
1002.023438,10.475765,15.416246,14.172883,4.764888
1002.027344,4.995180,6.956745,11.907441,8.698925
1002.031250,9.332039,10.821305,1.432447,9.172226
1002.035156,10.080028,9.011349,11.106306,10.726576
1002.039062,7.415203,8.988836,12.778400,9.013587
1002.042969,6.992463,10.016716,3.115095,0.133886
1002.046875,1.333907,2.552345,6.209443,-4.864070
1002.050781,-2.944659,-0.333317,1.777235,2.721458
1002.054688,0.198433,-9.542763,-1.399208,-13.947798
1002.058594,-5.891412,-4.792248,-10.119315,-4.173040
1002.062500,-3.009335,-5.038416,-11.604430,-2.810075
1002.066406,-6.130358,-8.536261,-7.539310,-11.138532
1002.070312,-13.015090,-9.006997,-0.030491,-8.893956
1002.074219,-9.214474,-11.977191,-8.141819,-15.343975
1002.078125,-8.677960,-9.706023,-4.606835,-6.090218
1002.082031,-4.174365,-4.487110,-14.636167,-11.379356
1002.085938,-10.395944,-10.426563,-10.844591,-4.594818
1002.089844,-8.468144,-11.649935,-7.854620,-12.483719
1002.093750,-3.782115,-9.273231,-2.764661,-4.372345
1002.097656,2.621815,3.498075,-4.883166,-3.243482
1002.101562,-1.351476,2.540599,-2.809553,-3.996709
1002.105469,8.843141,0.200341,3.682942,12.697741
1002.109375,3.330621,4.015509,12.661979,1.017105
1002.113281,11.285101,8.021195,7.852623,6.075827
1002.117188,9.028827,3.571865,3.323277,11.148719
1002.121094,11.050481,6.154931,10.234216,10.160553
1002.125000,15.811458,5.188899,4.019732,8.742548
1002.128906,4.596073,10.762867,18.008208,10.332649
1002.132812,10.114671,7.905970,10.498681,15.380726
1002.136719,7.807830,7.545365,8.080104,1.674884
1002.140625,4.903350,-1.685370,15.545282,7.622377
1002.144531,-1.287291,3.656067,12.362673,9.548868
1002.148438,3.346209,0.565921,-4.415003,3.664523
1002.152344,-4.238154,-8.065889,1.191348,-4.851373
1002.156250,-4.646065,-9.080147,-4.350877,-4.864553
1002.160156,-8.982022,-2.920433,-1.665114,-7.658232
1002.164062,-11.371476,3.538973,-2.272295,-5.135482
1002.167969,-13.435741,-9.117441,-5.745648,-11.465867
1002.171875,-10.586067,-7.801273,-3.983023,-8.611695
1002.175781,-5.270113,-13.979383,-17.094137,3.089889
1002.179688,-10.448866,-6.513307,-11.925958,-8.357025
1002.183594,-4.109541,-15.207212,-8.088971,-4.941257
1002.187500,-3.137353,-4.474640,-7.630918,-4.770184
1002.191406,-6.095786,-9.696092,-8.112760,-0.131263
1002.195312,-4.106544,-3.494849,0.023101,0.287148
1002.199219,-0.621626,-1.736931,-1.552884,2.210432
1002.203125,6.014956,3.393036,0.543906,1.598802
1002.207031,6.742508,2.395324,3.837723,1.695422
1002.210938,9.259492,9.061521,4.169675,11.075045
1002.214844,8.660468,14.393746,9.700077,1.773045
1002.218750,6.771394,11.363653,5.039594,6.694325
1002.222656,7.670423,8.624535,4.114958,7.494924
1002.226562,18.535580,6.735877,10.087719,14.672530
1002.230469,5.691664,15.334470,4.322047,3.159404
1002.234375,9.344748,-1.941187,10.964188,8.821111
1002.238281,2.684183,9.617294,2.527658,5.585708
1002.242188,1.937769,11.443698,4.051984,0.667368
1002.246094,1.426787,5.481956,6.711096,3.085148
1002.250000,1.318771,-2.830384,0.958793,3.201282
1002.253906,2.719509,-6.191771,-4.034730,-3.071428
1002.257812,-13.398410,-2.935803,-12.942180,-6.185331
1002.261719,-7.361616,-6.651031,-12.153208,-4.069135
1002.265625,-7.134384,-6.595503,-5.667749,-7.179020
1002.269531,-8.736539,-9.038152,-5.820798,-4.483853
1002.273438,-11.502265,-13.355180,-17.858367,-10.808265
1002.277344,-7.253637,-0.985509,-8.279773,-14.346096
1002.281250,-4.815364,-7.502416,-6.346203,-9.057262
1002.285156,-9.994074,-14.268978,-13.761581,-5.514526
1002.289062,-6.020517,-2.917727,-4.036804,-2.965883
1002.292969,-8.475610,-5.843369,-3.011766,-6.145165
1002.296875,-7.837296,0.749998,-6.382577,-1.081947
1002.300781,2.707228,-1.865715,-1.886207,-8.755573
1002.304688,2.360578,12.076307,3.493203,-2.027290
1002.308594,10.697112,7.734583,6.443705,11.923011
1002.312500,9.749546,8.416725,12.086784,10.692597
1002.316406,8.470042,14.470914,9.152342,11.785117
1002.320312,6.778078,6.172029,13.690812,12.378189
1002.324219,7.771893,7.495701,7.382094,22.023127
1002.328125,10.354208,7.147424,3.051579,12.802122
1002.332031,10.419840,15.509305,13.563914,12.145046
1002.335938,4.812344,9.208915,11.669426,7.006386
1002.339844,9.048005,1.852774,3.924227,9.415827
1002.343750,4.642689,6.071163,10.775108,12.873664
1002.347656,0.925791,9.762621,7.343794,5.024407
1002.351562,-5.809856,-1.404082,-10.143823,-4.136571
1002.355469,-5.283475,-3.983826,-3.354381,-6.529803
1002.359375,-5.741171,-6.207108,-10.590775,-4.394567
1002.363281,-12.892130,-4.390572,-3.326326,-12.839698
1002.367188,-7.942333,-11.687226,-10.189107,-7.433865
1002.371094,-6.978097,-6.680067,-8.415892,-11.435303
1002.375000,-12.550472,-4.590898,-11.007337,-11.318342
1002.378906,-0.029966,-10.284944,-12.188346,-11.420645
1002.382812,-12.888977,-6.717922,-3.957250,-7.288159
1002.386719,-5.198583,-5.501049,-9.668496,-7.539642
1002.390625,-0.091920,-6.633041,-13.709845,-10.636805
1002.394531,-1.876549,0.969344,-11.174487,-0.070600
1002.398438,2.163947,1.860292,-0.012939,-0.597543
1002.402344,6.637287,0.435657,2.279777,4.077365
1002.406250,9.419861,-1.120555,1.931220,3.330694
1002.410156,5.971148,8.505291,-2.350433,10.243215
1002.414062,1.757318,8.827448,3.850431,13.655489
1002.417969,5.637884,13.188961,11.186119,10.065328
1002.421875,12.494979,7.913972,17.233178,9.669075
1002.425781,7.858316,10.648495,13.038222,18.003197
1002.429688,8.216540,5.416211,10.053178,1.181857
1002.433594,10.011135,1.210511,1.092916,8.352393
1002.437500,9.575882,8.358224,7.092033,6.787099
1002.441406,8.308219,4.990730,11.498458,2.743230
1002.445312,6.569768,0.832180,9.289038,0.354209
1002.449219,-9.747982,3.296608,3.338871,12.395656
1002.453125,-1.798962,-5.068692,-1.171315,0.920299
1002.457031,2.439142,-6.566306,-8.745539,-0.599020
1002.460938,-3.957237,-8.747086,-8.920331,-7.189385
1002.464844,-8.415368,-9.846472,-10.931547,-5.393793
1002.468750,-10.175392,-5.319990,-9.796605,-7.189391
1002.472656,-4.459531,-7.505257,-13.524218,-11.020577
1002.476562,-2.706991,-7.135403,-8.666311,-10.440090
1002.480469,-4.152571,-12.243034,-6.709379,-14.965796
1002.484375,-6.378797,-8.463128,-11.260037,-5.629684
1002.488281,-7.105441,-9.105807,-3.029202,-3.133233
1002.492188,-3.327553,-2.853547,-7.057519,-5.116084
1002.496094,-0.843161,-5.999192,-4.270697,3.916447
1002.500000,6.530084,-1.504694,-5.530303,-5.607695
1002.503906,9.742693,9.480279,4.628129,-0.944739
1002.507812,-1.877488,5.091629,6.463943,10.848331
1002.511719,7.925080,7.411847,6.181406,4.295764
1002.515625,-1.361870,4.127558,8.553312,6.101691
1002.519531,8.125511,11.980688,10.431395,9.174272
1002.523438,13.121320,6.857564,13.510452,10.681932
1002.527344,7.871450,11.524232,6.304698,5.439103
1002.531250,14.991983,13.658791,9.759547,7.905181
1002.535156,6.348116,13.885385,10.122544,2.270370
1002.539062,4.684201,8.561179,2.478265,11.370610
1002.542969,4.575270,8.036875,6.863993,7.804952
1002.546875,2.094240,1.146077,3.521384,4.519500
1002.550781,-5.237399,-4.720214,3.061538,-10.574590
1002.554688,0.249223,-5.829575,-4.419691,-3.902524
1002.558594,-8.546067,-5.527891,-4.903035,-6.552552
1002.562500,-8.267434,-3.957938,-7.849373,-4.066893
1002.566406,-8.691477,-9.470319,-6.280858,-5.370889
1002.570312,-6.907572,-9.282337,-7.831551,-8.080206
1002.574219,-14.277155,-6.573280,-13.453142,-11.504699
1002.578125,-9.211666,-8.926860,-17.169807,-10.970370
1002.582031,-4.190360,-7.742647,-14.733037,-14.455530
1002.585938,-5.507903,-5.875883,-6.865381,-10.423385
1002.589844,-9.694940,-5.066436,-4.605590,-4.153600
1002.593750,-7.720349,2.927596,2.084558,-12.629986
1002.597656,-0.243933,0.001508,-1.593154,-3.606674
1002.601562,-0.471265,3.517417,3.215120,-6.247877
1002.605469,3.657410,1.641413,2.468932,3.510712
1002.609375,13.053941,9.752364,6.314089,13.749336
1002.613281,-0.287124,11.042460,14.954180,6.180358
1002.617188,10.042788,6.226048,7.546803,8.298086
1002.621094,10.530760,19.175675,15.611299,3.268561
1002.625000,4.857413,11.650016,5.003758,9.073586
1002.628906,10.179443,5.580654,3.192937,12.970464
1002.632812,7.781374,13.711518,4.756056,9.132923
1002.636719,4.629830,9.986377,6.048832,6.721457
1002.640625,0.094120,15.746693,2.346073,7.962648
1002.644531,-1.751202,0.221724,8.960690,1.027205
1002.648438,-1.915806,3.003110,-8.133812,-2.654416
1002.652344,-3.338828,-2.990308,-1.500994,-8.157625
1002.656250,2.814180,0.862419,-2.252253,2.298148
1002.660156,-3.498213,-4.597771,-9.986904,-3.036132
1002.664062,-7.447548,-2.073157,-9.803488,-8.765404
1002.667969,-6.262583,-6.393421,-7.461131,-18.038639
1002.671875,-9.293993,2.384098,-7.305294,-5.369197
1002.675781,-10.154322,-13.374245,-6.300282,-11.338376
1002.679688,-6.958511,-11.318710,-8.789910,-12.279589
1002.683594,-4.818342,-10.615924,-6.464705,-4.398782
1002.687500,-3.455779,-7.184456,-4.163662,-11.418662
1002.691406,-4.562645,-3.725810,-7.672239,-6.995139
1002.695312,-7.948525,0.656700,-3.204234,-1.686812
1002.699219,-4.984350,6.303775,1.203303,-2.774896
1002.703125,6.850494,1.810753,3.387946,2.401686
1002.707031,1.812549,5.781346,2.540839,0.433900
1002.710938,8.380076,-1.848241,15.602775,2.809436
1002.714844,12.633813,6.754716,7.488354,14.393024
1002.718750,19.434190,12.739171,15.614935,8.848740
1002.722656,14.231338,12.301456,13.679430,13.858802
1002.726562,3.743299,14.931868,6.413702,10.198017
1002.730469,13.509233,10.422856,14.143380,7.398624
1002.734375,6.845170,8.419645,8.929385,9.529106
1002.738281,2.060158,7.107190,5.105857,18.259578
1002.742188,7.257128,0.724062,4.427170,2.335427
1002.746094,6.864960,9.792155,-0.240115,-0.133513
1002.750000,-4.258600,0.685812,-0.131778,1.948024
1002.753906,-8.316822,4.104958,-6.771916,-4.516290
1002.757812,-4.199956,-2.186358,0.456800,-1.191560
1002.761719,-10.082800,-5.587506,-8.080998,-6.132038
1002.765625,-4.638352,-5.528853,-2.308867,-13.597066
1002.769531,-11.517651,-13.827265,-12.633355,-8.581299
1002.773438,-17.554536,-7.289606,-20.059849,-13.042346
1002.777344,-11.947596,-4.465012,-15.138913,-5.194181
1002.781250,-6.102319,-13.218036,-7.481509,-4.357080
1002.785156,-1.905263,-12.542383,-5.005877,-9.527605
1002.789062,-0.093102,-3.890148,-6.059910,-8.866593
1002.792969,-9.664676,-6.601413,-3.638966,-0.418612
1002.796875,2.111134,5.325912,-1.626082,-8.113239
1002.800781,1.828332,0.000044,4.990727,-5.167277
1002.804688,-10.295977,4.036532,-2.191106,0.741637
1002.808594,10.790756,10.413111,9.778928,7.889610
1002.812500,1.301719,3.472852,5.445284,14.695575
1002.816406,9.212102,14.781830,8.494754,7.625086
1002.820312,15.293783,8.790820,12.761627,8.514773
1002.824219,9.123319,9.713284,12.053084,11.280569
1002.828125,12.896302,5.639223,8.515026,4.110414
1002.832031,8.726269,7.822116,11.519570,5.989416
1002.835938,13.689634,8.909874,10.902164,7.733347
1002.839844,9.201651,9.362217,4.625915,2.022382
1002.843750,-2.905529,3.616270,5.175744,0.688517
1002.847656,6.428950,6.751445,8.639733,-5.342513
1002.851562,5.019092,-2.501256,2.516239,4.395645
1002.855469,-9.035871,-10.150486,-4.407141,-7.843294
1002.859375,-3.265793,-4.713911,-7.058993,-13.266685
1002.863281,-11.403090,-7.491481,-7.271438,-6.654823
1002.867188,-7.409355,-8.413364,-5.779140,-11.443917
1002.871094,-9.974085,-9.392028,-4.302331,-10.963788
1002.875000,-4.205104,-10.044592,-10.012083,-5.973708
1002.878906,-10.308739,-19.830815,-12.727694,-3.178704
1002.882812,-7.927548,-11.128959,-5.200511,-9.530074
1002.886719,-10.039371,-6.178821,-14.426915,-6.140187
1002.890625,-10.299259,-5.410458,-5.962575,-13.255962
1002.894531,-9.136595,-6.434822,0.161685,2.520530
1002.898438,4.931912,-5.148323,0.025585,1.436847
1002.902344,4.558919,1.498378,-0.538464,10.094080
1002.906250,2.602151,5.639484,1.862464,2.692073
1002.910156,11.813613,1.305400,5.221791,15.923680
1002.914062,14.469861,11.875068,9.627353,10.953214
1002.917969,12.417458,7.228998,9.661591,18.438262
1002.921875,10.640839,8.633986,7.819220,4.599398
1002.925781,5.212038,13.510594,9.178236,7.925530
1002.929688,19.295179,8.201428,7.562443,14.367112
1002.933594,2.893119,7.660934,6.096235,7.933885
1002.937500,9.372293,4.623178,9.715111,4.590808
1002.941406,13.999232,4.243605,4.946113,8.134660
1002.945312,2.983656,2.279853,0.596508,0.447572
1002.949219,0.581448,8.279227,1.251998,4.274978
1002.953125,-5.792745,0.618038,-4.012892,3.546857
1002.957031,0.813369,-5.622390,-7.226990,-5.152603
1002.960938,-8.098867,-3.796263,-8.750732,-5.217364
1002.964844,-4.004719,-7.427823,-11.017583,-2.606559
1002.968750,-10.080497,-6.789258,-10.026068,-6.503539
1002.972656,-1.970999,-2.772223,-11.316524,-12.812929
1002.976562,-10.344025,-14.851290,-5.286147,-9.688382
1002.980469,-5.310851,-4.750571,-12.360375,-13.087593
1002.984375,-7.376302,-7.107840,-6.164162,-0.875641
1002.988281,-7.109577,-4.919310,-0.552225,-9.096853
1002.992188,-8.183805,1.198589,-7.560971,-1.134664
1002.996094,1.396758,-0.054182,-5.747682,1.660392
1003.000000,1.749943,1.980175,0.556381,-3.724323
1003.003906,3.098417,-0.101600,1.566207,-5.996018
1003.007812,1.844770,9.713497,-0.391609,10.027271
1003.011719,3.393325,1.209597,8.282736,6.743683
1003.015625,7.517952,11.412103,3.242310,10.666700
1003.019531,5.892469,12.919279,11.795825,17.373069
1003.023438,5.258665,13.323545,9.831758,12.304759
1003.027344,0.972739,11.400413,15.495807,5.099426
1003.031250,9.336006,5.550960,6.406209,8.083325
1003.035156,2.153174,8.462346,6.374094,5.168742
1003.039062,4.913592,6.326339,4.141627,1.807283
1003.042969,5.184416,0.806809,4.051309,4.437058
1003.046875,3.125260,2.011680,-3.093581,10.952659
1003.050781,0.913746,-1.127911,4.717147,-6.810436
1003.054688,-4.828908,-1.177040,-2.651332,-0.592608
1003.058594,-2.763298,-2.535318,-12.259672,2.311458
1003.062500,-6.424717,-4.210177,-13.121473,-9.100568
1003.066406,-8.873225,-4.848673,-2.907656,-6.172041
1003.070312,-12.666390,-11.348173,-9.492980,-3.379507
1003.074219,-10.968695,-18.320893,-7.226426,-12.945914
1003.078125,-12.768943,-6.626923,-12.915407,-6.631008
1003.082031,-13.658079,-15.941558,-9.583463,-16.168334
1003.085938,-7.510691,-3.763755,-5.757069,-7.883493
1003.089844,-0.140460,-9.342757,-0.322892,-3.029423
1003.093750,-1.440287,-6.642893,-6.130298,-12.390926
1003.097656,-4.547985,-5.395363,-0.501307,-0.652818
1003.101562,2.833563,-2.704090,0.114459,2.487420
1003.105469,8.605752,2.682450,16.104431,6.141188
1003.109375,10.259870,3.317638,7.539241,8.515339
1003.113281,10.522888,2.860492,6.979712,9.037178
1003.117188,5.057185,13.386612,-1.896096,3.791010
1003.121094,15.021264,9.950724,15.655856,8.797498
1003.125000,14.191277,8.014991,7.674031,15.752426
1003.128906,8.908678,10.262016,11.058298,12.163036
1003.132812,7.290407,11.524105,6.902323,6.832680
1003.136719,17.396612,12.870168,0.560329,9.554139
1003.140625,8.168522,6.083578,9.977173,5.035211
1003.144531,6.945687,3.806435,6.132979,0.829648
1003.148438,2.817386,3.617951,0.339916,-3.878849
1003.152344,-7.465427,7.910082,3.501934,-3.233568
1003.156250,-1.544519,-2.621799,-11.780118,-10.590690
1003.160156,-10.780690,-4.073797,-3.703647,-2.099589
1003.164062,-5.050016,-0.160731,-7.599857,-12.628815
1003.167969,-14.969243,-4.512106,-15.626850,-3.888631
1003.171875,-17.710604,-6.431914,-16.038652,-6.799235
1003.175781,-13.707701,-12.576509,-6.043488,-9.304251
1003.179688,-7.637002,-19.025971,-11.559668,-7.611751
1003.183594,-10.268220,-12.475499,-16.203425,-4.632872
1003.187500,-9.116034,-0.541133,-3.716034,-3.517475
1003.191406,-3.912803,-7.841221,-3.659228,-10.067331
1003.195312,-7.268993,-3.723822,-1.741093,-8.575525
1003.199219,0.654515,-2.613319,2.371521,-13.372556
1003.203125,-3.826073,5.423007,5.842352,-1.179405
1003.207031,7.706604,9.120082,-2.281041,4.472083
1003.210938,14.537238,10.629735,13.437388,8.448039
1003.214844,0.589118,2.415990,13.689468,4.910174
1003.218750,20.548261,1.207138,6.962998,10.454207
1003.222656,15.595570,6.293953,11.473617,1.994588
1003.226562,11.629246,8.938027,14.164143,8.707892
1003.230469,11.408860,12.058692,6.162679,1.723321
1003.234375,13.472272,4.732146,11.427453,11.424503
1003.238281,-3.356662,6.573998,11.906359,5.196670
1003.242188,-3.245482,7.485725,0.450614,9.224159
1003.246094,-4.617152,8.587109,4.564890,5.511804
1003.250000,1.243859,1.871099,-1.935945,-2.715541
1003.253906,4.684380,-8.193093,-4.065715,2.605735
1003.257812,-5.443149,-3.199286,-1.282044,-4.225102
1003.261719,-4.634088,-7.418378,-9.837838,-6.104406
1003.265625,-0.296599,-5.583702,-4.117636,-5.546640
1003.269531,-9.391221,-4.684173,-10.029857,-3.837664
1003.273438,-1.939318,-15.042000,-13.863168,-7.392275
1003.277344,-8.959454,-15.314827,-9.300701,-10.444692
1003.281250,-14.369504,-10.931156,-4.987990,-7.355309
1003.285156,-10.104255,-9.645929,-5.947453,-6.671551
1003.289062,-7.944463,-1.783918,-5.973043,-10.275694
1003.292969,4.349322,-0.518509,-6.039786,-1.508731
1003.296875,0.618767,-7.238690,2.078779,1.225757
1003.300781,-0.955604,-1.443046,5.596502,-7.124790
1003.304688,3.203059,-0.958504,5.899798,-0.010407
1003.308594,2.278696,-0.236345,-6.405531,0.084504
1003.312500,14.130922,3.968906,-1.514206,6.207851
1003.316406,9.732031,4.992023,7.370054,13.141246
1003.320312,10.369336,10.643401,7.697344,11.495713
1003.324219,7.295072,8.456385,2.767965,4.067642
1003.328125,7.291737,3.047283,13.094048,6.930375
1003.332031,10.043142,3.958974,14.691045,8.400095
1003.335938,4.844055,9.500445,11.361207,13.239327
1003.339844,6.387144,9.947268,3.023580,3.821956
1003.343750,5.938827,-0.425779,0.987452,5.497434
1003.347656,-1.690300,3.300111,1.658128,-0.603031
1003.351562,-4.434701,-1.173792,-4.484937,1.978128
1003.355469,0.591289,-4.052933,-3.447795,3.038626
1003.359375,-2.596866,-9.732584,-0.029445,2.917405
1003.363281,-12.461933,-15.998142,-6.093514,-5.636189
1003.367188,-10.167218,-8.749712,-13.331751,-9.962395
1003.371094,-9.308155,-6.619071,-11.811723,-14.659830
1003.375000,-14.417646,-11.437356,-13.404385,-13.216224
1003.378906,-10.418950,-7.736853,-10.974385,-6.137495
1003.382812,-7.338086,-3.391993,-8.973832,-6.007452
1003.386719,-3.457090,-6.087860,-6.378283,-5.335540
1003.390625,-3.897838,-7.527241,-8.971289,-3.720264
1003.394531,-6.766337,-0.346791,-10.740969,-10.071838
1003.398438,1.198437,-1.233806,-2.971335,-3.945323
1003.402344,-3.835558,3.690070,5.816268,4.283087
1003.406250,-0.266824,-1.816342,7.312063,2.717496
1003.410156,5.690825,8.752171,8.476831,3.400735
1003.414062,11.644745,7.243377,-1.585061,4.915067
1003.417969,1.689003,6.373724,9.996062,16.136551
1003.421875,11.486880,9.613179,13.202080,12.397864
1003.425781,3.856128,15.922428,3.344895,11.729633
1003.429688,9.265756,5.525418,8.719669,8.454739
1003.433594,11.006105,5.487266,6.584717,10.607278
1003.437500,8.080734,8.107341,5.710298,9.114201
1003.441406,7.448843,5.838417,5.060130,-0.969032
1003.445312,0.837966,-1.161534,8.011800,5.035492
1003.449219,1.316064,-4.378341,2.779669,-5.066955
1003.453125,-1.351603,-8.859524,-9.666073,-1.309417
1003.457031,-7.186313,-3.351626,1.524236,-7.453710
1003.460938,-10.383111,-9.121540,-1.876485,-6.376388
1003.464844,-8.796690,-2.179568,-10.355748,-15.416481
1003.468750,-4.795664,-2.707275,-3.677685,-9.222475
1003.472656,-11.710657,-11.548971,-11.968816,-10.082776
1003.476562,-2.154776,-9.957619,-7.276007,-2.699333
1003.480469,-3.745461,-17.210499,-10.752716,-11.212038
1003.484375,-10.234065,-8.283724,-8.666288,-4.743730
1003.488281,-10.146691,-8.810702,-4.629399,-9.330420
1003.492188,-3.653677,0.016027,-3.870255,-1.662996
1003.496094,-1.537201,-10.089910,-1.189507,-7.351216
1003.500000,-2.548998,-3.092851,2.848387,-2.924236
1003.503906,3.437507,3.035687,-1.870753,5.286316
1003.507812,2.729751,1.497873,5.214438,1.911795
1003.511719,3.614152,8.458312,4.872656,8.580171
1003.515625,0.743925,13.566445,5.203753,10.589037
1003.519531,9.190995,10.015940,5.391166,2.539060
1003.523438,5.613464,16.712169,9.876090,13.008559
1003.527344,7.152079,6.555050,-0.156021,20.222872
1003.531250,16.033350,5.990408,13.093991,8.542403
1003.535156,3.343888,1.799480,13.395675,2.093937
1003.539062,8.127751,3.511395,-1.844440,4.355178
1003.542969,3.006308,3.379155,4.196044,3.140615
1003.546875,-2.775854,2.239512,0.588117,-2.501780
1003.550781,-1.845867,1.142020,5.244616,-0.096262
1003.554688,1.178252,-0.165661,2.774046,3.826861
1003.558594,-4.364045,-6.332633,-9.964652,-6.828009
1003.562500,-7.269740,-11.943405,-6.131373,-5.647655
1003.566406,-8.805179,-8.393225,-20.611826,-11.086842
1003.570312,-11.177759,-15.641498,-11.862491,-6.788860
1003.574219,-8.263398,-12.554712,-10.075890,-6.399353
1003.578125,-11.785053,-9.033088,-11.853051,-6.880157
1003.582031,-10.954465,-3.647514,-10.796877,-7.552416
1003.585938,-6.504712,-7.257606,-9.372304,-3.674062
1003.589844,-5.387661,-7.704742,-6.085076,-8.203973
1003.593750,-8.315481,-1.542140,-5.593571,-6.792322
1003.597656,-4.928597,-5.587442,3.382088,-9.943143
1003.601562,-1.648035,6.918081,2.551702,0.958039
1003.605469,0.631883,10.185619,-2.989496,-6.583784
1003.609375,10.122513,4.923945,9.169919,1.224508
1003.613281,7.761215,11.279780,13.565354,13.200471
1003.617188,7.307778,8.519941,7.564927,14.389033
1003.621094,4.817239,4.535864,8.267764,2.189920
1003.625000,6.223587,8.319879,0.877257,12.317372
1003.628906,6.784528,17.462579,20.988713,6.444520
1003.632812,10.539859,6.059001,4.549678,15.639352
1003.636719,1.385222,1.461655,5.803619,-0.474238
1003.640625,8.945775,15.825322,5.820868,6.272132
1003.644531,6.601332,4.049484,2.055381,2.938846
1003.648438,2.730196,1.010380,-0.295685,2.944890
1003.652344,-2.188485,-1.759637,-0.775789,-0.592240
1003.656250,-0.322203,-5.463917,-4.665479,-1.577836
1003.660156,-0.026514,-2.867180,-0.986265,-9.971702
1003.664062,-8.357941,-7.106198,-6.739287,-10.629891
1003.667969,-4.025691,-2.378195,-2.131985,-7.275081
1003.671875,-11.567818,-17.931302,-8.153478,-17.709230
1003.675781,-14.623466,-13.711660,-13.831293,-11.357330
1003.679688,-6.402880,-7.956379,-7.856800,-5.101908
1003.683594,-5.289333,-6.207115,-12.651846,-7.160282
1003.687500,-2.919093,1.906423,-2.348379,-6.576467
1003.691406,-4.051435,-0.366593,-3.369407,-2.234392
1003.695312,-9.155449,-6.705439,2.726557,-0.858766
1003.699219,-1.476985,-1.294983,-6.629099,-7.216515
1003.703125,8.049682,-4.216237,4.128843,-2.254509
1003.707031,8.331707,7.458128,3.794933,0.665757
1003.710938,6.418530,14.608391,11.702933,6.833475
1003.714844,5.942556,11.027921,11.102882,8.740466
1003.718750,9.289482,11.238810,9.641753,6.318760
1003.722656,7.082452,14.120043,13.957554,13.179554
1003.726562,11.200580,7.818984,0.919488,16.134712
1003.730469,4.157001,1.084016,10.386423,10.191175
1003.734375,8.876492,9.815480,7.265847,10.777956
1003.738281,2.582090,8.979263,12.305014,11.932297
1003.742188,4.527989,1.008772,11.107290,4.671777
1003.746094,5.061339,-3.348175,-0.865160,0.539178
1003.750000,3.832687,-3.613391,-4.069985,2.282444
1003.753906,-2.875897,-4.573539,-0.483084,-0.208500
1003.757812,4.336916,-4.651829,-5.614741,-5.303863
1003.761719,-4.451269,-1.974096,-10.426884,-8.349008
1003.765625,-1.355360,-7.777132,-9.031916,-9.447207
1003.769531,-14.345356,-6.378102,-5.758023,-8.401126
1003.773438,-11.170497,-4.034077,-14.079007,-10.318382
1003.777344,-7.926450,-5.967368,-12.670482,-16.264271
1003.781250,-12.082355,-4.458739,-10.653156,-12.464502
1003.785156,-4.479956,-6.717910,-8.549022,-9.741192
1003.789062,-0.759030,0.839492,-4.868359,-14.415040
1003.792969,-1.970548,-4.057120,-6.794904,-3.059672
1003.796875,-5.699807,-0.350852,-3.923624,1.851783
1003.800781,-0.841862,1.525389,3.875723,0.682149
1003.804688,6.203886,-0.348055,4.373001,0.231831
1003.808594,3.954777,7.608680,5.111440,7.610526
1003.812500,7.160280,14.669878,1.426295,3.293995
1003.816406,8.889541,11.230823,8.282860,12.464146
1003.820312,11.520191,18.552903,12.955485,5.994918
1003.824219,6.731166,15.906638,7.115665,11.090799
1003.828125,13.171653,13.502465,12.396780,6.472896
1003.832031,6.887926,7.469068,10.593387,3.401415
1003.835938,8.298259,6.294432,2.134008,8.735180
1003.839844,4.793158,7.601288,8.021737,4.790843
1003.843750,6.817720,-7.056647,5.163121,2.885199
1003.847656,4.458700,-2.247833,0.183785,0.189485
1003.851562,-4.993503,3.847790,4.230571,0.519030
1003.855469,-0.625651,-2.582070,0.291824,-2.485246
1003.859375,-3.421103,-0.400080,-9.491155,3.121107
1003.863281,-7.845277,-11.397305,-8.727916,-3.061374
1003.867188,-5.590496,-9.776906,-10.079386,-9.431061
1003.871094,-5.468481,-9.937830,-6.695345,-10.793848
1003.875000,-11.773220,-11.977897,-15.288387,-8.300703
1003.878906,-10.427800,-12.659310,-11.058041,-7.853705
1003.882812,-7.623826,-7.161839,-14.254554,-8.146545
1003.886719,-5.446675,-14.823362,-8.761582,-7.761733
1003.890625,-7.947859,-4.827342,-6.766842,-10.699033
1003.894531,0.780654,-13.279683,-10.698695,-5.948355
1003.898438,-0.799905,-3.058461,1.478277,4.840984
1003.902344,2.445427,-5.570046,4.475333,3.902826
1003.906250,8.042223,16.667839,-0.077638,-0.683347
1003.910156,16.781898,3.294777,0.797214,0.491315
1003.914062,3.433571,5.360851,6.124149,6.675158
1003.917969,8.995569,3.509335,18.954118,11.522420
1003.921875,10.781323,16.148639,14.028591,14.544762
1003.925781,12.858199,8.907641,13.778008,8.023295
1003.929688,7.615714,15.009514,7.661692,5.173948
1003.933594,9.336134,9.258048,12.266424,6.486778
1003.937500,10.520612,9.496662,7.106377,2.910373
1003.941406,-2.461603,4.483731,0.619133,11.975509
1003.945312,2.032829,6.431736,6.127004,-4.162364
1003.949219,3.475402,4.955859,0.974736,1.437745
1003.953125,2.445419,4.593807,2.447727,-1.324821
1003.957031,-6.955611,-9.521870,-8.200562,-7.744659
1003.960938,-9.899546,-6.790565,-3.054951,-4.023695
1003.964844,-7.329899,-6.482140,-12.707879,-13.328417
1003.968750,-9.001477,0.892845,-13.494943,-8.495524
1003.972656,-16.456160,-2.659983,-7.802868,-4.690404
1003.976562,-12.686817,-17.728303,-8.924224,-11.808383
1003.980469,-13.339082,-9.098796,-6.664281,-6.341309
1003.984375,-5.059376,-10.997669,-5.625610,-6.181723
1003.988281,-5.454945,-4.989629,-1.586500,-2.161460
1003.992188,3.074665,-3.800465,-11.023478,-8.347574
1003.996094,3.442085,-1.486210,-3.561032,-4.670078
1004.000000,2.154249,3.076423,-4.368529,-5.383744
1004.003906,-5.388447,3.960309,4.904209,5.460829
1004.007812,5.036284,9.092079,6.170875,4.424084
1004.011719,7.288427,10.365064,9.283279,7.973249
1004.015625,3.869951,10.515839,12.989336,12.371054
1004.019531,18.930283,9.844049,8.437019,13.985048
1004.023438,12.525378,7.465270,9.329677,11.644590
1004.027344,9.234093,4.617505,7.264509,15.572163
1004.031250,7.787642,5.581098,11.650816,14.678346
1004.035156,13.179373,9.144000,2.736053,6.647624
1004.039062,12.502876,6.807222,2.847317,10.775719
1004.042969,3.723699,11.557950,1.382026,7.225263
1004.046875,1.960040,10.792805,4.006505,5.587018
1004.050781,-0.808567,-3.342026,-2.339047,6.673255
1004.054688,4.734659,-2.835901,-1.795229,3.254864
1004.058594,-1.036667,-6.478335,-3.621319,-4.693764
1004.062500,-0.507145,-3.890518,-7.706310,-11.133842
1004.066406,-10.899442,-4.762030,-10.664972,-15.851835
1004.070312,-3.304116,-16.162906,-10.871174,-7.893243
1004.074219,-10.505192,-11.665912,-2.174314,-4.385473
1004.078125,-16.109929,-11.833454,-3.403032,-14.029742
1004.082031,-10.827231,-12.982119,-7.643577,-10.546528
1004.085938,-5.505992,-16.641095,-1.998362,-4.090204
1004.089844,-6.307143,0.352005,-5.435640,-1.919737
1004.093750,-7.737326,-7.175286,-6.770031,-1.678001
1004.097656,0.633352,3.764811,-0.920502,-7.040479
1004.101562,-3.485154,-5.030682,2.813565,0.764611
1004.105469,0.461428,7.247573,6.522157,8.482372
1004.109375,7.685983,11.226474,0.198335,-0.224625
1004.113281,3.932017,7.290434,6.270410,6.745578
1004.117188,9.043417,9.314023,7.037612,7.729171
1004.121094,9.151421,13.022117,8.796791,2.193116
1004.125000,10.889757,14.601771,8.735127,11.785404
1004.128906,11.015250,11.575714,11.800267,2.880119
1004.132812,23.128978,8.019508,8.542713,10.140876
1004.136719,8.905961,12.714591,8.569345,6.792678
1004.140625,3.725427,8.346640,2.931935,7.330906
1004.144531,0.637005,11.889068,-0.205544,2.575551
1004.148438,0.770765,4.867949,3.164876,4.007577
1004.152344,6.404764,-4.531005,5.132298,-2.911904
1004.156250,-1.020466,-9.414729,-10.701304,-6.394776
1004.160156,-12.925849,-6.174770,-8.967329,1.608017
1004.164062,-5.778649,-5.023977,-8.713374,-2.658635
1004.167969,3.179043,-7.469484,-11.880466,-11.279164
1004.171875,-15.091092,-6.936163,-16.445655,-16.107226
1004.175781,-8.936576,-5.630290,-8.245662,-8.587730
1004.179688,-9.012208,-4.395274,-16.115557,-18.185421
1004.183594,-12.129242,-3.645152,-2.026323,-11.616944
1004.187500,-4.363884,-1.957946,-7.454519,-9.317760
1004.191406,-6.676787,0.965903,-10.508566,-4.716908
1004.195312,-3.512385,-6.161403,-8.189859,-1.412789
1004.199219,3.590099,-4.089084,-9.213351,2.901236
1004.203125,3.023903,-0.839663,7.222122,-0.808254
1004.207031,2.224643,5.454713,4.194295,5.308205
1004.210938,9.478922,8.299697,6.163900,3.838278
1004.214844,4.732137,7.861406,8.501298,5.486015
1004.218750,7.856098,14.159848,14.266089,6.150285
1004.222656,5.920877,8.144626,8.364066,3.714171
1004.226562,10.974633,20.039021,17.639769,7.127476
1004.230469,10.865261,15.169610,9.034043,4.679418
1004.234375,5.272690,14.987547,15.474629,8.701951
1004.238281,10.659379,8.949718,10.149002,1.320171
1004.242188,0.325458,-2.382349,-1.123979,2.011014
1004.246094,2.842475,8.377036,-8.221508,6.559650
1004.250000,1.572315,-6.293778,-8.075693,-1.114773
1004.253906,-7.236587,-2.388760,3.792729,-3.416103
1004.257812,-4.395522,-7.574946,-11.258211,-4.963075
1004.261719,-5.798139,-3.215403,-7.007770,-9.640950
1004.265625,-11.164902,-8.539352,-10.971292,-12.717568
1004.269531,-9.195125,-14.579157,-12.752868,-16.332322
1004.273438,-12.211983,-10.486485,-15.594901,-13.235816
1004.277344,-6.826122,-8.654615,-9.416145,-13.735261
1004.281250,-6.850702,-12.899150,-18.238186,-3.250853
1004.285156,-6.905171,-9.242213,-3.820605,-3.473823
1004.289062,-8.539631,-7.826485,-1.541452,-5.112442
1004.292969,-2.118528,-6.410605,-4.895673,-9.426975
1004.296875,-3.766613,-0.951943,-5.930956,-1.432925
1004.300781,6.382252,2.026486,0.898888,-2.642485
1004.304688,7.329208,7.027191,7.505290,2.831937
1004.308594,-0.919293,5.128015,15.332303,0.011328
1004.312500,10.266596,9.676372,12.230332,3.742888
1004.316406,8.811660,13.865589,8.184141,7.011772
1004.320312,8.596467,11.062187,4.669494,9.881734
1004.324219,12.844105,12.895381,2.422505,13.155158
1004.328125,4.524547,5.085035,1.213427,6.137227
1004.332031,5.714000,3.356612,13.471858,5.423095
1004.335938,5.952928,8.793705,6.868808,7.341859
1004.339844,9.023785,1.161742,4.730580,13.199661
1004.343750,2.780510,3.826419,6.971100,7.965934
1004.347656,2.000605,3.324380,4.398873,-0.098480
1004.351562,-4.027342,7.592597,4.801017,0.090462
1004.355469,6.463728,-0.892442,-0.235893,-5.834191
1004.359375,-10.679224,-10.104484,-4.414772,-2.818844
1004.363281,-3.317903,-13.076596,-5.094843,-8.737083
1004.367188,-8.753777,-8.632100,-4.076947,-12.212020
1004.371094,-4.150757,-9.343422,-4.989980,-11.256023
1004.375000,-6.665969,-7.100936,-11.804421,-12.802823
1004.378906,-13.969152,-3.551683,-6.239017,-4.211818
1004.382812,-5.334782,-9.349831,-8.497253,-12.105217
1004.386719,-5.095768,-10.140021,-9.454403,-7.473189
1004.390625,-4.451819,-6.441951,-5.205970,-6.239647
1004.394531,-6.109817,-5.455288,0.477970,-3.470310
1004.398438,0.547283,-1.902006,-0.279262,-4.011986
1004.402344,2.161402,7.912250,4.584022,3.136594
1004.406250,6.088998,1.462519,2.573079,1.954560
1004.410156,7.206151,10.225875,-0.280948,0.333857
1004.414062,11.402957,9.255233,5.927574,9.166210
1004.417969,10.714490,5.661733,6.992099,9.836057
1004.421875,9.444278,2.538364,10.664564,9.199100
1004.425781,9.976113,13.671672,7.089159,10.924698
1004.429688,7.905159,9.702151,12.143611,6.956445
1004.433594,8.949016,15.777477,5.713164,7.881506
1004.437500,9.591798,2.851821,9.258925,8.372007
1004.441406,9.187603,6.649540,4.287479,4.701670
1004.445312,-1.645392,0.923586,-0.326625,4.059386
1004.449219,5.265142,-6.060507,1.593905,-1.015680
1004.453125,1.003471,-5.129372,-0.138241,-0.430589
1004.457031,-4.155738,-0.899875,-3.770564,-6.370716
1004.460938,-4.897670,-6.470222,-11.989395,-6.263362
1004.464844,-6.190490,-10.885237,-12.134633,-9.476288
1004.468750,-1.005752,-8.966661,-9.128682,-10.565052
1004.472656,-12.768096,-11.398941,-9.931968,-16.212989
1004.476562,-11.707906,-4.993191,-6.826033,-8.646080
1004.480469,-3.472186,-9.561846,-10.779318,-12.340350
1004.484375,-5.759339,-13.425882,-0.751359,-7.888706
1004.488281,-6.832999,-1.359526,-3.694004,-7.666165
1004.492188,-0.717487,-13.698471,1.416865,-16.627922
1004.496094,2.563873,-4.435308,-6.499632,1.769406
1004.500000,-7.702403,-4.809182,-0.758556,4.230574
1004.503906,4.434952,0.464063,3.659987,-1.125792
1004.507812,-1.506776,7.323647,4.824400,2.129587
1004.511719,10.534354,2.140934,4.309943,3.052284
1004.515625,4.140555,12.719768,14.268724,6.582333
1004.519531,8.178551,20.056621,10.577298,3.520555
1004.523438,15.818793,13.042656,4.409517,12.890550
1004.527344,12.748293,15.438204,6.577872,13.261905
1004.531250,14.268569,14.528365,16.671201,12.853282
1004.535156,6.675284,5.930942,7.262232,6.660660
1004.539062,5.332677,5.205606,3.745632,13.094647
1004.542969,1.086633,8.408420,-0.903989,3.086953
1004.546875,0.455876,1.301333,4.346130,7.943406
1004.550781,7.440986,-4.493215,0.871716,-2.134523
1004.554688,1.402397,-5.713052,0.098274,-0.267246
1004.558594,-4.261696,-5.766029,-8.948397,-6.674772
1004.562500,-4.669306,-11.314507,-7.718888,-8.016266
1004.566406,-5.781244,-6.738735,-1.283018,-11.990199
1004.570312,-12.314446,-9.517043,-8.031135,-10.916424
1004.574219,-14.700161,-6.560505,-6.563589,-12.479088
1004.578125,-7.603203,-8.877625,-8.913534,-7.307040
1004.582031,-9.657276,-9.743045,0.653955,-12.230548
1004.585938,-18.146056,-0.556173,-5.849853,-4.745384
1004.589844,-11.203870,-9.600432,-4.825359,-10.038031
1004.593750,-8.230428,-0.189952,-5.781175,4.557967
1004.597656,0.744393,0.469576,-1.896455,0.273882
1004.601562,-5.588382,1.962061,0.934730,4.498369
1004.605469,-4.555223,6.497495,-2.766568,-2.329347
1004.609375,3.514685,8.611668,-0.777110,1.354481
1004.613281,9.425287,11.166191,14.915498,11.648129
1004.617188,2.677490,14.702719,5.421502,4.800382
1004.621094,6.088736,15.346554,11.531413,9.887771
1004.625000,5.435975,8.852553,11.402307,7.675611
1004.628906,6.722054,12.636318,10.531455,6.768438
1004.632812,10.476009,13.204735,5.985390,12.548634
1004.636719,6.243673,9.314778,10.183339,10.229208
1004.640625,6.495366,1.564315,8.464920,4.354638
1004.644531,-2.452159,4.708351,2.291843,-0.249024
1004.648438,-0.230031,7.101091,-2.022983,-0.217796
1004.652344,1.516125,2.026117,1.664409,-9.174543
1004.656250,-10.189734,-8.056038,-1.562342,-8.906416
1004.660156,-6.857881,-7.132308,-15.525006,-7.550120
1004.664062,-8.205085,-7.973822,-8.258991,-7.961680
1004.667969,-8.019666,-3.347024,-14.972329,-7.718320
1004.671875,-10.814642,-10.757279,-19.984271,-9.523982
1004.675781,-3.994017,-17.935065,-7.065633,-13.555143
1004.679688,-10.305964,-7.884117,-10.386463,-10.409275
1004.683594,-14.549306,-7.074050,-5.776093,-12.012608
1004.687500,-10.686680,-14.795225,2.529746,-10.423689
1004.691406,-7.376004,-2.453061,-8.705506,-7.722768
1004.695312,-6.397642,-2.010218,-6.985516,1.344192
1004.699219,-0.101528,-6.960590,5.931521,0.585000
1004.703125,2.957562,4.927856,1.556540,-1.865547
1004.707031,4.506000,4.309804,-2.053620,1.256687
1004.710938,5.939793,4.476139,6.095779,1.718285
1004.714844,10.332467,5.792224,5.451994,8.852605
1004.718750,11.048441,8.129929,14.682934,3.939928
1004.722656,12.831209,13.296690,6.649557,11.948425
1004.726562,13.832909,11.339855,15.218298,6.630332
1004.730469,6.033123,9.822244,9.357710,3.586565
1004.734375,14.570560,7.170628,12.322203,5.486100
1004.738281,8.039531,7.367996,3.121627,1.569261
1004.742188,5.462370,13.377940,0.573312,0.950341
1004.746094,5.285198,1.875581,9.209248,0.331253
1004.750000,2.262997,6.667357,0.411352,5.251340
1004.753906,-2.358863,-4.999741,1.798573,-5.279722
1004.757812,-1.148019,-10.056963,-9.136948,-1.412687
1004.761719,-5.084228,-10.934113,1.005795,-6.844898
1004.765625,-9.165986,-12.616640,-7.598397,-11.680365
1004.769531,-17.827708,-2.262915,-9.363601,-7.635921
1004.773438,-9.259817,-5.805709,-10.247868,-13.314885
1004.777344,-11.698202,-10.047368,-10.794990,-7.036182
1004.781250,-11.720673,-13.608973,-7.869514,-6.000527
1004.785156,-11.309106,-9.234101,-2.510074,-7.136530
1004.789062,-1.527125,-6.702576,-2.308361,-8.018469
1004.792969,-6.254892,-4.665337,-4.889383,-3.543830
1004.796875,5.200133,-5.623924,-3.912693,1.178145
1004.800781,1.867771,3.769824,-4.129360,-1.349609
1004.804688,-0.879746,-3.810130,4.462450,3.122679
1004.808594,6.382703,3.188154,5.624253,-4.493302
1004.812500,10.512872,7.302131,7.851633,8.764358
1004.816406,11.174841,10.197810,7.232819,14.091695
1004.820312,6.731347,11.695757,7.530920,10.555028
1004.824219,0.194315,7.473102,6.652601,7.807502
1004.828125,14.692886,8.344158,13.381733,9.110844
1004.832031,12.998905,18.192525,7.853300,10.194072
1004.835938,9.019167,10.448263,1.427800,11.246635
1004.839844,8.647448,10.821339,5.508844,2.666875
1004.843750,3.347137,-8.541698,-2.758808,7.700678
1004.847656,4.326982,-0.547496,0.598839,-2.630595
1004.851562,-0.143518,2.871554,-1.534824,2.734442
1004.855469,-4.618959,-5.452534,2.056179,-6.209007
1004.859375,-6.880777,-8.584196,1.550311,-5.410550
1004.863281,-10.443204,-1.603089,-14.400539,-6.531569
1004.867188,-11.999198,-12.623429,-4.488022,-5.682158
1004.871094,-14.950441,-6.058527,-12.598003,-15.033573
1004.875000,-13.557766,-5.566473,-8.511867,-7.782314
1004.878906,-7.826336,-12.484906,-4.895151,-12.370252
1004.882812,-9.688821,-8.929197,-4.001224,-3.079562
1004.886719,-7.237837,-6.757143,-14.894146,-5.901185
1004.890625,-5.423803,-6.591732,-4.889654,-8.162710
1004.894531,3.021868,-2.021153,-4.935334,-3.232584
1004.898438,2.380720,-6.017140,-2.823205,-1.299371
1004.902344,15.622583,1.006457,5.572851,11.525195
1004.906250,-0.170999,4.399877,-3.628521,10.879647
1004.910156,2.327640,4.326584,14.404039,1.961758
1004.914062,9.747939,9.418646,5.780623,7.787514
1004.917969,3.849941,13.042776,14.721286,10.619575
1004.921875,14.068818,13.140603,8.384761,5.919110
1004.925781,10.565806,10.656088,10.050667,8.362850
1004.929688,12.305411,13.387431,11.791854,10.298402
1004.933594,7.599567,17.505426,11.772662,11.043660
1004.937500,14.194071,9.937967,8.925406,9.074936
1004.941406,9.181851,4.497896,9.459278,-1.009371
1004.945312,-3.502225,0.708586,2.007047,-0.324280
1004.949219,4.376204,-2.050020,2.150810,-1.840777
1004.953125,-0.731969,-10.124821,7.356768,-1.587056
1004.957031,-0.188924,-1.234424,-5.111748,-8.686443
1004.960938,-4.667133,-5.710530,-7.347246,-5.297250
1004.964844,-6.867569,-11.222704,-2.730745,-13.678310
1004.968750,-5.823717,-10.691283,-6.554654,-3.127485
1004.972656,-17.032582,-7.461220,-12.855397,-5.584648
1004.976562,-10.001320,-10.391531,-5.296628,-13.200732
1004.980469,-9.264317,-10.978264,-14.606258,-7.448107
1004.984375,-8.854728,-6.846808,-5.565850,-6.645145
1004.988281,-3.681940,-3.122714,0.860773,-13.046356
1004.992188,-2.874901,-2.401608,-7.248104,-5.220770
1004.996094,-3.428287,-10.691842,2.973177,-1.399620
1005.000000,-5.401382,1.488211,0.377960,-5.261002
1005.003906,0.769765,6.788071,4.672855,1.795514
1005.007812,6.928076,5.558951,-1.803471,6.468751
1005.011719,3.766616,8.798835,5.883805,6.034174
1005.015625,8.765336,13.135756,10.849343,2.066155
1005.019531,8.505686,16.528928,9.526145,12.767743
1005.023438,11.848056,14.323085,3.254624,11.294770
1005.027344,8.516876,8.761993,11.744368,9.447532
1005.031250,8.709476,9.234357,5.129224,12.626583
1005.035156,17.550363,14.108655,6.878920,1.417932
1005.039062,10.121579,4.063651,1.713067,2.810913
1005.042969,3.306240,3.489665,9.353686,9.830996
1005.046875,5.965816,4.494469,-5.152100,8.523795
1005.050781,0.039938,-1.465489,0.421780,-0.253144
1005.054688,-3.334984,0.981708,-3.843028,-2.505790
1005.058594,-1.371751,-4.239021,-12.578371,-2.029424
1005.062500,-13.481318,-5.301953,-4.356259,-4.452899
1005.066406,-2.523708,-5.869507,-2.388776,-2.223000
1005.070312,-8.961777,-4.210370,0.894729,-9.299137
1005.074219,-6.222183,-9.136598,-14.049930,-10.843859
1005.078125,-5.510922,-12.889896,-7.828388,-13.280838
1005.082031,-7.323907,-8.742234,-9.631083,-9.800648
1005.085938,-10.412948,-7.949474,-2.263032,-2.077654
1005.089844,-5.447262,-0.271198,-9.275009,-7.951167
1005.093750,-4.327072,-3.385758,2.485709,-3.231493
1005.097656,4.722452,1.223501,2.395744,2.178040
1005.101562,2.673427,2.892435,3.575188,0.982755
1005.105469,11.533886,7.981325,4.369830,7.081258
1005.109375,-3.566232,-1.561818,10.179906,6.186652
1005.113281,8.830121,1.679932,5.327901,12.689955
1005.117188,9.853972,8.357815,0.717362,12.497700
1005.121094,11.115463,4.149791,9.206524,11.558209
1005.125000,4.529908,9.085334,10.989726,5.114354
1005.128906,13.800294,2.318092,15.853985,18.816355
1005.132812,0.658034,5.120595,12.447788,6.957938
1005.136719,8.873313,5.332197,9.946613,3.729361
1005.140625,7.293375,8.137221,8.611772,7.205591
1005.144531,-0.479559,0.426583,3.612879,3.104017
1005.148438,-3.493758,-1.364082,-1.508199,-0.199342
1005.152344,-3.029975,0.924563,-2.966313,2.945586
1005.156250,-5.646020,-6.682135,1.546871,-8.791300
1005.160156,-11.775713,-11.313805,-4.298856,-2.670250
1005.164062,-8.714097,-12.689058,-7.923632,-5.162755
1005.167969,-6.634853,-11.341438,-5.899737,-8.905879
1005.171875,-8.982508,-16.996632,-12.347555,-3.987871
1005.175781,-11.411035,-12.507868,-14.606395,-3.798872
1005.179688,-8.024086,-13.462900,-11.912849,-11.053820
1005.183594,-5.526111,-6.161398,-5.965795,-2.233109
1005.187500,2.191420,-5.301474,-0.825668,-10.502176
1005.191406,-11.353668,-0.093040,-7.337309,-4.011911
1005.195312,1.207913,-6.006156,-5.577744,-2.454317
1005.199219,0.966933,-10.420571,-1.919123,0.089690
1005.203125,2.911494,9.133804,3.467502,5.248991
1005.207031,0.580123,6.621215,7.013289,0.055322
1005.210938,2.687271,2.626822,15.023893,10.773945
1005.214844,6.935709,3.995817,10.403311,2.856809
1005.218750,15.896655,9.119336,7.520163,7.211737
1005.222656,14.276359,5.290981,6.273294,4.326908
1005.226562,8.857132,11.263799,-0.178101,9.803522
1005.230469,8.833023,11.315066,10.672882,14.989475
1005.234375,13.861411,8.146497,4.942885,6.062352
1005.238281,13.561313,9.932821,5.062881,4.854641
1005.242188,6.036154,2.883574,9.002266,5.883389
1005.246094,12.910938,-0.355982,2.550703,3.200289
1005.250000,2.507020,-4.334089,2.238073,-2.568426
1005.253906,-4.827378,0.747772,-3.982153,-6.527819
1005.257812,-2.525432,-8.503237,-11.588325,-6.860882
1005.261719,-15.228109,-9.502899,-1.286151,-6.414083
1005.265625,-3.358632,-10.025966,-2.156082,-12.871630
1005.269531,-6.122268,-19.551713,-10.921847,-14.713887
1005.273438,-7.559781,-11.716613,-5.768236,-2.251637
1005.277344,-11.704845,5.743075,-10.062041,-6.559190
1005.281250,-13.127344,-9.533895,-8.778855,-7.922817
1005.285156,-4.754203,-10.063329,-8.259501,-3.645482
1005.289062,-0.670933,-4.177534,-4.346944,-5.805225
1005.292969,-12.869487,1.743235,0.649103,-3.810011
1005.296875,-0.104739,-0.758319,-3.252834,1.269516
1005.300781,1.642231,-4.886558,-8.764941,0.908413
1005.304688,4.307729,-1.073667,1.753325,-0.507957
1005.308594,7.484206,-0.312556,-0.203668,9.632598
1005.312500,5.900678,13.130121,8.232357,9.690806
1005.316406,10.260179,4.440480,5.307210,12.813006
1005.320312,5.000725,10.084989,5.965188,12.749989
1005.324219,8.624263,4.866761,11.634980,8.908651
1005.328125,10.081243,19.046901,16.097509,6.239707
1005.332031,5.902786,8.427232,9.161376,7.968955
1005.335938,12.615065,10.014641,6.328943,-3.015633
1005.339844,4.832106,6.532460,7.198391,10.194520
1005.343750,3.707823,-0.229935,3.271933,2.026765
1005.347656,1.490536,-1.875510,4.271934,4.445415
1005.351562,0.594713,0.266809,-2.587716,-5.378703
1005.355469,-0.375290,0.758622,-2.338313,-0.888716
1005.359375,4.452906,-4.041688,-1.303943,-5.755849
1005.363281,-8.789971,-18.866022,-5.854522,-4.435395
1005.367188,-8.883074,-6.920295,-8.463398,-9.278400
1005.371094,-10.355075,-8.353406,-3.980705,-8.404364
1005.375000,-11.104993,-12.314398,-12.251300,-13.564644
1005.378906,-6.134194,-5.598037,-6.562964,-20.240763
1005.382812,-11.776286,-6.654602,-8.112098,-14.565938
1005.386719,-9.805981,-8.635068,-6.292085,-11.951179
1005.390625,-5.629666,-4.007012,-6.283982,-6.066149
1005.394531,-4.007999,-5.420109,-3.552743,-4.366585
1005.398438,-0.935563,-7.443865,-9.539543,6.349388
1005.402344,5.651656,2.399772,-4.153417,6.564403
1005.406250,-0.844216,2.350680,-0.218057,2.447527
1005.410156,13.507987,6.860578,2.901151,8.166539
1005.414062,10.274784,7.001510,13.135551,5.415283
1005.417969,17.062964,9.481987,5.011198,14.113318
1005.421875,9.044418,6.432528,2.541369,11.329596
1005.425781,9.064702,7.230254,8.732302,11.298651
1005.429688,10.083675,10.075234,6.842850,5.272195
1005.433594,8.152986,9.198740,9.151114,8.433840
1005.437500,17.165204,6.123077,11.213684,14.311887
1005.441406,0.769644,3.645047,4.276436,7.313063
1005.445312,7.760962,4.748707,6.639566,7.196752
1005.449219,-6.096933,-0.734138,-0.129125,1.770505
1005.453125,-5.271023,-7.862274,-0.315726,4.659616
1005.457031,-5.543018,-1.401722,-4.444932,-3.483102
1005.460938,-8.811562,-9.407525,-7.216487,-4.605565
1005.464844,-3.039178,-14.987614,-11.068750,-6.205339
1005.468750,-11.725564,-3.926327,-5.954594,-7.629099
1005.472656,-11.197240,-5.378840,-16.384933,-12.843052
1005.476562,-6.133811,-7.151807,-14.624861,-10.502754
1005.480469,-13.184267,-11.486429,-13.830069,-14.053102
1005.484375,-15.687981,-8.130418,-11.890735,-5.982447
1005.488281,-9.033404,-5.638837,-11.353295,-2.268320
1005.492188,-3.782884,-9.487485,4.791844,-0.029171
1005.496094,1.386589,-7.809271,-4.854841,4.965194
1005.500000,-5.196358,0.365944,3.393341,7.810464
1005.503906,2.248737,6.024695,0.402589,1.399610
1005.507812,8.964036,9.417135,9.811461,2.082605
1005.511719,3.528752,5.710651,12.382864,0.365081
1005.515625,8.691977,7.460825,9.998397,1.456178
1005.519531,7.465667,9.883352,4.230251,10.294966
1005.523438,5.971495,10.074608,13.003681,14.435157
1005.527344,11.347875,9.905338,11.097843,10.428528
1005.531250,7.563845,4.357712,5.341568,9.399753
1005.535156,3.474734,7.800855,12.921281,6.164511
1005.539062,11.692609,3.284704,3.082487,3.008658
1005.542969,8.171171,2.050098,6.325868,8.516340
1005.546875,1.915397,-0.131804,-1.798199,4.547445
1005.550781,-1.416002,4.626216,-7.788687,-1.429154
1005.554688,1.021345,0.419932,3.980674,-9.858043
1005.558594,-2.224666,-0.566321,-3.904693,1.907406
1005.562500,-10.391279,-14.060570,-9.711912,-1.472560
1005.566406,-3.920638,-3.185689,-9.361374,-11.187123
1005.570312,-1.533277,-5.881685,-7.581278,-11.140748
1005.574219,-11.486926,-13.252051,-5.361213,-7.150530
1005.578125,-8.158420,-8.574443,-8.616759,-8.014514
1005.582031,-12.246322,-13.936197,-10.883398,-6.444890
1005.585938,-7.399876,-13.107533,1.971316,-10.290175
1005.589844,-0.973427,-5.094258,-2.948125,-8.016007
1005.593750,0.968933,-3.743097,-7.024795,-5.058299
1005.597656,-4.767505,-1.073297,-0.641891,-1.586548
1005.601562,5.063277,3.080460,0.347904,-5.585443
1005.605469,7.749288,7.780645,5.401106,-1.427601
1005.609375,10.706377,6.214683,4.569343,2.279658
1005.613281,8.001281,8.495262,4.258234,10.094429
1005.617188,13.778116,3.118791,6.929088,11.372143
1005.621094,10.063946,7.586657,12.002608,8.472710
1005.625000,9.413732,5.962734,15.300773,9.641563
1005.628906,13.830885,6.214959,3.820440,1.276568
1005.632812,9.195652,7.879468,7.610444,11.636722
1005.636719,18.450684,8.256311,11.521040,5.463143
1005.640625,13.220339,9.164969,-0.935432,6.353701
1005.644531,8.193544,4.618513,2.017965,-0.872499
1005.648438,7.192550,-1.744290,4.576213,-2.645078
1005.652344,-2.067143,-5.747778,2.799381,-3.849162
1005.656250,-5.189961,-0.521198,4.761775,2.394567
1005.660156,-1.640603,-7.894219,-6.861959,-5.538278
1005.664062,-13.804764,-9.175810,-7.836973,-4.369711
1005.667969,-7.558804,-5.986718,-10.437841,-5.383725
1005.671875,-11.255958,-11.823078,-16.815798,-10.910199
1005.675781,-6.591004,-6.336368,-9.615617,-8.582656
1005.679688,-9.270897,-12.109628,-5.256158,-9.130044
1005.683594,-10.032267,-9.041389,-9.973148,-10.678507
1005.687500,-11.596862,-7.058057,-5.332899,-11.359444
1005.691406,-2.299319,0.380939,-1.673269,-5.534984
1005.695312,-7.684465,0.503510,-6.105034,1.574632
1005.699219,-1.035485,2.882025,2.226938,5.476821
1005.703125,8.129134,-0.498736,-2.646819,7.282289
1005.707031,6.976009,1.776057,6.764295,4.758848
1005.710938,10.159156,3.587225,1.922196,6.768688
1005.714844,4.383362,7.696291,8.961908,8.651191
1005.718750,-0.154020,6.707782,7.412736,10.258961
1005.722656,3.210512,10.366402,13.797513,8.023715
1005.726562,5.228065,19.418449,10.430817,13.536309
1005.730469,14.404734,2.553312,18.595163,3.773911
1005.734375,11.665281,9.564477,-1.009074,3.211493
1005.738281,10.915250,7.742904,18.419775,4.750449
1005.742188,3.202161,7.863711,5.173393,2.576235
1005.746094,-0.505358,-2.407844,5.854020,0.489373
1005.750000,2.614551,-1.824033,3.685109,-1.609299
1005.753906,-5.657619,1.453773,-8.046352,-4.228192
1005.757812,-1.984673,-7.441431,-6.701530,-7.953026
1005.761719,-6.676159,-9.817762,-6.823708,-10.198037
1005.765625,-11.797540,-9.692357,-7.552942,-11.919446
1005.769531,-7.730203,-11.377304,-11.999425,-6.486109
1005.773438,-12.431939,-12.019741,-13.849995,-11.141754
1005.777344,-14.112594,-8.768812,-9.023487,-5.850602
1005.781250,-11.666403,-3.428767,-3.994197,-13.911968
1005.785156,-9.393349,-8.973139,-8.149990,-16.105862
1005.789062,-0.837056,-2.789327,-4.888630,-9.633934
1005.792969,-7.788366,-1.072115,-5.928859,-2.399086
1005.796875,3.699412,-7.163855,-4.187145,-3.837202
1005.800781,-2.045628,-0.864965,-4.143553,2.453415
1005.804688,5.408761,-0.657741,10.568428,4.972730
1005.808594,-4.114629,-0.119396,6.538964,1.320143
1005.812500,8.409548,4.404300,6.234030,7.381607
1005.816406,14.120559,5.903128,6.069995,10.625876
1005.820312,11.480707,12.665896,10.249675,7.935015
1005.824219,12.740772,8.114887,7.488313,13.320316
1005.828125,0.235199,14.103073,11.489723,6.443744
1005.832031,4.093039,6.385781,9.982421,13.018775
1005.835938,3.407554,4.613443,3.312231,14.612155
1005.839844,0.324832,11.222785,8.683039,2.591750
1005.843750,15.833253,10.067036,-2.284006,4.499889
1005.847656,5.966860,-2.296361,-0.909787,-1.899394
1005.851562,0.706847,5.111512,-1.239501,-0.496897
1005.855469,0.367347,0.003308,1.926720,-6.206420
1005.859375,-6.941672,-7.773512,-10.437242,-1.596026
1005.863281,0.071860,-4.166869,-7.182437,-8.477233
1005.867188,-8.336381,-7.446128,-4.263076,-5.221043
1005.871094,-12.784214,-11.449682,-11.697485,-10.607030
1005.875000,-8.860877,-2.884005,-15.078160,-6.811638
1005.878906,-6.795887,-9.183672,-8.470256,-12.940792
1005.882812,-4.283511,-8.857972,-7.174361,-10.391357
1005.886719,-7.117427,-6.380686,-7.884304,-3.740693
1005.890625,-0.512137,-5.859974,-6.094758,-10.413357
1005.894531,-7.612964,-5.919724,-5.344373,1.198489
1005.898438,-0.566578,-3.620899,2.409353,-8.360926
1005.902344,3.557687,-2.700083,4.068424,4.881894
1005.906250,0.584026,4.187676,10.808962,1.006277
1005.910156,-4.434505,-3.017522,4.437379,-2.151719
1005.914062,9.106118,2.398809,13.055883,7.947850
1005.917969,14.068776,9.713459,9.918368,9.959018
1005.921875,8.071654,5.557982,8.510521,6.512906
1005.925781,6.679245,8.400954,13.988614,11.946528
1005.929688,5.149796,14.679248,11.240398,10.213400
1005.933594,9.831087,6.960608,7.642954,13.172241
1005.937500,3.865117,12.560975,11.765714,3.936205
1005.941406,9.310885,13.124578,3.182147,9.456825
1005.945312,5.948768,3.715848,-3.265801,4.723409
1005.949219,-6.357662,-14.006732,-2.422943,6.247612
1005.953125,-3.239113,-7.072507,8.087853,-4.722084
1005.957031,-1.229958,-0.774164,4.496087,-3.995160
1005.960938,-11.475399,1.799353,-10.638574,-10.987585
1005.964844,-7.117502,-4.059936,-8.436429,-10.764769
1005.968750,-7.152695,-14.693871,-4.966248,-6.531748
1005.972656,-14.035579,-12.565536,-8.728337,-9.596668
1005.976562,-13.903206,-4.847486,-5.488784,-5.184153
1005.980469,-7.439716,-9.077020,-11.395266,-10.415867
1005.984375,-16.618550,-4.591100,-6.389598,-6.774208
1005.988281,1.505471,-7.986942,-7.300063,-12.840153
1005.992188,-7.718359,-6.669567,-4.036327,1.526864
1005.996094,-3.315109,-0.416009,-1.286014,-8.276953
1006.000000,0.388687,-2.487221,0.481995,3.580207
1006.003906,4.586139,-0.462608,5.685951,8.837582
1006.007812,4.666669,3.815180,2.984109,5.920616
1006.011719,11.978835,2.608663,3.780022,6.658873
1006.015625,4.935244,6.915517,3.192915,14.175811
1006.019531,16.499130,9.091375,9.852178,11.744297
1006.023438,8.450544,7.898712,18.709611,8.472087
1006.027344,5.851786,9.349733,6.615406,11.199099
1006.031250,6.151254,7.241840,6.753406,8.837598
1006.035156,8.546881,9.220066,8.342862,7.014376
1006.039062,5.241437,-3.805277,10.133477,6.933955
1006.042969,0.708340,13.028031,-1.146036,1.064953
1006.046875,4.208781,1.821971,9.186802,6.533753
1006.050781,1.580936,0.360632,3.723244,-1.329201
1006.054688,2.265470,-3.547415,-6.543761,-4.216929
1006.058594,-5.647281,-3.531549,-10.394151,-2.037210
1006.062500,-5.236811,1.697203,-4.238888,-9.745765
1006.066406,-11.339379,-0.638846,-4.508604,-3.451657
1006.070312,-3.985317,-1.941509,-9.368412,-15.674706
1006.074219,-9.349209,-4.643404,-10.742569,-14.081273
1006.078125,-13.907444,-9.889395,-7.632912,-13.763741
1006.082031,-6.481368,-11.143199,-8.143883,-10.001041
1006.085938,-5.632051,-9.374017,-10.374484,-3.427167
1006.089844,-9.999547,-4.016264,-2.012803,-10.008014
1006.093750,-3.822014,-7.242696,-4.900806,6.693018
1006.097656,-1.149272,-2.548264,-0.445157,2.434024
1006.101562,-5.839961,2.836188,4.604521,-3.010228
1006.105469,1.700313,1.929844,3.471353,6.171021
1006.109375,12.071952,0.632515,2.149406,9.219337
1006.113281,3.323296,0.962367,6.348798,3.013117
1006.117188,8.590077,-1.636783,4.756158,10.899295
1006.121094,11.769125,17.921956,11.106891,6.455202
1006.125000,0.048542,16.808613,8.452177,11.146845
1006.128906,12.897064,8.378529,7.337579,3.582976
1006.132812,5.253492,16.993786,7.592654,8.878803
1006.136719,11.682450,7.845255,10.925285,10.218635
1006.140625,7.863794,7.344328,12.355743,8.542085
1006.144531,8.607131,-0.614201,3.745359,-0.884788
1006.148438,10.846361,1.463103,5.380170,1.082261
1006.152344,-7.021462,6.049136,-2.935481,5.662229
1006.156250,-0.324328,-4.033708,-6.114838,-6.720874
1006.160156,-1.282801,-9.991088,-2.307882,0.967194
1006.164062,-10.396498,-5.624238,-8.282130,-7.086693
1006.167969,-3.584916,-7.720859,-10.564994,-7.911071
1006.171875,-9.366254,-16.421682,-11.311328,-13.615243
1006.175781,-12.478073,-3.987192,-3.937713,-7.972025
1006.179688,-7.917290,-11.287748,-7.897834,-16.826041
1006.183594,-9.731771,-12.097454,-7.795833,-8.031496
1006.187500,-6.681367,-5.374526,-13.653157,-9.191685
1006.191406,-7.714782,-10.792050,-2.781168,-10.806769
1006.195312,3.205050,-0.265789,-1.684564,-3.122704
1006.199219,-1.037360,-0.718504,-1.905179,4.192219
1006.203125,2.992843,-8.195271,0.451301,2.879840
1006.207031,7.953718,2.198455,5.709705,0.041260
1006.210938,6.172203,10.112185,9.220820,4.080909
1006.214844,8.047286,0.449432,7.550561,4.993395
1006.218750,7.583756,11.489908,21.536534,9.038952
1006.222656,9.208070,7.385931,11.042161,5.516465
1006.226562,11.746123,3.202318,9.581099,8.375405
1006.230469,6.095024,17.182280,9.100376,10.862651
1006.234375,10.202222,8.486330,10.873356,10.957542
1006.238281,8.733076,10.132968,8.074460,7.917202
1006.242188,7.301286,8.371369,13.113166,7.393457
1006.246094,-1.078412,2.204462,-1.579527,-1.692282
1006.250000,-0.909372,-1.972498,-1.937681,-2.630207
1006.253906,-7.550126,0.316427,-1.466755,-3.670644
1006.257812,-7.427414,-4.636662,-11.528070,-7.930361
1006.261719,-9.726311,-13.739838,-2.242605,-2.667103
1006.265625,-6.393020,-6.043263,-8.582310,-11.895867
1006.269531,-12.521851,-11.458400,-8.622916,-12.182419
1006.273438,-19.549261,-9.049301,-7.958618,-6.021529
1006.277344,-6.437831,-11.316098,-11.504276,-12.890928
1006.281250,-8.655735,-8.753282,-7.773900,-9.633561
1006.285156,-11.543311,-5.944723,-7.147581,-6.788784
1006.289062,-1.307640,-7.719175,-5.474898,-5.252280
1006.292969,0.393146,-4.529761,0.138402,-5.205045
1006.296875,-1.299996,-5.780637,-1.199712,-7.727368
1006.300781,5.152851,-4.803322,3.382698,-4.194981
1006.304688,4.267012,8.744504,-0.003597,8.811343
1006.308594,12.624228,3.921790,10.798494,2.226730
1006.312500,8.504568,6.570048,4.786738,9.170050
1006.316406,11.892450,-0.124489,14.248719,14.674369
1006.320312,13.469087,11.528486,9.860672,4.818042
1006.324219,6.004972,13.238635,17.591515,13.317304
1006.328125,8.686395,7.905482,11.887883,7.442544
1006.332031,11.391205,8.771334,8.827212,9.260877
1006.335938,14.341506,8.354595,5.397628,7.358350
1006.339844,5.245288,4.871570,0.320170,2.763174
1006.343750,-4.855885,0.417989,4.874440,3.167148
1006.347656,3.060621,10.786499,5.261491,-1.745101
1006.351562,2.514580,2.691130,-0.106421,-4.974532
1006.355469,-3.371828,-7.873498,-3.490030,1.923087
1006.359375,-9.370727,-0.840822,-3.102289,3.544345
1006.363281,-6.536518,-7.801387,-10.819612,0.719321
1006.367188,-9.407219,-6.080553,-2.845734,-8.129501
1006.371094,-3.938324,-9.417473,-8.692886,-9.958237
1006.375000,-16.302804,-12.084627,-5.569509,0.076610
1006.378906,-9.296086,-15.215470,-14.392276,-11.274054
1006.382812,-11.625337,-13.636872,-8.244587,-7.576817
1006.386719,-8.124053,-7.301131,-7.791353,-6.474911
1006.390625,-9.413614,-6.085151,-4.067625,-6.161076
1006.394531,2.775488,-9.054076,-1.578838,-3.708410
1006.398438,3.944791,-8.855705,-4.731395,2.813746
1006.402344,6.256122,1.584596,8.237948,2.333601
1006.406250,-0.497276,-1.030612,0.341127,-2.601426
1006.410156,0.277874,10.479180,12.699620,7.265727
1006.414062,7.082998,6.039012,3.018557,1.513372
1006.417969,2.746400,13.669584,8.433052,10.266314
1006.421875,6.895404,13.726134,8.912480,8.798850
1006.425781,12.589591,11.076439,10.486603,9.176772
1006.429688,12.009100,12.711335,8.097499,11.063842
1006.433594,8.004769,9.917719,12.418925,13.419062
1006.437500,12.487840,1.289754,12.993654,2.507320
1006.441406,-0.460504,3.935869,4.075960,2.970652
1006.445312,6.778055,11.706085,7.723161,3.195574
1006.449219,2.326648,5.266266,4.096753,-5.527455
1006.453125,-3.995180,-7.156423,-0.982320,-3.458597
1006.457031,-1.332928,0.022563,-8.782899,-8.693556
1006.460938,1.103139,-5.841152,-6.167337,-3.807836
1006.464844,-10.226713,-11.382842,-4.506020,-6.202725
1006.468750,-7.695850,-10.226308,-7.179947,-8.372406
1006.472656,-11.415606,-4.475942,-9.860301,-11.282088
1006.476562,-11.624240,-10.979079,-14.653275,-10.028084
1006.480469,-13.615253,-9.152966,-12.234913,-6.163667
1006.484375,-9.343552,-4.274930,-9.915463,-15.464974
1006.488281,-3.150973,-4.582953,-5.765703,-11.425115
1006.492188,-0.605190,-6.195799,-5.946597,-4.038743
1006.496094,0.036227,-2.073616,-4.226436,-0.695448
1006.500000,-1.996314,-3.838945,-0.102290,-4.100100
1006.503906,2.255296,0.939564,0.662066,4.468599
1006.507812,9.424182,6.168523,0.539776,0.687306
1006.511719,0.988860,1.315850,5.534388,0.554118
1006.515625,7.223059,10.282934,4.387033,9.268900
1006.519531,14.726860,11.354947,8.229928,10.864498
1006.523438,11.150681,5.383405,10.389769,7.873138
1006.527344,11.367127,9.920595,5.851394,11.941767
1006.531250,12.055402,11.762328,8.810701,9.537541
1006.535156,3.714636,9.984742,9.434168,8.884848
1006.539062,7.243717,6.192354,11.242271,7.746537
1006.542969,7.729580,8.226292,3.125384,10.941274
1006.546875,-1.996665,-6.441919,-0.479478,2.355186
1006.550781,1.534728,1.393227,4.708331,1.287862
1006.554688,-2.743819,-7.574500,-7.401806,-1.656765
1006.558594,-7.528178,-0.499713,-8.463393,-6.524508
1006.562500,-4.199620,-8.298574,-5.762510,-6.070020
1006.566406,-14.096007,-6.257913,-10.502335,-11.394456
1006.570312,-6.335593,-10.655692,-0.531855,-7.561156
1006.574219,-8.580455,-10.792065,-8.094351,-7.855044
1006.578125,-7.126045,-13.834554,-7.866607,-13.470586
1006.582031,-7.756328,-6.271660,-7.906468,-6.718011
1006.585938,-12.161238,-8.253087,-8.298722,-3.159610
1006.589844,-3.570223,-1.035906,-4.057319,-1.974368
1006.593750,-3.151117,0.308060,-2.131024,-10.806579
1006.597656,0.450023,-12.257800,-2.831965,-0.172190
1006.601562,2.403228,4.722572,6.399350,6.358588
1006.605469,-0.568093,8.193539,1.105726,-0.508428
1006.609375,9.779935,14.163422,-1.581986,4.902971
1006.613281,10.324213,5.315142,6.234096,8.277097
1006.617188,6.543152,3.997396,9.698917,6.479513
1006.621094,11.558398,11.086870,13.642360,7.933594
1006.625000,7.083306,3.489123,15.884242,9.063658
1006.628906,10.925820,13.423986,14.192295,9.809173
1006.632812,4.403174,5.151802,10.483645,9.641685
1006.636719,5.618976,6.634948,3.268350,13.516981
1006.640625,11.105938,5.801050,11.386770,1.831289
1006.644531,9.328423,1.022574,9.322321,2.397561
1006.648438,-2.482961,-0.239426,3.763922,7.887111
1006.652344,4.668721,-1.683318,-0.867704,-1.995061
1006.656250,2.392391,-4.199292,-3.221235,-4.209285
1006.660156,-4.111502,-15.744669,-9.577862,-0.456941
1006.664062,-3.787264,-9.593657,-10.308302,-12.142930
1006.667969,-6.713346,-8.088239,-0.214051,-5.310470
1006.671875,-7.106026,-11.544042,-13.479206,-8.963775
1006.675781,-2.962742,-14.800613,-13.176805,-11.817107
1006.679688,-11.197401,-8.651343,-13.134247,-6.568919
1006.683594,-5.213488,-9.155743,-14.589203,-5.788124
1006.687500,-10.277134,-4.001295,-9.791839,-8.028687
1006.691406,-4.065934,-6.089051,-6.417700,-0.422261
1006.695312,-3.385546,-0.673435,-5.304491,-4.054236
1006.699219,7.750730,-5.674455,2.991318,4.046739
1006.703125,7.397571,9.989419,0.455728,3.090948
1006.707031,2.567910,2.487304,8.936209,4.964175
1006.710938,1.354195,11.556328,5.899186,1.537712
1006.714844,8.809616,6.578934,12.662586,7.881225
1006.718750,4.473376,8.252412,10.560912,8.395228
1006.722656,12.885097,14.007367,11.404682,9.718274
1006.726562,10.866891,15.890452,9.210197,3.783463
1006.730469,10.276379,5.595048,7.771035,10.508600
1006.734375,7.663713,4.310889,6.060275,2.670434
1006.738281,8.005503,5.601130,6.495587,4.755476
1006.742188,7.912782,4.755935,12.637668,2.438959
1006.746094,-2.490044,5.643024,3.816522,7.803487
1006.750000,-2.377968,-5.408293,2.976374,-4.071158
1006.753906,-2.472825,-3.344983,-5.526597,-9.441774
1006.757812,-7.862017,-8.754157,-3.088100,-7.569458
1006.761719,-16.763871,-9.060626,-8.799103,-7.336242
1006.765625,-8.717558,-5.395799,-7.316930,-7.241001
1006.769531,-12.744994,-12.536987,-14.671179,-11.584794
1006.773438,-12.220555,-13.277657,-12.770693,-6.570562
1006.777344,-10.554079,-3.015040,-17.874412,-13.983487
1006.781250,-7.568181,-5.005307,-7.083117,-16.709372
1006.785156,-6.505111,-0.260514,-5.160845,-4.207319
1006.789062,-6.504320,-1.826835,-1.933361,-9.635052
1006.792969,-6.772004,-5.717061,0.327000,-9.732388
1006.796875,-8.323662,-4.905135,7.241319,-5.626250
1006.800781,5.657565,3.070583,-6.338355,-2.218421
1006.804688,2.753134,2.449859,5.636178,-1.001929
1006.808594,10.301448,1.816922,1.531103,13.210499
1006.812500,4.575847,4.271095,1.268248,8.496281
1006.816406,10.616524,6.746487,11.125372,7.988049
1006.820312,8.495726,5.009041,9.714766,10.570667
1006.824219,4.851350,12.368578,13.957753,12.551046
1006.828125,14.172977,10.139538,11.452098,12.635267
1006.832031,5.507161,8.725830,3.114056,7.528928
1006.835938,9.603174,7.464691,10.871370,7.781340
1006.839844,8.606306,5.806734,7.150940,11.969379
1006.843750,7.872027,4.631826,8.518545,3.968840
1006.847656,4.986784,3.769674,3.098713,1.066477
1006.851562,-1.249412,-3.425861,4.121006,5.070683
1006.855469,-4.498777,1.141427,-3.486779,-5.925784
1006.859375,-8.437592,-6.420814,-7.014222,-1.964671
1006.863281,-14.968110,-0.131191,-4.167477,-9.506475
1006.867188,-2.587152,-13.014590,-6.780526,-4.940368
1006.871094,-11.383901,-10.623752,-17.534278,-11.576998
1006.875000,-10.589350,-10.952498,-5.506520,-4.903143
1006.878906,-10.075036,-10.421578,-4.425557,-13.203784
1006.882812,-11.973461,-8.497546,-6.280263,-9.241365
1006.886719,-11.098798,-8.972489,-4.019210,-7.167107
1006.890625,-3.308372,-8.650546,-7.189341,-7.217714
1006.894531,-0.136483,-4.268438,-4.746892,3.848135
1006.898438,4.077024,-4.353439,-1.522540,3.538865
1006.902344,3.019203,-2.980899,7.105640,0.720284
1006.906250,3.687117,4.354244,14.626678,5.457086
1006.910156,6.498052,3.284716,3.418873,8.647530
1006.914062,9.838051,12.138837,10.560157,1.389481
1006.917969,13.392009,14.887137,11.615033,11.062710
1006.921875,9.410513,12.168557,11.950306,6.334813
1006.925781,8.549977,11.034740,-0.564492,8.289982
1006.929688,8.367622,9.670516,8.105352,9.446007
1006.933594,1.620960,9.851059,10.909764,4.779991
1006.937500,4.215488,3.611874,5.371828,2.347033
1006.941406,4.765379,9.076143,2.365962,3.360356
1006.945312,-6.547762,10.846872,3.664557,2.099810
1006.949219,-4.277648,4.150269,3.135889,6.452654
1006.953125,3.355043,1.899469,-2.370810,-2.371107
1006.957031,-7.829542,-3.564512,-14.584916,-7.588758
1006.960938,-10.228746,-9.070594,-8.373838,-9.134851
1006.964844,-14.217555,-12.262796,-4.637482,-8.068051
1006.968750,-8.333537,-13.566330,-12.153294,-12.949500
1006.972656,-10.787989,-10.953486,-5.583701,-6.310640
1006.976562,-7.247746,-4.395507,-17.371276,-15.539148
1006.980469,-12.303520,-11.263897,-15.533483,-13.777903
1006.984375,-9.115855,-6.684997,-9.905146,-7.309815
1006.988281,-4.667578,-10.124961,-4.764634,-5.955640
1006.992188,-7.307618,-6.122816,-2.088245,-7.105520
1006.996094,4.666607,-6.942624,6.071922,-5.786557
1007.000000,4.074808,-2.573336,3.318108,7.950537
1007.003906,6.117011,0.175631,11.228228,-0.218536
1007.007812,6.303767,1.841227,6.904981,-3.803731
1007.011719,9.159193,11.293663,10.597409,11.094175
1007.015625,6.324446,13.947884,9.449770,5.235409
1007.019531,11.771719,13.533120,7.648813,3.878092
1007.023438,15.452328,15.195363,8.270747,9.948324
1007.027344,14.044648,11.127346,11.440525,6.221949
1007.031250,8.445572,6.805142,16.129969,8.576926
1007.035156,2.233766,7.380506,11.887896,7.815007
1007.039062,0.457563,0.276166,9.376455,7.274936
1007.042969,5.736727,4.534932,2.207637,1.974304
1007.046875,3.605781,1.156560,5.401538,-1.421715
1007.050781,4.216514,2.370887,-1.496283,-7.158012
1007.054688,-2.318039,-5.597038,-0.457392,3.355355
1007.058594,-6.545371,-7.451658,5.912235,0.848409
1007.062500,-8.988394,-3.679110,-7.312598,-7.261941
1007.066406,-6.289275,-15.540372,-7.537114,-4.977710
1007.070312,-13.585595,-4.507877,-15.603658,-15.960238
1007.074219,-9.321734,-10.883000,-7.274638,-4.781099
1007.078125,-13.606346,-10.289297,-8.093106,-10.568018
1007.082031,-8.120611,-12.164199,-10.589219,-4.496780
1007.085938,-7.799743,-5.318153,-17.839927,-6.988470
1007.089844,-5.921291,-9.510040,-9.351608,-6.004266
1007.093750,2.785474,-0.874690,-4.773616,-0.840896
1007.097656,3.533925,1.691669,-8.090894,-3.826727
1007.101562,5.348104,2.029422,-6.208861,-2.624014
1007.105469,1.235466,3.102242,-2.122020,2.095490
1007.109375,13.408709,7.238825,5.601073,0.255268
1007.113281,10.072598,5.805052,1.682882,-0.897867
1007.117188,3.641787,11.639089,10.729273,12.211336
1007.121094,6.737252,6.582603,11.823589,7.005760
1007.125000,13.937909,18.223844,10.995818,12.842107
1007.128906,8.271476,7.748565,11.877297,8.272108
1007.132812,5.878933,14.583871,9.165776,6.536475
1007.136719,8.118171,7.362210,1.446591,7.775724
1007.140625,1.148395,-5.089817,5.684482,-1.864987
1007.144531,5.334079,4.788083,4.883321,-0.928845
1007.148438,-0.963717,8.568304,10.659358,-3.305757
1007.152344,-5.571245,0.821655,0.517206,3.057761
1007.156250,-0.897921,-1.760991,-0.445527,-2.350126
1007.160156,-6.299649,-8.218979,-2.397600,-6.865927
1007.164062,-6.132092,-10.008802,-9.259032,-7.747242
1007.167969,-6.284829,-7.078533,-11.493448,-1.373848
1007.171875,-11.144024,-6.233430,-6.295177,-20.407357
1007.175781,-9.860489,-6.875292,-14.459098,-6.844309
1007.179688,-4.073076,-13.675343,-6.736753,-14.367346
1007.183594,-9.751456,-8.173633,-9.788435,-18.371314
1007.187500,-9.160651,-2.854699,-5.660908,-9.391257
1007.191406,-4.777896,-5.849987,-5.241225,-4.693310
1007.195312,-0.431620,-4.886257,1.242574,1.686974
1007.199219,9.192933,4.753864,2.645034,-5.586617
1007.203125,3.900150,-1.014257,4.818469,1.101167
1007.207031,-6.390778,3.820709,5.965532,3.483379
1007.210938,9.382540,10.815422,1.640587,3.405007
1007.214844,2.139887,18.474857,15.431553,3.329338
1007.218750,9.817303,9.452531,13.897216,5.535891
1007.222656,7.965168,4.369186,10.974558,14.097700
1007.226562,6.328277,12.697379,4.465142,13.144881
1007.230469,5.053565,2.985003,9.607241,-0.956317
1007.234375,7.298144,8.592197,11.502538,10.041523
1007.238281,-1.734181,1.411484,-0.208766,7.615420
1007.242188,6.348604,3.515284,5.711499,5.146547
1007.246094,6.927225,2.792816,2.867682,0.193772
1007.250000,0.570078,1.815833,-2.941682,0.780106
1007.253906,-1.052748,2.943970,5.761011,-10.205732
1007.257812,-4.817072,-5.904393,-4.997570,-10.102446
1007.261719,-6.583379,-2.888524,-4.964776,-16.300141
1007.265625,-11.339750,-3.502330,-9.181270,-8.169481
1007.269531,-8.138045,-7.749076,-17.021867,-7.367960
1007.273438,-6.253839,-17.912663,-15.323849,-1.549199
1007.277344,-9.468399,-10.089066,-13.223633,-17.628391
1007.281250,-6.910156,-10.768470,-6.181152,-3.278584
1007.285156,-10.734591,-3.134867,-5.789527,-8.123547
1007.289062,-4.454667,-4.208382,-1.037943,-1.037717
1007.292969,-3.173639,-0.524189,-9.645640,-6.090668
1007.296875,-5.682564,2.093741,-3.713949,-4.502921
1007.300781,-0.098233,-3.821975,-5.100177,8.413434
1007.304688,8.998618,1.710955,3.976539,3.907722
1007.308594,-1.675273,2.254600,2.818556,2.319470
1007.312500,1.593205,10.691430,9.346601,10.877164
1007.316406,7.002889,0.462293,10.760778,6.724316
1007.320312,6.119601,3.215454,-0.187975,7.211377
1007.324219,20.011430,13.107782,16.903560,11.203593
1007.328125,8.353404,9.491120,4.315071,5.335512
1007.332031,8.161741,13.186042,13.325958,9.028153
1007.335938,3.670154,4.945785,10.922709,3.601901
1007.339844,12.327414,7.869756,3.560719,10.129560
1007.343750,4.535677,3.575210,7.343958,-3.782296
1007.347656,-0.034746,3.886251,-1.434196,0.596530
1007.351562,0.346504,-2.586256,-4.169839,-0.233557
1007.355469,-7.940521,-0.730190,3.656518,-7.330793
1007.359375,-7.690367,-7.152725,-3.829782,-10.952124
1007.363281,-0.647958,-10.686848,-11.614187,-10.431633
1007.367188,-3.853736,-9.020041,-5.718324,-6.697230
1007.371094,-12.180671,-3.459874,-5.744755,-10.831217
1007.375000,-10.435922,-12.952492,-11.260401,-7.845291
1007.378906,-3.077866,-9.922000,-16.864992,-14.814223
1007.382812,-10.628145,-12.059822,-11.439823,-13.555869
1007.386719,-12.956634,-6.375012,-3.802292,-11.387758
1007.390625,-15.543362,-7.006132,-2.514052,-7.941443
1007.394531,-9.241621,1.853177,3.983739,-2.746261
1007.398438,0.217463,4.223436,-3.593538,-1.866742
1007.402344,3.266138,-2.764298,-4.687790,0.473814
1007.406250,0.741003,8.001384,-1.066044,6.965292
1007.410156,7.745495,5.152174,2.883484,11.875626
1007.414062,8.313074,8.702337,12.357894,8.350219
1007.417969,5.329836,11.393781,6.061784,0.160550
1007.421875,13.865409,10.942509,9.305033,11.359668
1007.425781,7.039680,3.481397,11.864949,10.518389
1007.429688,14.417702,14.106064,7.344591,20.986159
1007.433594,8.970049,3.546591,12.287516,6.693994
1007.437500,5.340833,7.274642,8.519860,12.196211
1007.441406,0.629561,4.724190,4.468939,5.969174
1007.445312,-1.292486,-4.428048,3.370067,-1.058348
1007.449219,2.314027,-5.588937,-5.959099,-5.374086
1007.453125,-4.553277,-0.413225,-4.013965,-9.126747
1007.457031,-5.895741,-0.200409,-7.571795,-5.323981
1007.460938,0.907514,-13.545627,-11.314394,-10.952481
1007.464844,-12.783388,-6.030112,-9.302667,-1.560667
1007.468750,-6.734653,-6.502121,-3.906743,-9.995342
1007.472656,-12.038381,-10.468922,-10.409955,-8.463299
1007.476562,-9.072564,-5.448898,-3.811991,-8.491479
1007.480469,-8.769831,-6.232303,-6.028656,-12.655226
1007.484375,-7.679291,-7.662878,-3.523853,-11.878892
1007.488281,-10.610467,-14.023386,-5.849191,-7.564046
1007.492188,-3.382606,-4.135624,-2.257496,-7.031614
1007.496094,-8.969227,1.543642,-2.737299,1.083100
1007.500000,-3.900253,-4.214201,2.373141,-1.464101
1007.503906,-5.218841,1.363433,6.276737,10.247824
1007.507812,5.536158,7.895892,2.558531,8.911787
1007.511719,-1.271115,4.789074,14.334620,8.994590
1007.515625,5.507233,4.178669,12.565328,7.974205
1007.519531,4.972318,9.360647,6.338639,4.708537
1007.523438,10.767031,12.473616,9.857621,18.236465
1007.527344,5.290448,9.542004,15.000064,16.513274
1007.531250,6.211682,6.336052,10.756834,13.152656
1007.535156,11.714308,3.304417,5.576428,2.750526
1007.539062,4.638175,-0.190770,4.317194,3.453271
1007.542969,11.352777,10.207762,1.184329,-2.026812
1007.546875,-3.783073,6.034657,10.585841,4.065937
1007.550781,-4.564386,-5.178099,2.207193,-0.015832
1007.554688,-3.613325,5.068630,-8.215489,-2.410645
1007.558594,-0.545397,-6.801181,-5.314267,0.934900
1007.562500,-9.275292,-2.980568,-1.984368,-9.670341
1007.566406,-6.466133,-3.350106,-10.088632,-9.811068
1007.570312,-10.832911,-13.132084,-15.683083,-15.806715
1007.574219,-11.354203,-8.273134,-14.576725,-7.480190
1007.578125,-4.220173,-10.116938,-14.398141,-8.323250
1007.582031,-8.538588,-9.939068,-0.359345,-3.404300
1007.585938,-4.634786,-10.508744,-13.788592,-6.637830
1007.589844,-8.943021,-4.688073,0.747993,-10.525795
1007.593750,1.503875,0.666654,-3.192932,-9.407054
1007.597656,0.340979,-1.926625,1.689062,-4.993847
1007.601562,3.915572,0.330306,-0.111917,0.340503
1007.605469,6.658280,6.493530,2.897338,8.591220
1007.609375,5.005711,5.056458,0.806824,4.818689
1007.613281,3.390137,10.695026,1.435047,0.636236
1007.617188,5.823563,3.134163,6.876768,5.665315
1007.621094,6.561951,10.728081,13.799431,9.535700
1007.625000,8.465531,12.822034,11.297954,7.924565
1007.628906,10.749164,8.930646,18.480326,11.695304
1007.632812,12.766797,16.233575,19.796832,7.307198
1007.636719,7.524871,7.746720,6.637363,7.623533
1007.640625,7.130950,-4.818042,4.031757,11.514335
1007.644531,3.059019,-2.596910,0.957545,5.140652
1007.648438,6.594757,4.101228,13.036804,2.298385
1007.652344,-1.838697,2.637664,-2.270317,1.497382
1007.656250,-2.646482,-6.065491,0.762454,-9.861747
1007.660156,-0.191811,-5.453024,-10.088988,-9.211403
1007.664062,-10.610116,-7.734725,-10.162823,-12.382869
1007.667969,-11.443049,-4.273758,-11.918239,-16.353043
1007.671875,-8.646564,-6.746721,-13.270828,-2.055996
1007.675781,-7.327109,-10.729679,-13.145937,-6.086192
1007.679688,-8.515220,-9.453616,-11.511846,-5.035445
1007.683594,-13.271520,-4.769610,-12.265284,-9.816199
1007.687500,-10.036402,-4.397003,-9.454962,-10.331881
1007.691406,-8.645406,-7.468839,-11.223243,-6.979813
1007.695312,-3.182722,-2.365970,1.083534,1.634765
1007.699219,-0.202788,-6.944544,-1.232416,-6.037351
1007.703125,0.598697,-0.452669,3.144964,2.298766
1007.707031,0.779437,9.881198,-1.257009,6.731471
1007.710938,10.403020,8.905283,8.050626,10.896163
1007.714844,3.158342,9.925801,9.904836,5.640982
1007.718750,8.176966,10.985718,2.514668,8.796700
1007.722656,12.206617,7.746065,15.058645,4.889465
1007.726562,14.748118,7.895687,10.732167,12.392656
1007.730469,5.751842,1.785689,10.741536,18.193804
1007.734375,11.794772,9.081516,10.703849,12.517500
1007.738281,8.845470,14.709353,4.386686,6.757325
1007.742188,7.297036,1.086595,3.168926,6.200031
1007.746094,1.444138,-0.961924,-2.306399,4.324391
1007.750000,-4.785483,-3.661695,-2.414048,3.335611
1007.753906,4.581176,-5.202428,-4.924871,-3.028781
1007.757812,-0.967307,-1.163739,-2.733323,-6.315297
1007.761719,-4.723132,-5.416125,-14.652571,-3.596110
1007.765625,-10.734915,-9.898634,-6.428199,-6.390570
1007.769531,-8.139530,-6.986879,-7.402602,-7.925862
1007.773438,-8.421653,-10.143554,-7.791878,-4.735120
1007.777344,-8.847486,-15.957013,-3.423554,-12.100140
1007.781250,-11.473396,-11.791666,-10.196979,-10.330995
1007.785156,-6.456043,-12.500130,-14.896531,-13.311095
1007.789062,-0.268563,-5.340670,-4.241125,-8.417838
1007.792969,0.409335,-2.369537,-8.127235,-6.477983
1007.796875,-2.105763,-8.055029,-1.430103,-1.019848
1007.800781,-0.803061,5.996796,2.797491,3.834725
1007.804688,2.605415,5.171926,4.394797,4.002179
1007.808594,3.782172,0.338893,0.620682,3.687954
1007.812500,4.005872,8.583858,8.183008,7.178545
1007.816406,10.734443,6.054080,5.688505,5.474897
1007.820312,10.043711,11.995193,8.394031,19.411162
1007.824219,11.134396,11.918419,12.273016,8.582721
1007.828125,9.621276,13.523128,2.617402,6.398172
1007.832031,9.115021,5.500299,6.307337,5.122254
1007.835938,7.712993,8.615459,11.436154,11.076770
1007.839844,10.651782,12.357294,6.391933,9.666295
1007.843750,5.300442,6.996659,5.966227,2.402795
1007.847656,9.448479,-3.053855,-1.535711,1.589261
1007.851562,-2.205665,-3.791208,-6.097812,-4.563391
1007.855469,-6.019968,-1.548343,-7.800635,-2.125343
1007.859375,-1.759325,-9.478234,-9.674932,-7.971560
1007.863281,-10.611155,-2.154452,-9.730566,-10.637526
1007.867188,-3.527566,-5.098532,-6.665665,-10.975513
1007.871094,-16.804629,-13.595483,-12.933065,-8.796866
1007.875000,-13.576002,-10.803650,-15.600627,-11.156649
1007.878906,-2.629560,-19.806096,-10.398748,-14.290663
1007.882812,-9.125794,-15.740412,-11.042375,-11.560054
1007.886719,-6.308027,-8.219415,0.875366,-14.494105
1007.890625,-5.151724,-4.134150,-2.199150,-11.830382
1007.894531,-2.603981,-2.512295,-6.716703,-5.911255
1007.898438,-4.043936,2.765200,1.362975,0.671927
1007.902344,3.865367,4.716980,-6.585770,3.783390
1007.906250,3.824740,3.133738,-0.224383,3.017118
1007.910156,6.412801,2.467938,4.028590,9.685006
1007.914062,7.198718,6.582220,6.527830,3.150564
1007.917969,7.824436,7.343455,8.552661,8.479023
1007.921875,9.431899,6.718156,6.654749,-0.871717
1007.925781,15.491204,5.656397,9.086867,8.404008
1007.929688,6.835332,6.023707,13.737329,6.959937
1007.933594,9.575060,5.738392,7.932791,4.644505
1007.937500,4.347890,8.507346,3.908568,6.441061
1007.941406,15.825234,5.954686,4.623264,8.039094
1007.945312,0.793278,5.813080,1.127509,-0.233785
1007.949219,-6.859941,-4.366130,-0.820667,1.928740
1007.953125,-1.787004,-6.844821,-4.778387,-8.553836
1007.957031,-5.469703,-9.185690,-4.089274,-5.069940
1007.960938,-7.184471,-13.115716,-10.585893,-9.976547
1007.964844,-18.099056,-5.637695,-8.992272,-3.024875
1007.968750,-11.635576,-10.180777,-12.247765,-8.168854
1007.972656,-9.371508,-9.701956,-7.838546,-8.697046
1007.976562,-12.340169,-10.209416,-10.670416,-4.294407
1007.980469,-6.422380,4.772715,-5.280657,-18.477009
1007.984375,-6.826581,-10.538939,2.523719,-7.000811
1007.988281,-9.124337,-14.593051,-7.590002,-5.390559
1007.992188,-12.639730,-11.200261,-1.167132,-0.584591
1007.996094,-1.702545,-11.057439,1.483129,-3.467027
1008.000000,0.093864,6.387867,1.077444,-0.307532
1008.003906,5.027744,-5.222251,2.625375,-4.832662
1008.007812,2.083245,4.372147,10.119752,4.584758
1008.011719,4.500185,6.700657,11.336504,10.937760
1008.015625,2.562845,4.820929,6.870679,6.766500
1008.019531,3.421789,13.433987,10.675403,3.513578
1008.023438,11.226234,3.809501,14.148106,12.294259
1008.027344,15.957603,10.828639,8.326008,7.891769
1008.031250,18.391578,7.286719,7.022301,9.380105
1008.035156,6.409742,3.425690,10.777782,4.139033
1008.039062,10.636459,2.247130,4.928952,7.321351
1008.042969,0.355597,7.610943,8.307872,0.246793
1008.046875,1.416844,-0.274755,-6.656232,-0.481362
1008.050781,0.527956,0.923076,-2.344247,-3.978467
1008.054688,-2.590703,-4.985713,-3.930085,-1.033435
1008.058594,-8.237127,-3.892108,-3.645098,-7.743205
1008.062500,-12.427321,-3.785874,-12.629118,-12.412029
1008.066406,-8.195223,-7.571629,-5.973145,-14.885891
1008.070312,-10.453744,-7.717750,-4.594045,-14.670746
1008.074219,-12.548002,-12.527796,-6.988022,-14.084598
1008.078125,-5.249915,-10.228310,-9.232244,-6.572486
1008.082031,-7.446001,-12.973003,-11.601341,-7.340682
1008.085938,1.590651,-7.317806,-9.321418,-5.330799
1008.089844,-6.676100,0.777287,-5.579571,-5.430013
1008.093750,-7.808489,-6.372659,-0.656182,-3.682934
1008.097656,-0.853418,0.720600,-7.945741,-9.156893
1008.101562,3.630237,8.094446,0.384481,4.051059
1008.105469,-2.827103,5.923017,0.459188,3.390365
1008.109375,9.310625,6.058360,3.335174,5.893123
1008.113281,7.734868,8.359488,6.812648,6.205536
1008.117188,9.586668,9.926540,8.584876,4.786920
1008.121094,7.939594,11.115979,12.110331,4.542779
1008.125000,12.743117,13.693000,6.466060,8.218543
1008.128906,15.026205,13.463726,7.637676,14.408821
1008.132812,7.724512,6.218696,7.744112,12.862624
1008.136719,4.043876,3.416421,4.644086,12.736418
1008.140625,6.462932,4.912817,6.599827,-0.489554
1008.144531,9.164644,4.218494,-5.850890,3.653792
1008.148438,9.563662,5.608074,0.907789,1.075400
1008.152344,-0.991264,1.512610,-0.512695,5.658512
1008.156250,0.443579,-3.946581,-1.881294,-2.145425
1008.160156,-12.980223,-5.752129,-6.961382,-5.992832
1008.164062,-8.231665,-4.240564,-10.386700,-11.342707
1008.167969,-13.686399,-13.138704,-13.179307,-10.684599
1008.171875,-10.361911,-16.114307,-5.093538,-9.623749
1008.175781,-7.446685,-6.164249,-10.289642,-11.031965
1008.179688,-8.890528,-15.357569,-13.810649,-11.766403
1008.183594,-7.974162,-7.260296,-9.713121,-6.902970
1008.187500,-8.491931,-14.358745,-12.704589,-4.680170
1008.191406,-12.504018,-6.364062,-8.674062,-1.634178
1008.195312,-5.801749,-3.654715,-5.002747,-2.231843
1008.199219,2.708200,-1.576705,-2.374090,-1.385180
1008.203125,1.670005,0.406278,-1.377051,2.139253
1008.207031,-2.375649,5.821651,7.228839,-1.049152
1008.210938,7.832339,6.475981,6.140707,13.503508
1008.214844,-0.860950,2.382705,11.229887,7.435598
1008.218750,8.328241,10.654418,5.407278,8.322766
1008.222656,13.235398,12.951254,4.446868,7.689695
1008.226562,13.450355,13.978043,7.966721,11.009998
1008.230469,10.010370,9.918559,7.252411,6.831106
1008.234375,10.442756,9.372269,10.196280,6.917781
1008.238281,3.688701,9.755355,6.022033,5.742202
1008.242188,2.085015,7.908024,1.524524,8.746049
1008.246094,4.532145,4.929083,4.289964,3.938860
1008.250000,-3.100133,-4.262526,1.185208,2.189243
1008.253906,-1.341905,1.996324,-3.038654,-4.509869
1008.257812,-6.213378,-9.022753,-2.498680,-8.098400
1008.261719,-5.485090,-2.828267,1.906709,-7.232652
1008.265625,-5.944370,-14.496739,-7.619107,-12.528628
1008.269531,-9.708453,-7.027065,-10.228818,-8.014140
1008.273438,-12.272980,-11.764455,-12.559522,-12.943216
1008.277344,-14.579270,-11.392422,-5.303285,-8.594837
1008.281250,-14.282938,-7.568840,-6.179900,-1.973335
1008.285156,-9.437529,-4.626581,-12.759600,-11.003876
1008.289062,1.808171,-12.466399,-5.666562,0.278196
1008.292969,-2.993256,-2.781042,-6.107145,0.702144
1008.296875,-3.199579,-6.279831,8.603256,-1.445526
1008.300781,-0.646656,-4.862215,-2.379751,0.988445
1008.304688,3.324368,-0.023683,6.309259,7.191876
1008.308594,9.388291,3.067077,3.771017,7.709936
1008.312500,8.055082,4.517348,3.748256,3.630243
1008.316406,5.341308,7.365853,15.775599,6.479379
1008.320312,7.771525,8.594068,16.049191,9.931182
1008.324219,10.220713,16.987272,11.136801,12.384725
1008.328125,5.731300,15.227066,11.762582,9.525897
1008.332031,8.273788,6.460993,13.896373,1.718520
1008.335938,-1.205371,8.217476,7.337725,0.276810
1008.339844,6.639630,-2.285471,5.657448,9.982846
1008.343750,-0.198636,4.545305,5.537429,1.096955
1008.347656,-2.769535,7.632378,1.394159,3.615002
1008.351562,-1.765735,0.058570,-2.633823,-6.908400
1008.355469,-9.331609,4.080963,-7.615508,-0.225846
1008.359375,-10.211967,-11.302599,-6.000711,-2.542125
1008.363281,-14.781278,-1.401674,0.503449,-6.731087
1008.367188,-18.864573,-10.204753,-14.388097,-1.374706
1008.371094,-3.516784,-16.552615,-12.643633,-10.113583
1008.375000,-9.577177,-10.439524,-9.575507,-11.339104
1008.378906,-7.637890,-16.928897,-10.542391,-8.741822
1008.382812,-4.344240,-4.556104,-3.238976,-6.747172
1008.386719,-6.949395,-6.870743,-3.275772,-7.366982
1008.390625,-15.193072,-0.296916,-8.521877,-2.042641
1008.394531,-5.728694,-3.643484,1.767403,0.327477
1008.398438,-0.611444,-3.686818,-0.356648,-6.152379
1008.402344,11.522423,-0.133280,-1.936506,-1.042651
1008.406250,5.348100,9.285173,4.816285,-1.088704
1008.410156,-0.502069,2.381201,7.625175,1.418534
1008.414062,8.444684,16.238988,11.204223,8.539357
1008.417969,7.246916,5.833480,-5.225697,11.687239
1008.421875,3.375261,2.418408,6.667968,7.264224
1008.425781,20.273417,10.894189,10.357054,10.545416
1008.429688,12.446287,9.823721,2.704452,11.265568
1008.433594,5.014092,8.075412,3.188572,10.682988
1008.437500,2.695595,8.533630,8.959857,13.680320
1008.441406,1.143799,9.280066,8.228144,5.600114
1008.445312,10.198116,1.145199,6.591630,-2.768798
1008.449219,2.116257,-4.206381,2.500821,1.807170
1008.453125,-5.128257,-9.831346,2.743826,10.909129
1008.457031,-7.746819,-6.768009,-2.084887,-6.942556
1008.460938,-6.796558,-11.369507,-4.611123,-13.643024
1008.464844,-5.831706,-8.882217,-12.791369,-15.526951
1008.468750,-13.138814,-14.478275,-17.128772,-6.325864
1008.472656,-15.419782,-4.198343,-7.751737,-12.908841
1008.476562,-11.032829,-13.457883,-16.180344,-6.088513
1008.480469,-8.307724,-8.150927,-3.624510,-1.860816
1008.484375,-10.533491,-10.115697,-9.040405,-9.625615
1008.488281,-5.455247,-8.266771,-3.201538,-12.197110
1008.492188,-0.570802,-0.539143,-5.062327,-7.909729
1008.496094,-6.319943,-6.390622,-7.972824,-4.020297
1008.500000,0.086699,-4.625146,2.198172,-2.921434
1008.503906,6.821810,2.061822,7.502861,7.369447
1008.507812,0.609476,10.618539,0.123800,9.489399
1008.511719,7.681581,10.281175,4.001012,6.841139
1008.515625,10.539548,6.952695,10.044103,10.020481
1008.519531,9.415899,12.446712,11.473455,3.247452
1008.523438,7.213257,7.766593,1.716327,11.120291
1008.527344,3.900480,14.281253,5.736166,7.663431
1008.531250,12.844966,7.748175,2.168356,12.816794
1008.535156,8.215527,19.890425,5.149674,4.625400
1008.539062,5.232420,9.249346,4.373556,1.623496
1008.542969,7.100093,4.105612,1.267056,2.284459
1008.546875,0.139528,7.446493,-0.405644,-3.284070
1008.550781,-1.529077,7.167154,-5.214325,4.451154
1008.554688,-6.632028,-2.341840,-2.369165,-3.926172
1008.558594,-8.853077,0.285851,-7.737582,-8.256058
1008.562500,-9.264035,-6.096787,-5.487379,-8.272827
1008.566406,-4.313298,-11.487430,-12.032211,-14.134494
1008.570312,-6.849396,-10.955784,-9.158848,-11.809562
1008.574219,-13.325575,-9.803883,-5.002469,-6.344150
1008.578125,-14.657344,-13.535941,-6.854068,-13.859712
1008.582031,-7.587973,-4.733005,-5.222677,-8.328787
1008.585938,-4.438169,-2.019362,-1.974783,-14.774182
1008.589844,-1.205332,-9.388928,-10.180024,-13.004987
1008.593750,-3.929043,-5.149793,6.544981,2.803561
1008.597656,3.639464,-5.629244,1.509323,2.623983
1008.601562,-6.912510,-4.454414,3.779623,3.939883
1008.605469,-0.534832,0.055655,7.664728,-3.139516
1008.609375,10.754756,8.877047,4.476985,3.986505
1008.613281,3.414360,8.670870,9.457098,5.617954
1008.617188,3.471355,10.528951,13.837850,11.468617
1008.621094,3.137134,17.519397,8.910153,16.918778
1008.625000,6.748009,9.572798,3.777931,12.820634
1008.628906,6.347643,11.696281,13.842727,8.734447
1008.632812,7.580486,13.945141,7.246036,6.170939
1008.636719,5.684758,19.608138,6.990593,11.184715
1008.640625,-1.451937,4.570515,6.788106,11.004197
1008.644531,4.888570,11.192700,-4.282837,4.517887
1008.648438,5.302025,-2.626489,-0.089625,0.415419
1008.652344,-6.657041,-7.637336,-5.561895,1.732141
1008.656250,-5.513447,-2.290004,5.043326,0.797779
1008.660156,-1.556317,-11.605128,-4.024750,-9.859783
1008.664062,-12.622891,-14.237514,-7.836747,-8.537883
1008.667969,-2.210149,-8.327302,-13.072499,-8.479837
1008.671875,-14.298790,-7.691079,-10.617779,-8.131685
1008.675781,-15.000639,-14.126833,-16.373046,-5.863312
1008.679688,-15.828532,-9.590187,-9.031582,-5.024195
1008.683594,-4.127935,-9.381227,-10.140039,-4.437345
1008.687500,-4.273925,-11.141727,-6.060325,-6.138367
1008.691406,-6.417657,-1.314162,2.486085,-11.829748
1008.695312,0.862413,-3.495058,-7.506833,-3.466495
1008.699219,-4.321550,-1.804457,0.601535,-2.981091
1008.703125,0.361585,-1.958706,-1.233689,1.616992
1008.707031,10.735985,-0.849600,8.699381,7.422528
1008.710938,8.953143,-2.756872,4.014825,7.842797
1008.714844,1.776021,11.030527,13.970456,5.076118
1008.718750,9.660896,5.383560,10.828692,5.600976
1008.722656,12.734968,8.692746,9.445969,12.761100
1008.726562,6.752294,9.022232,2.988993,7.500516
1008.730469,9.804244,12.336243,10.153713,6.671543
1008.734375,5.360818,12.543173,7.478140,5.308029
1008.738281,5.171624,10.823513,10.266725,4.034201
1008.742188,9.827258,10.574434,5.698394,3.781714
1008.746094,-6.640647,3.051377,2.644228,1.421470
1008.750000,0.174465,3.570909,-1.042136,-1.596901
1008.753906,3.720564,-0.178624,-1.003574,2.615095
1008.757812,-1.058623,-8.846129,-3.079141,-9.447754
1008.761719,-12.990782,-8.815533,-7.315898,-7.225832
1008.765625,-6.048385,-10.428311,-3.993450,-9.276776
1008.769531,-13.170281,-3.784108,-6.791084,-4.598196
1008.773438,-9.860404,-6.125491,-8.633724,-12.160055
1008.777344,-8.182326,-0.995706,-13.498984,-8.905778
1008.781250,-1.681056,-6.188956,-11.300641,-6.336465
1008.785156,-5.287366,-4.198717,-2.537039,-12.428122
1008.789062,-12.969050,-5.823008,-8.710520,-6.219907
1008.792969,-0.820162,-2.678004,-3.343681,-4.845934
1008.796875,2.620943,0.081656,-6.336935,2.599789
1008.800781,-1.789506,5.000468,2.218306,-4.909993
1008.804688,1.338405,5.786840,4.821495,7.863551
1008.808594,2.902474,2.465075,7.605025,4.134517
1008.812500,1.487243,8.271235,2.616719,6.496557
1008.816406,8.942352,17.710442,13.124503,7.249464
1008.820312,4.642944,7.597078,5.925307,11.491054
1008.824219,8.777921,11.084436,12.766099,12.133865
1008.828125,14.875368,11.764025,8.026236,11.807832
1008.832031,14.325886,6.294971,14.302766,4.155934
1008.835938,9.965650,10.653850,10.818593,7.990043
1008.839844,7.291153,10.265203,1.256863,6.365591
1008.843750,0.843809,4.218672,3.011411,8.301992
1008.847656,0.705241,3.535076,3.651623,0.450982
1008.851562,5.198820,2.438806,-4.770889,-1.107571
1008.855469,-5.671804,-3.332052,3.058020,-8.961080
1008.859375,4.188672,-3.685180,-10.440254,-5.401170
1008.863281,-0.879234,-6.848968,-13.940303,-3.173138
1008.867188,-3.871712,-7.572219,-5.017588,-11.925071
1008.871094,-8.738019,-2.755077,-15.202843,-10.030995
1008.875000,-3.257011,-15.019257,-5.122408,-8.367776
1008.878906,-9.141771,-2.155989,-9.118946,-12.152549
1008.882812,-1.036048,-9.159999,-6.744263,-7.043496
1008.886719,-1.486686,-6.195880,-7.037333,-12.662513
1008.890625,2.756864,-9.836067,-3.876884,-10.740038
1008.894531,1.683122,-4.086354,-3.348888,-7.128582
1008.898438,-6.943377,-1.167269,-4.226703,1.432920
1008.902344,4.826654,5.736906,2.011751,4.286307
1008.906250,1.497486,-2.799737,1.783399,8.399188
1008.910156,-2.768610,2.971720,3.946710,5.673097
1008.914062,5.373855,7.581044,10.226001,9.109484
1008.917969,6.727825,4.298451,18.376326,4.516143
1008.921875,0.502914,10.398369,14.259028,11.438344
1008.925781,8.489313,14.858544,11.923440,14.493861
1008.929688,15.625059,11.499901,2.752871,8.242426
1008.933594,8.003615,10.989720,5.968650,2.159380
1008.937500,-3.475600,5.277852,4.891404,8.312476
1008.941406,6.351276,11.265603,2.584743,6.432264
1008.945312,4.874135,0.772609,5.973030,7.492635
1008.949219,-7.978740,-0.084758,-9.315593,3.232547
1008.953125,-6.955552,-5.272381,-3.249949,7.101307
1008.957031,0.467085,-3.401220,-7.238208,0.162235
1008.960938,-7.022423,-7.027848,-8.831253,-0.924233
1008.964844,-10.720020,-8.920714,-8.392483,-6.809844
1008.968750,-11.544536,-14.530102,-4.745072,-9.190781
1008.972656,-13.702878,-11.090467,-7.625943,-12.992389
1008.976562,-13.865884,-11.437697,-10.760052,-8.689272
1008.980469,-13.366478,-6.680028,-12.782536,-9.191014
1008.984375,-6.420690,-10.446551,-6.675685,-10.377002
1008.988281,-11.961191,-10.660745,-7.873529,-5.137919
1008.992188,-3.175011,-3.937479,-3.389007,-6.999453
1008.996094,-3.295708,-5.781714,-2.795199,-1.635207
1009.000000,-5.126054,-4.848310,-3.462741,0.185236
1009.003906,8.493965,5.671654,1.719929,1.269959
1009.007812,9.651111,12.233190,7.715086,5.887215
1009.011719,13.538381,-4.848802,2.834685,7.312168
1009.015625,11.276429,-1.990151,10.358437,13.160281
1009.019531,6.332396,8.618962,8.010593,8.120208
1009.023438,11.050440,2.955375,7.196668,2.710253
1009.027344,10.104526,10.546303,22.804529,9.878697
1009.031250,8.636803,7.432288,4.823015,14.804786
1009.035156,4.317381,11.260931,8.913486,3.570676
1009.039062,6.474515,7.829919,7.232244,15.957271
1009.042969,2.695760,5.418724,6.054253,7.189918
1009.046875,3.939816,-1.077920,6.740525,2.902777
1009.050781,6.889654,-7.304676,-2.550065,0.477543
1009.054688,2.515064,-3.532051,1.602393,-10.330288
1009.058594,-4.286697,0.038143,-1.446844,-4.044031
1009.062500,-6.666956,-9.050508,-10.432022,-2.114628
1009.066406,-5.960978,-7.511716,-7.993911,-5.691764
1009.070312,-11.431796,-13.348876,-14.696707,-11.244252
1009.074219,-6.960306,-5.525085,-6.756531,-8.950990
1009.078125,-6.021606,-9.136681,-6.345512,-15.481578
1009.082031,-3.834484,-11.436444,-3.864853,-12.208715
1009.085938,-5.416924,-4.986718,-6.063798,-1.458953
1009.089844,-5.962624,-2.911313,-6.804050,-7.944527
1009.093750,-3.117187,-5.899371,-0.556844,-1.274982
1009.097656,-2.972752,-1.184040,-4.670879,-5.672230
1009.101562,4.930305,-0.146120,-3.204944,-3.728732
1009.105469,-0.860103,7.628924,5.040378,3.114095
1009.109375,12.536799,7.594014,1.229499,7.311400
1009.113281,5.336355,6.035087,8.496171,5.419419
1009.117188,10.495975,8.393664,7.579378,14.072707
1009.121094,6.190335,9.894433,7.352470,7.415217
1009.125000,13.767308,14.580376,13.079448,12.080980
1009.128906,4.455140,8.210201,11.063483,4.969916
1009.132812,11.382545,7.400970,10.598258,3.554231
1009.136719,13.437787,7.321553,12.888412,4.005369
1009.140625,4.297990,5.802973,8.142272,10.523750
1009.144531,8.147341,9.400252,12.465889,3.130683
1009.148438,2.139188,6.188435,-3.058210,2.775107
1009.152344,-4.429963,-4.859047,-7.744799,-2.679842
1009.156250,-7.041372,-4.178005,-3.440608,-5.972250
1009.160156,-11.445243,-3.958864,-9.806076,-7.494423
1009.164062,-7.632180,-10.310187,-5.961754,-7.875686
1009.167969,-9.267971,-1.775368,-15.451526,-15.031393
1009.171875,-11.650592,-12.201478,-2.429172,-15.840668
1009.175781,-11.724424,-13.257466,-13.339625,-3.841142
1009.179688,-7.725721,-7.241734,-9.570255,-8.561458
1009.183594,-9.629937,-13.762144,-6.768409,-8.929546
1009.187500,-9.064027,-7.758006,0.290819,-9.060082
