timestamp,TP9,AF7,AF8,TP10
1000.000000,0.700138,4.061831,-2.403322,1.564034
1000.003906,5.921115,-5.573955,-2.114704,0.871141
1000.007812,10.460642,2.867390,7.263658,-2.307530
1000.011719,-0.896064,3.470839,6.996915,10.385151
1000.015625,8.177078,14.864307,11.786835,8.416500
1000.019531,4.618806,11.952318,9.800939,8.392902
1000.023438,4.817073,10.173803,5.335599,14.143387
1000.027344,13.282334,15.000081,8.951653,6.162701
1000.031250,9.774363,6.874715,8.076493,5.898331
1000.035156,7.844353,10.897331,4.139036,1.782453
1000.039062,3.452453,7.370113,6.728246,12.482817
1000.042969,6.078106,-3.675271,6.036107,5.587194
1000.046875,2.704633,-2.000923,-6.428697,1.639676
1000.050781,-2.081328,0.080711,-1.479001,-3.183406
1000.054688,0.536023,-11.499749,-0.660544,-14.069442
1000.058594,0.226372,0.165670,-9.278171,-8.868154
1000.062500,-11.458983,-3.711779,-9.992719,-13.954603
1000.066406,-4.409158,-12.436631,-11.698106,-4.835454
1000.070312,-5.555065,-9.339573,-4.099371,-7.093472
1000.074219,-11.948896,-10.259557,-7.918907,-12.618604
1000.078125,-13.517070,-9.619097,-15.438731,-6.028387
1000.082031,-4.205316,-5.532322,-0.996004,-12.399920
1000.085938,6.538986,-9.650452,-7.145132,-7.542957
1000.089844,-5.593598,-8.122687,-12.043679,-4.920312
1000.093750,-2.897257,-4.338063,-1.180599,-0.550205
1000.097656,-9.545603,-7.104051,2.643352,6.240287
1000.101562,0.817590,2.624395,0.738897,-4.309715
1000.105469,10.038562,5.319325,0.140307,3.604020
1000.109375,4.900630,-2.477016,2.937402,9.584274
1000.113281,1.924062,8.092834,5.691399,5.596663
1000.117188,8.477659,12.915941,6.405145,13.660181
1000.121094,10.309264,2.963128,5.156107,9.718853
1000.125000,21.187944,6.989805,1.185439,17.348923
1000.128906,-0.742017,11.023267,5.943723,13.342649
1000.132812,8.236239,5.528894,10.138176,9.674730
1000.136719,6.334233,3.311848,4.602124,8.398424
1000.140625,1.676466,4.396811,2.303115,16.798759
1000.144531,8.658202,1.066925,-3.116837,-0.899343
1000.148438,3.214566,-0.933445,-1.593797,-2.252378
1000.152344,-6.581092,-0.136044,1.052296,-0.855903
1000.156250,-13.780412,-3.249998,-2.601599,2.822759
1000.160156,-9.795559,-6.191747,-2.260528,-8.753166
1000.164062,-5.243516,-8.188757,-12.946241,-8.173588
1000.167969,1.514252,-11.537897,-10.184841,-14.781191
1000.171875,-7.199514,-7.937306,-15.823066,-1.401896
1000.175781,-4.999310,-8.709519,-9.053542,-11.099412
1000.179688,-14.879419,-5.955967,-13.915915,-9.448975
1000.183594,-11.972146,-4.934769,-13.133350,-9.420896
1000.187500,-6.935745,-12.346306,-9.901427,-14.006446
1000.191406,-4.759091,-0.752994,-10.820705,-5.768464
1000.195312,2.186897,-3.057558,-12.148340,-7.358135
1000.199219,-6.267088,5.102077,1.627277,0.847324
1000.203125,-1.914913,1.585178,2.197508,2.254590
1000.207031,8.955277,9.953710,10.534377,1.913243
1000.210938,11.954251,10.577459,8.556870,10.614428
1000.214844,3.764651,9.269535,10.183542,2.975719
1000.218750,0.646783,13.624500,8.863956,-0.186366
1000.222656,14.698598,14.839183,12.779993,1.431762
1000.226562,15.809978,7.289591,13.566498,16.312422
1000.230469,11.541777,8.108411,3.728012,8.880576
1000.234375,-3.341307,9.897100,7.236808,12.409063
1000.238281,9.658079,14.647297,9.793612,10.793953
1000.242188,7.773063,7.374630,4.991618,11.320035
1000.246094,6.229838,13.589689,4.049378,3.013306
1000.250000,2.172752,4.617651,-7.527462,3.196663
1000.253906,-7.956066,9.012409,-4.532595,-7.096513
1000.257812,-5.278481,-6.530171,-7.362691,-10.387623
1000.261719,-7.879397,-9.723081,-9.289694,-1.834014
1000.265625,-10.593370,-6.553887,-10.562552,-6.238486
1000.269531,-2.864877,-5.453254,-4.004894,-11.405808
1000.273438,-11.219145,-10.115070,-4.081852,-13.897485
1000.277344,-10.670497,-13.951908,-14.575785,-2.886102
1000.281250,-16.675259,-13.478255,-8.564909,-10.162407
1000.285156,-7.023251,-7.584531,-10.361355,-9.815178
1000.289062,-4.228647,1.923288,-3.628735,-4.699669
1000.292969,0.368820,-0.224477,-5.521411,-3.286775
1000.296875,-11.906189,-5.832480,-6.238996,-1.026203
1000.300781,-4.997913,2.528481,2.204298,-8.879364
1000.304688,4.719055,4.684527,-5.866307,0.310820
1000.308594,1.636925,7.674951,3.485197,6.822360
1000.312500,10.811909,4.485869,5.397850,7.232732
1000.316406,8.161105,6.911489,10.999438,7.624621
1000.320312,11.856087,7.106942,2.133559,5.748757
1000.324219,11.363344,10.548262,9.484460,13.662090
1000.328125,5.189703,14.883149,10.674825,8.798080
1000.332031,7.307382,7.473965,16.736967,10.391477
1000.335938,0.958759,8.234203,-1.442493,9.973653
1000.339844,-5.344755,2.688993,5.856430,-0.062529
1000.343750,5.235545,9.440948,2.100623,3.138788
1000.347656,2.701703,-2.163379,-0.065097,0.389551
1000.351562,0.170466,0.190597,3.482391,-3.157161
1000.355469,-5.868680,0.033502,-0.344596,-1.904219
1000.359375,-2.152609,-4.390686,-1.795332,-7.142370
1000.363281,-7.461556,-12.406095,-11.664995,-11.317149
1000.367188,-10.094705,-7.232592,-6.446999,-11.406418
1000.371094,-11.335604,-7.343029,-6.985475,-9.917531
1000.375000,-6.376512,-17.319942,-4.494221,-18.256030
1000.378906,-11.897006,-2.306200,-8.173040,-7.546437
1000.382812,-13.050480,-11.159527,-11.133447,-5.255622
1000.386719,-2.764038,-0.238242,-5.385746,-14.270294
1000.390625,-7.738923,-2.104630,-9.567298,-4.600930
1000.394531,2.040309,-6.158685,-5.000556,0.751192
1000.398438,-1.617700,-0.648968,1.808183,4.205189
1000.402344,-3.413532,-3.993228,-0.982830,8.146899
1000.406250,5.701186,5.950213,11.516601,7.508956
1000.410156,-3.126056,6.417774,6.389602,7.478011
1000.414062,1.767945,11.411724,5.458788,3.837015
1000.417969,17.093651,10.781287,5.932531,6.718190
1000.421875,2.327054,12.479604,8.816942,3.013977
1000.425781,12.241814,8.243846,12.359386,10.268261
1000.429688,8.146533,11.621464,9.412878,11.516473
1000.433594,7.889052,12.631347,14.905113,8.087374
1000.437500,8.520629,9.570317,7.696120,9.120459
1000.441406,3.290303,10.759329,11.111502,2.201734
1000.445312,5.923986,3.450249,4.419833,4.588189
1000.449219,0.901657,2.856376,1.952017,3.491372
1000.453125,0.267086,-2.481648,-3.179579,-3.499889
1000.457031,-5.860839,-6.174192,-4.864274,-5.561676
1000.460938,-8.531164,-8.214663,-13.714708,-1.740989
1000.464844,-12.821876,-7.591677,-12.133534,-6.030260
1000.468750,-5.046918,-7.869174,-10.085637,-6.048975
1000.472656,-5.023280,-9.104950,-2.906139,-14.231206
1000.476562,-10.085823,-14.624006,-14.521582,-4.408327
1000.480469,-16.645718,-3.622371,-10.856110,-9.248297
1000.484375,-6.925726,-7.384880,-10.520253,-12.197707
1000.488281,-6.849978,-5.325975,-4.785022,-6.809394
1000.492188,-7.108506,-0.878878,-1.960266,2.820350
1000.496094,-1.948111,0.755680,-1.604470,5.161460
1000.500000,-13.021760,-4.794389,-1.995765,2.097108
1000.503906,6.002398,3.647794,-4.967437,-0.497959
1000.507812,2.446083,3.167263,-1.199064,4.024812
1000.511719,5.752046,5.815456,5.866405,2.148727
1000.515625,6.029038,5.803423,7.694249,0.277939
1000.519531,10.178592,9.741138,12.386826,9.964191
1000.523438,4.738909,8.139083,12.379332,14.656923
1000.527344,18.757986,6.267265,7.152203,6.744491
1000.531250,11.725078,15.022067,5.228127,1.991290
1000.535156,4.598269,10.025446,9.103877,16.224348
1000.539062,4.676252,3.468691,5.408562,6.726929
1000.542969,0.635892,-1.539669,10.715598,2.918004
1000.546875,-5.417640,4.925629,-2.842497,4.542639
1000.550781,1.592876,0.546190,-2.028352,3.994223
1000.554688,-0.955841,-4.175421,2.739581,-12.376720
1000.558594,-2.411162,-4.649427,-6.417713,-10.757224
1000.562500,-9.342716,-5.109089,-3.482741,-6.820535
1000.566406,-3.843795,-7.556347,-4.829851,-8.359051
1000.570312,-4.968361,-11.749793,-9.508348,-6.771909
1000.574219,-4.753696,-15.465239,-14.106112,-10.612083
1000.578125,-14.036280,-15.426279,-0.461082,-10.412433
1000.582031,-11.645618,-12.008450,-11.878171,-3.167768
1000.585938,-10.827511,-9.854519,-5.231950,-8.313970
1000.589844,-5.662813,-8.139873,-4.649915,-0.740211
1000.593750,-5.403146,-2.474620,-4.551174,-7.766195
1000.597656,5.943580,-7.617111,0.225951,7.372214
1000.601562,-2.125528,-0.139287,3.602301,-2.368885
1000.605469,5.053568,-1.692587,3.492834,2.186969
1000.609375,3.800232,6.601672,-3.483624,4.405377
1000.613281,6.683224,5.789667,5.968062,5.676320
1000.617188,10.396114,8.825966,7.961178,16.750574
1000.621094,6.435860,20.616295,9.425456,2.274379
1000.625000,3.729963,19.330280,5.082272,12.930900
1000.628906,8.168602,2.383382,9.343849,14.853418
1000.632812,8.599119,11.276422,8.481757,9.492222
1000.636719,5.269513,9.897756,10.403089,6.412394
1000.640625,11.211552,6.453983,9.398161,3.720175
1000.644531,-0.033644,4.322429,-3.593237,2.728953
1000.648438,3.468264,7.715190,3.744373,2.186599
1000.652344,-1.719220,0.230538,3.129480,-2.922264
1000.656250,1.044295,-2.164604,-7.086730,-8.126454
1000.660156,-5.377936,-4.902035,-11.359264,-3.858650
1000.664062,-16.320115,-10.930633,-3.936080,-0.613472
1000.667969,-13.010546,-15.862863,-5.015212,-12.143528
1000.671875,-19.279771,-12.509165,-13.545253,-10.663678
1000.675781,-11.621728,-8.834934,-11.988875,-10.575519
1000.679688,-8.306821,-15.730261,-14.148832,-10.637436
1000.683594,-10.225523,-5.602628,-4.249891,-8.021740
1000.687500,-12.523352,-9.337999,-9.626107,-0.477579
1000.691406,0.250397,-8.469291,-8.471257,0.616271
1000.695312,-7.333235,-2.189480,-4.323830,-0.924370
1000.699219,5.758301,-5.327265,-1.710127,-2.878771
1000.703125,8.599541,6.219832,0.576248,5.160069
1000.707031,7.656824,-1.974672,8.990191,3.237719
1000.710938,3.371426,2.634534,6.652775,1.848983
1000.714844,7.270696,14.476854,4.338671,10.946400
1000.718750,12.726779,11.630530,10.828419,5.374449
1000.722656,6.948862,15.877173,7.010102,8.734687
1000.726562,15.159065,5.395759,13.001462,11.886853
1000.730469,6.165306,5.007390,9.283219,14.724049
1000.734375,3.411386,10.515065,6.385251,8.522652
1000.738281,9.497903,7.761756,2.779682,7.410150
1000.742188,4.958592,8.702506,8.091290,-6.541299
1000.746094,1.113326,3.437787,13.360826,-0.026477
1000.750000,-8.666108,5.532538,1.688523,-4.883516
1000.753906,-5.673794,-3.515931,-3.956155,-5.237660
1000.757812,-6.140627,-4.474822,2.182516,1.248954
1000.761719,-4.177389,-0.521561,-3.783536,-1.801739
1000.765625,-9.733977,-9.043126,-5.698971,-1.174160
1000.769531,-7.965745,-6.314869,-2.812452,-10.623919
1000.773438,-6.139441,-12.583726,-5.808353,-10.210140
1000.777344,-10.845012,-10.401669,-11.870471,-12.382684
1000.781250,-7.365125,-5.615868,-9.213013,-1.445591
1000.785156,-8.077860,-12.659738,-18.149471,-9.382822
1000.789062,-4.733032,-12.800668,-13.822049,-4.178395
1000.792969,-2.430703,-2.240980,-5.509472,-0.200023
1000.796875,-9.528042,-0.873191,-2.411062,-2.615542
1000.800781,-2.101024,1.068971,-2.773017,2.221953
1000.804688,3.160869,1.500371,2.330901,-6.016075
1000.808594,6.183558,6.031196,3.686906,10.778004
1000.812500,9.050359,7.301273,4.573790,6.792703
1000.816406,13.985430,10.659918,11.191540,11.656411
1000.820312,12.126442,7.616478,7.932817,1.500323
1000.824219,12.095936,11.511346,14.783306,8.528512
1000.828125,18.285058,4.703698,18.893777,4.495120
1000.832031,7.025190,11.309885,5.694024,5.538870
1000.835938,11.696416,1.825149,8.006769,13.402975
1000.839844,7.971849,8.598764,4.816632,1.089318
1000.843750,7.855307,3.380472,6.465583,-1.630011
1000.847656,-2.946325,6.970086,2.500641,-0.685984
1000.851562,8.805097,-8.175975,0.155609,-3.531480
1000.855469,-3.295089,-7.593301,-5.820665,-5.189717
1000.859375,-6.835240,2.633374,-12.548743,0.608877
1000.863281,-5.074033,-9.209309,-5.374310,-4.038976
1000.867188,-5.729607,-8.526252,-5.397792,-12.134529
1000.871094,-10.427649,-12.124382,-9.983956,-4.866646
1000.875000,-10.183365,-5.343433,-11.264440,-7.695942
1000.878906,-8.415710,-17.172631,-16.402228,-7.325783
1000.882812,-6.671204,-14.016596,-8.305519,-13.567770
1000.886719,-9.181589,-6.422118,-8.392865,-1.014383
1000.890625,-4.211543,-0.987449,-2.437045,-5.976409
1000.894531,-5.225355,-1.356721,-1.614369,2.300053
1000.898438,-1.378709,0.236715,-2.025947,-2.736744
1000.902344,1.799797,-1.514038,-2.442188,-4.202642
1000.906250,3.207817,6.507563,5.506139,10.979793
1000.910156,2.478938,13.919470,7.014332,7.135054
1000.914062,1.233350,6.276896,8.725061,7.353457
1000.917969,3.715636,11.774240,14.249812,10.731633
1000.921875,4.842385,13.724550,9.348424,14.319889
1000.925781,8.382868,7.630451,6.331355,7.243234
1000.929688,14.671820,11.395082,7.926284,17.565529
1000.933594,5.830439,2.861482,12.316352,7.081365
1000.937500,10.149221,3.520019,8.485051,12.895562
1000.941406,-0.748577,8.329158,8.869617,2.626901
1000.945312,10.293594,6.645958,2.468781,2.991677
1000.949219,-0.341444,11.069512,5.518243,-0.525334
1000.953125,-4.519044,0.032491,0.214850,1.986832
1000.957031,1.351063,-2.942051,8.398871,-1.383607
1000.960938,-4.381385,-4.495577,-6.829968,-7.432769
1000.964844,-4.135668,-9.806938,-6.200481,-14.818574
1000.968750,-19.626388,-5.689063,-9.509554,1.286537
1000.972656,-10.227821,-8.653036,-19.088029,-10.346609
1000.976562,-10.277919,-1.531211,-12.701259,-0.372175
1000.980469,-12.181317,-7.233090,-7.205482,-4.822033
1000.984375,-3.778428,-1.921164,-9.850423,-12.935725
1000.988281,-11.459113,-9.517322,-7.091240,-10.902592
1000.992188,-6.084372,-4.897599,-7.641788,-7.102643
1000.996094,-2.407345,0.124164,4.293033,-4.041388
1001.000000,-3.676034,-6.030523,1.319972,-6.871798
1001.003906,2.466614,-4.081965,5.854632,4.470069
1001.007812,7.215300,4.835914,7.149914,9.214001
1001.011719,5.140296,10.474757,14.873772,8.109432
1001.015625,10.631788,8.629341,11.899209,9.876201
1001.019531,3.899881,13.771608,12.260077,6.332355
1001.023438,13.186913,15.602599,9.992067,18.872593
1001.027344,13.738620,15.758671,15.809393,9.392725
1001.031250,2.662048,15.864881,8.518417,16.380423
1001.035156,4.374317,8.774511,13.828369,12.395555
1001.039062,2.310908,10.434731,3.899776,13.546649
1001.042969,7.005283,0.618943,8.444750,3.755836
1001.046875,5.087129,0.597992,0.101155,5.401631
1001.050781,3.564502,3.599623,-4.806532,1.183087
1001.054688,-5.551461,1.672244,-6.207588,-9.873520
1001.058594,-1.325580,-5.499752,-8.511984,1.092102
1001.062500,-0.572727,-7.300813,-1.401651,-6.643091
1001.066406,-10.001434,-8.781998,-11.949126,-8.288994
1001.070312,-6.159377,-12.065185,-14.305976,-8.909020
1001.074219,-9.820420,-3.208473,-2.856683,-13.103514
1001.078125,-8.361949,-11.306450,-2.338431,-10.842986
1001.082031,-6.289373,-9.332638,-11.760436,-11.204620
1001.085938,-6.639875,-5.927776,-7.210342,-3.446733
1001.089844,-2.613253,-3.070470,-2.173671,-9.552467
1001.093750,-3.533324,-6.686883,-9.112559,-5.426375
1001.097656,5.605490,3.034106,-4.285467,-1.157828
1001.101562,0.597780,-0.220642,5.273660,2.286275
1001.105469,10.062116,2.361904,12.953958,9.897009
1001.109375,2.003101,8.914921,10.315227,5.215660
1001.113281,6.359055,6.012356,7.351993,7.229312
1001.117188,11.207512,13.735201,14.334235,9.940630
1001.121094,2.644294,6.471327,12.317005,7.818428
1001.125000,8.831872,12.416293,12.116325,8.322871
1001.128906,9.219253,9.024723,3.640359,5.851522
1001.132812,4.408675,17.822899,3.822883,4.129218
1001.136719,4.751313,13.593209,4.763940,12.109854
1001.140625,4.603443,7.284490,6.482430,7.690864
1001.144531,5.057226,1.944545,6.930542,7.554963
1001.148438,4.611104,11.680491,4.864688,-0.984472
1001.152344,-0.791334,3.581097,-0.028631,-5.271845
1001.156250,-3.230189,-0.961943,0.444368,-7.324740
1001.160156,-7.791009,-2.447401,-1.978748,-5.674431
1001.164062,-8.547588,-8.917430,-11.297976,-3.554925
1001.167969,-10.572010,-5.656117,-8.992559,-6.604597
1001.171875,-11.499953,-14.989230,-16.414958,-14.515617
1001.175781,-18.856861,-11.249036,-11.359346,-18.950755
1001.179688,-8.415471,-8.402248,-1.404318,-10.953791
1001.183594,-4.032948,-12.398301,-3.052028,-10.358143
1001.187500,-5.144017,-9.933092,-6.726769,-14.241953
1001.191406,-7.817774,2.709051,-0.347672,-1.059006
1001.195312,-1.044355,-4.377024,-6.915376,-1.176232
1001.199219,-2.367737,-3.132720,1.459766,-2.391452
1001.203125,-2.004477,0.787118,-3.283039,-0.401009
1001.207031,15.912199,0.935729,6.454040,4.369264
1001.210938,7.423078,4.255032,13.591016,4.837358
1001.214844,2.318170,5.190504,11.171686,6.493085
1001.218750,10.401962,2.539236,10.267811,5.024467
1001.222656,7.407620,8.505379,8.882929,12.703515
1001.226562,7.148130,9.961761,5.777902,9.502789
1001.230469,7.104792,4.863537,4.435302,5.315907
1001.234375,18.512260,6.022950,14.647176,14.582777
1001.238281,12.723102,7.273881,8.919213,4.894596
1001.242188,8.167428,5.264329,2.234107,2.393225
1001.246094,3.747349,0.862438,6.089925,-4.651296
1001.250000,-6.561477,-6.019378,4.575579,-3.338993
1001.253906,-2.807751,-0.129345,-0.784885,-2.372505
1001.257812,-11.479428,-13.966108,-5.911889,-10.509664
1001.261719,-7.635077,-4.937180,-11.605832,-9.634286
1001.265625,-3.639522,-12.793027,-6.849917,-5.313173
1001.269531,-14.116946,-10.422772,-14.618891,-13.143301
1001.273438,-5.380974,-8.807446,-8.957002,-10.638650
1001.277344,-10.988699,-10.646580,-8.809237,-13.417457
1001.281250,-11.358221,-6.507280,-15.438471,-14.675585
1001.285156,-6.421836,-5.730330,-2.234826,-1.202593
1001.289062,-9.712772,-3.554477,-4.823839,-6.655276
1001.292969,-2.602744,5.896145,-0.237601,-8.543637
1001.296875,-3.479327,6.266992,-4.786482,3.740696
1001.300781,-5.025967,-2.307691,2.832476,8.853381
1001.304688,-1.305150,5.103170,0.729723,2.192122
1001.308594,8.073127,3.903625,11.672510,3.494742
1001.312500,7.591807,6.956757,9.773617,5.025073
1001.316406,8.388229,11.886426,7.240838,10.619129
1001.320312,9.448172,8.896949,13.169394,7.790262
1001.324219,14.767789,5.717392,12.203908,7.417051
1001.328125,5.522247,4.826328,4.847677,5.714306
1001.332031,6.832827,4.123092,8.473490,6.902776
1001.335938,9.085056,6.831172,7.173337,5.126615
1001.339844,5.614819,2.309135,2.721830,3.458723
1001.343750,1.862535,-0.174480,-0.003956,9.514653
1001.347656,-2.450666,-5.376662,1.129602,0.294125
1001.351562,-0.806583,-6.980204,0.283492,1.574001
1001.355469,-7.856219,-6.275031,-2.175776,-2.749274
1001.359375,-7.298170,-3.859562,-4.297717,-9.633027
1001.363281,-9.229456,-3.654738,-8.380364,-10.866991
1001.367188,-13.501423,-9.418991,-14.322983,-13.524529
1001.371094,-15.369317,-6.514940,-14.172303,-7.821425
1001.375000,-6.986417,-14.980854,-5.271826,-4.977633
1001.378906,-10.013427,-7.841638,-18.268593,0.438832
1001.382812,-3.414255,-15.029785,-10.198183,-15.532229
1001.386719,-5.810406,-15.389822,-2.092607,-11.107806
1001.390625,-4.401571,2.017434,-8.552751,0.863120
1001.394531,0.831390,-2.882129,-3.816740,0.145216
1001.398438,-9.046291,-8.653206,3.130646,1.739867
1001.402344,2.871197,4.195271,1.084239,1.109345
1001.406250,2.832670,-1.946697,3.874855,3.949045
1001.410156,10.436565,6.053679,2.404734,7.283760
1001.414062,4.237563,3.308000,8.944866,9.796854
1001.417969,5.908947,8.200745,12.423833,12.968440
1001.421875,11.583184,18.105734,13.804489,-1.061130
1001.425781,6.418122,5.262162,15.712910,9.851177
1001.429688,7.914182,7.933541,6.652106,4.812639
1001.433594,4.917754,4.768637,9.772017,5.296399
1001.437500,15.095677,14.076622,10.740602,9.406638
1001.441406,1.167182,6.385441,11.197926,5.130961
1001.445312,1.437205,0.465090,1.104770,6.189149
1001.449219,2.328880,1.198566,-5.994156,3.475321
1001.453125,-1.221078,-0.746792,-6.944680,-1.167006
1001.457031,-15.073501,-4.339062,-1.416756,-11.962618
1001.460938,3.765939,-9.206648,-15.941580,-5.458544
1001.464844,-7.367246,-7.239346,-1.310203,-9.647849
1001.468750,-10.010254,-5.254885,-8.894127,-6.286500
1001.472656,-17.221022,-11.574042,-9.933230,-13.765872
1001.476562,-10.868514,-7.441287,-15.656183,-3.245062
1001.480469,-5.196612,-0.235198,-7.032201,-15.180054
1001.484375,-11.694895,-7.949737,-7.334056,-13.371126
1001.488281,-11.730062,-0.980124,-9.631789,1.880131
1001.492188,-2.898223,-9.792753,-5.807264,-1.181024
1001.496094,-4.876972,-3.092317,-4.091525,-10.536261
1001.500000,-0.637567,-0.537380,4.357883,1.927814
1001.503906,-0.312777,0.423385,2.981588,-9.581141
1001.507812,9.363698,5.531088,15.980119,5.946466
1001.511719,6.045157,12.852494,11.219111,8.939298
1001.515625,11.690193,12.241093,-2.263084,4.315325
1001.519531,11.543051,13.643643,6.080057,7.630435
1001.523438,5.586942,12.682294,9.412345,11.338917
1001.527344,8.598095,4.435009,4.071085,15.374623
1001.531250,10.436109,4.519494,9.566557,7.547332
1001.535156,8.342312,10.946783,9.405352,3.565072
1001.539062,5.173963,7.768974,2.864413,8.412873
1001.542969,-2.684138,1.397419,1.194786,10.074297
1001.546875,2.769512,-3.827374,3.111844,7.382820
1001.550781,-1.359569,-5.302179,-3.123202,5.408921
1001.554688,-3.540095,-4.448613,0.074827,-10.376820
1001.558594,4.422607,-2.555241,-12.175542,-2.208144
1001.562500,-11.989656,-10.248393,-11.990480,-9.524319
1001.566406,-4.478000,-7.341717,-3.482093,-7.035353
1001.570312,-7.192549,-5.534983,-11.913649,-13.136289
1001.574219,-7.736720,-11.532792,-6.767617,-11.386514
1001.578125,-15.052748,-16.015124,-14.796988,-6.856614
1001.582031,-7.314086,-6.865074,-10.095066,-6.255657
1001.585938,-10.972674,-7.646515,-6.855611,-7.767272
1001.589844,-11.618700,-10.836307,-13.598753,-13.966161
1001.593750,-6.710995,-2.105010,-6.264396,-2.092334
1001.597656,-0.970739,-2.093742,-5.950021,-1.650798
1001.601562,9.030829,-0.280516,0.100940,-3.626347
1001.605469,4.515885,-1.403954,-2.448718,12.873662
1001.609375,11.026160,-0.712816,8.236995,9.128221
1001.613281,6.904316,8.630512,5.128064,7.779998
1001.617188,4.467587,1.436434,14.440057,9.853519
1001.621094,14.479817,14.046266,12.898951,7.939807
1001.625000,12.871777,7.602516,10.873094,22.760277
1001.628906,10.518019,6.306520,8.382016,6.061861
1001.632812,11.661845,4.254542,3.509852,5.852327
1001.636719,4.741048,-0.044703,9.369541,3.196074
1001.640625,7.638372,1.904488,9.102644,3.208575
1001.644531,1.483496,5.292221,1.983878,4.649980
1001.648438,-1.836051,6.174246,-1.292335,-1.262685
1001.652344,-5.764710,-0.339914,-1.052302,-1.380633
1001.656250,-2.917290,-0.207370,-2.300104,-7.046843
1001.660156,-3.728580,-9.135897,-5.670939,-10.882694
1001.664062,-7.643257,-9.358481,-11.778026,-7.396274
1001.667969,-12.535395,-11.366486,-5.417209,-4.189531
1001.671875,-3.919433,-15.792427,-5.579173,-0.126419
1001.675781,-7.851670,-13.095837,-12.823563,-13.596320
1001.679688,-12.423939,-10.022198,-4.614935,-5.424123
1001.683594,-13.994733,-11.010118,-12.323255,-12.237655
1001.687500,-8.890548,-2.694846,-1.966123,-11.278206
1001.691406,0.545063,-5.281447,-10.381945,-3.561163
1001.695312,-8.436549,-1.669708,-0.907285,2.713700
1001.699219,4.164051,5.720053,-0.755720,-2.888278
1001.703125,10.418778,-1.899453,0.629348,3.798715
1001.707031,5.323249,8.989465,1.628033,4.575651
1001.710938,4.371909,6.287468,-3.242069,9.231481
1001.714844,6.791309,5.859115,1.901868,9.405498
1001.718750,5.041443,10.868514,14.711106,8.115939
1001.722656,5.406746,12.586379,2.343442,11.367269
1001.726562,14.208497,5.868992,8.315135,2.873824
1001.730469,9.943918,10.985082,-0.670506,10.720793
1001.734375,12.890324,13.759540,2.873731,6.839889
1001.738281,9.693379,4.129704,8.103273,2.770591
1001.742188,13.021984,4.829103,1.522956,6.524806
1001.746094,0.565755,6.006146,0.220624,3.139298
1001.750000,0.539915,-6.599465,-8.060133,6.125895
1001.753906,0.325713,-1.977138,-6.634079,0.953371
1001.757812,3.027869,-10.200646,-2.672141,-6.529946
1001.761719,-10.376379,-2.995598,-7.098240,-6.482445
1001.765625,-9.204044,-6.744651,-8.261059,-6.398605
1001.769531,-4.008712,-14.071723,-8.198937,-8.599025
1001.773438,-10.877989,-20.132606,-10.324255,-7.188317
1001.777344,-10.580026,-12.389916,-14.360058,-14.013880
1001.781250,-6.864387,-8.523220,-10.971235,-7.944054
1001.785156,-5.250112,-6.005109,-3.676003,-14.138632
1001.789062,-7.873105,-2.627145,-1.712482,0.892577
1001.792969,0.715757,2.116949,-2.285512,-1.736341
1001.796875,-5.585457,-7.787739,-2.369831,4.004328
1001.800781,-2.895988,-7.485503,-3.058017,-0.169376
1001.804688,7.449781,14.246229,3.769538,3.264773
1001.808594,-4.836577,-1.172665,0.496071,7.494901
1001.812500,14.111679,7.274854,8.981155,7.405619
1001.816406,15.611088,6.293947,11.576429,4.129971
1001.820312,11.038524,7.537164,6.200753,8.917497
1001.824219,7.621276,2.774868,12.338589,11.843740
1001.828125,5.840101,12.107512,17.765391,12.333177
1001.832031,5.176683,6.236385,14.115686,5.264772
1001.835938,-0.258814,6.253891,8.225627,8.526080
1001.839844,11.199132,7.929380,4.900485,-0.363325
1001.843750,2.760550,6.908405,-0.891404,5.943316
1001.847656,-4.492443,-0.149790,-1.176078,-0.483431
1001.851562,2.676898,0.420457,2.388907,4.134815
1001.855469,-7.890019,-6.990515,-1.169494,-1.817108
1001.859375,-9.208672,-1.034723,-7.947918,-9.479015
1001.863281,-2.255055,-8.719134,-1.441331,-15.916009
1001.867188,-9.333337,-3.683498,-9.960617,-9.427318
1001.871094,-10.721073,-10.631895,-12.869086,-4.836563
1001.875000,-9.633990,-10.200134,-11.687255,-8.267838
1001.878906,-15.610770,-14.599675,-15.584087,-12.106829
1001.882812,-9.068441,-8.347406,-15.318259,-7.787936
1001.886719,-5.034485,-6.452680,-3.620613,-7.005948
1001.890625,-5.330175,-4.562114,-1.636858,-10.139501
1001.894531,-2.097093,-3.960972,2.395369,-4.844376
1001.898438,-4.836275,2.898745,-1.708381,-2.009541
1001.902344,-4.127348,-0.230504,-0.188909,4.832133
1001.906250,1.441431,8.653408,-0.358796,2.807836
1001.910156,11.373944,0.639388,2.859788,10.193226
1001.914062,7.326867,9.168718,7.864756,3.760738
1001.917969,12.233564,10.926028,5.538124,7.841787
1001.921875,5.363040,17.680110,1.060405,7.991120
1001.925781,17.465950,8.751629,14.576031,10.253675
1001.929688,3.066885,11.036542,11.618213,3.963419
1001.933594,4.996938,0.926510,-3.401551,17.888889
1001.937500,2.934272,3.521894,12.995300,12.421061
1001.941406,2.477225,9.192570,13.101756,6.040849
1001.945312,6.695243,1.743722,3.825567,6.199284
1001.949219,0.194068,2.342143,2.403148,-0.826858
1001.953125,-8.810813,-0.961030,2.590217,-2.347015
1001.957031,-3.800496,-0.680056,1.064344,-3.612859
1001.960938,-9.661202,-3.849570,-9.578742,-11.345827
1001.964844,-6.285290,-10.747019,-11.594301,-1.531444
1001.968750,-13.055781,-9.147985,-11.160681,-8.274637
1001.972656,-16.596264,-12.176711,-13.021113,-15.461295
1001.976562,-9.385496,-12.702030,-15.527294,-10.385228
1001.980469,-8.679791,-9.656324,-5.338875,-9.073913
1001.984375,-1.913886,-4.394958,-6.030486,-20.229289
1001.988281,-5.287307,-9.083725,-0.846589,-7.933270
1001.992188,-10.433975,-9.293754,-3.294604,-11.218219
1001.996094,-1.980937,-3.538217,-8.840893,-7.485664
1002.000000,-1.370858,-0.581005,6.059810,3.418271
1002.003906,1.456185,1.292295,3.479497,3.638308
1002.007812,3.786025,7.909337,2.685877,2.297423
1002.011719,6.722963,11.343141,2.554092,6.392430
1002.015625,4.991812,9.722854,9.307591,10.815950
1002.019531,3.703251,11.299671,12.942584,9.293445
1002.023438,9.704727,11.095332,11.826110,9.402198
1002.027344,6.443545,7.357116,16.537164,2.753256
1002.031250,13.234717,11.528393,6.642575,10.414442
1002.035156,5.982946,5.369806,7.904045,6.663077
1002.039062,4.877966,5.732159,5.894441,5.592399
1002.042969,-2.030496,5.803441,6.117287,5.547685
1002.046875,7.932223,1.803720,4.157862,2.740688
1002.050781,2.892449,-2.744996,-2.301245,-1.034721
1002.054688,3.174276,-17.339464,-7.096479,-10.014344
1002.058594,-5.252767,-7.502951,-6.030006,-5.992303
1002.062500,-1.580752,-7.715521,-8.940571,-7.087355
1002.066406,-10.711377,-18.519235,-14.759415,-8.202642
1002.070312,-6.206498,-9.492012,4.048741,-15.221250
1002.074219,-4.607435,-7.114760,-12.710499,-10.953587
1002.078125,-7.913199,-2.803306,-1.611953,-7.162402
1002.082031,-10.228067,-8.724197,-11.613430,-16.895484
1002.085938,-11.810463,-2.039805,-16.494771,-11.656360
1002.089844,-10.594999,-10.296682,-5.162339,-5.724525
1002.093750,-2.496896,-11.437074,-9.186891,0.125888
1002.097656,-3.790634,-5.229784,1.423521,1.551204
1002.101562,5.098061,-5.937333,-7.154316,-1.909242
1002.105469,-3.626804,1.720271,7.178812,4.348695
1002.109375,9.299632,2.120015,10.031872,3.684584
1002.113281,8.651876,8.931592,8.221514,6.821447
1002.117188,7.877058,16.478554,8.450911,7.892019
1002.121094,10.996323,6.467241,10.286424,8.852610
1002.125000,8.548755,10.785701,13.771696,10.153775
1002.128906,9.081111,-0.573586,7.228404,9.725489
1002.132812,13.316396,12.159654,9.820347,7.545646
1002.136719,11.081761,3.637340,10.693010,8.111962
1002.140625,1.547829,8.220389,1.191033,0.510223
1002.144531,0.833942,2.327761,11.277831,7.105552
1002.148438,1.203055,11.679712,1.098870,-0.659025
1002.152344,-8.454615,0.674255,-1.848104,-0.974932
1002.156250,-2.718325,-1.981478,-5.869204,-4.546492
1002.160156,-13.822012,-4.832482,-8.983611,-0.768356
1002.164062,-14.393056,-13.280163,-10.618683,-11.930482
1002.167969,-9.506048,-7.237619,-10.828048,-3.982647
1002.171875,-6.464818,-11.329343,-11.422091,-12.725555
1002.175781,-3.635666,-5.548033,-6.490419,-10.480641
1002.179688,-8.298808,-17.992705,-9.858146,-12.162593
1002.183594,-12.099064,-14.413391,-13.015853,-2.554651
1002.187500,-11.031159,-4.614126,-4.071705,-4.619554
1002.191406,-6.661724,0.515688,-10.599834,-3.380928
1002.195312,-1.476301,-6.592235,1.093659,-0.203042
1002.199219,0.798057,-7.477273,1.506354,2.407009
1002.203125,1.481481,-2.885199,-8.528786,2.468257
1002.207031,5.260356,3.694094,-0.364533,6.403721
1002.210938,7.724344,9.530204,5.572566,10.804126
1002.214844,11.350083,7.561896,8.113899,16.336134
1002.218750,13.719686,6.195905,11.858822,11.132091
1002.222656,10.106898,8.013906,6.876587,5.976205
1002.226562,3.853245,18.134145,6.789214,11.391687
1002.230469,10.421583,4.623829,8.997808,9.561422
1002.234375,12.592520,16.220134,7.536043,9.885770
1002.238281,9.217428,1.236055,3.019631,6.983133
1002.242188,5.270141,0.214672,7.258239,0.694654
1002.246094,2.027729,4.872356,0.279680,-3.261540
1002.250000,-1.455434,1.780884,-4.079041,0.948445
1002.253906,1.117225,-1.627354,2.747887,-4.894594
1002.257812,-7.929507,-5.513215,-5.218632,-7.166952
1002.261719,-6.182498,-6.623389,-9.895616,-3.893094
1002.265625,-6.852457,-14.644419,-5.731122,-6.884290
1002.269531,-12.902871,-4.085938,-12.716655,-10.160791
1002.273438,-12.488213,-10.779179,-8.103595,-10.786885
1002.277344,-7.051509,-12.386045,-10.240379,-4.843953
1002.281250,-6.218962,-1.450981,-17.050243,-10.515860
1002.285156,-7.821775,-6.910960,-12.944061,-14.086529
1002.289062,-8.380476,-3.837215,-7.563015,-12.184911
1002.292969,-9.523408,-8.700026,-1.502028,-1.098970
1002.296875,-1.515308,-2.740457,1.458130,-3.177877
1002.300781,2.331348,7.369352,5.973221,-1.464207
1002.304688,11.117374,1.655709,5.614980,3.214819
1002.308594,7.306386,9.614312,5.827073,3.498994
1002.312500,9.900370,10.594219,9.347935,6.904424
1002.316406,9.740989,7.497169,13.187685,7.252023
1002.320312,3.986529,4.389143,14.074308,10.669755
1002.324219,10.020126,9.160303,13.513628,12.393331
1002.328125,7.643037,9.281978,10.602467,5.853534
1002.332031,13.990114,13.454562,11.229584,9.135678
1002.335938,4.103496,4.747870,11.045433,5.913541
1002.339844,10.753601,4.209216,7.396273,6.974318
1002.343750,6.916874,6.745259,2.635820,5.650898
1002.347656,-4.690192,2.891681,2.835590,6.759923
1002.351562,0.791965,2.130460,0.241089,-4.258359
1002.355469,-0.524511,-3.427347,6.217330,-9.378958
1002.359375,-9.654073,-4.160109,-4.773543,-9.446853
1002.363281,-4.761635,-8.300322,-7.492118,-11.127951
1002.367188,-10.783493,-7.070851,-9.687778,-12.113603
1002.371094,-8.235896,-6.860405,-8.717872,-12.366857
1002.375000,-8.977455,-13.694644,-4.785340,-5.869752
1002.378906,-8.590291,-10.298497,-12.706340,-15.117758
1002.382812,-10.116306,-9.418186,-8.165764,-4.376420
1002.386719,-2.357833,-10.909754,-8.671775,-9.108982
1002.390625,-2.830890,4.827607,-2.696861,-4.916365
1002.394531,-3.906400,-2.632502,-2.671572,-2.904374
1002.398438,-5.651081,1.398590,-3.217536,1.337304
1002.402344,-3.420722,-0.590874,-2.755718,-4.133394
1002.406250,-4.210518,-2.902980,6.519033,7.327887
1002.410156,0.670105,3.102016,5.243848,4.339484
1002.414062,9.389869,12.295138,7.793922,9.793319
1002.417969,4.348841,1.720559,8.252789,3.327893
1002.421875,5.931569,15.229932,18.603104,3.373686
1002.425781,9.242920,8.341489,8.899656,14.244575
1002.429688,10.740240,15.388232,6.119579,17.815561
1002.433594,14.142483,9.886667,12.939195,7.485499
1002.437500,3.463168,2.956664,10.933675,14.783195
1002.441406,3.246007,1.248233,2.765068,10.869514
1002.445312,13.209564,8.398475,2.839420,-2.840340
1002.449219,-1.115114,-1.086374,6.934773,2.592813
1002.453125,-7.703151,-5.369950,2.015901,-5.590222
1002.457031,-7.829909,1.187805,6.253977,-0.566679
1002.460938,-6.490808,-9.637113,0.843215,-6.191787
1002.464844,-10.366636,-6.972259,-6.564174,-2.194779
1002.468750,-9.578121,-15.895035,-5.772505,-10.794634
1002.472656,-1.570355,-7.846829,-10.677387,-10.814607
1002.476562,-12.237753,-13.703466,-9.921993,-10.811681
1002.480469,-9.799143,-10.992614,-9.206559,-13.032122
1002.484375,-4.814454,-1.706247,-11.951523,-9.554101
1002.488281,-3.867399,-7.197980,-0.967073,-6.646425
1002.492188,-6.311286,-9.597891,-8.759765,-0.459274
1002.496094,-1.376590,3.874927,1.326683,7.114214
1002.500000,4.812827,3.180059,-3.747844,-4.025976
1002.503906,-3.113795,5.794654,1.545613,-1.545159
1002.507812,2.902354,-0.178886,-1.530384,6.073200
1002.511719,4.183146,-0.242336,5.975726,7.025791
1002.515625,15.899856,5.684335,15.136413,7.484128
1002.519531,10.940703,15.878497,13.688670,8.806017
1002.523438,11.338532,13.192667,13.915573,12.481030
1002.527344,8.228045,15.060245,10.378686,4.428289
1002.531250,12.480274,7.775526,15.693203,11.466344
1002.535156,4.615586,12.383650,9.794641,10.489480
1002.539062,14.244798,7.024676,3.052999,1.613070
1002.542969,8.508489,-4.131615,3.008126,5.774140
1002.546875,-0.432552,-5.674188,1.813083,4.308773
1002.550781,2.521300,-5.999264,1.369115,6.106459
1002.554688,0.379901,-6.758814,-6.107491,1.512595
1002.558594,-4.836221,-1.058011,-4.822268,-1.794649
1002.562500,-7.177086,-4.254869,-4.762163,-2.891848
1002.566406,-5.678389,-7.715733,-7.494588,-12.324940
1002.570312,-11.800343,-7.758154,-8.666911,-8.001576
1002.574219,-12.084552,-12.173027,-10.256751,-10.586794
1002.578125,-5.717230,-6.935366,-9.738653,-11.471786
1002.582031,-6.701725,-11.537151,-8.202642,-9.967749
1002.585938,-2.050873,-4.634506,-5.652767,-5.374399
1002.589844,-6.473215,-4.375791,-11.038575,-8.481955
1002.593750,-8.126509,-5.030325,-7.103538,-6.837000
1002.597656,4.408527,2.234155,1.586258,-3.815021
1002.601562,4.933255,0.629547,11.113063,2.265407
1002.605469,6.612743,4.928483,4.697328,3.586100
1002.609375,5.953935,3.909211,8.637715,-0.400210
1002.613281,7.608219,5.435178,3.038752,6.333809
1002.617188,9.976814,8.196682,2.206704,13.181617
1002.621094,8.864137,15.630108,9.089591,6.041801
1002.625000,8.492993,12.098233,10.339174,4.394926
1002.628906,11.278893,7.440024,6.287513,3.477291
1002.632812,9.441614,19.127954,17.821876,7.291675
1002.636719,4.102657,6.708835,11.188171,11.560687
1002.640625,11.810602,8.309219,3.145850,3.449055
1002.644531,0.361065,2.338788,6.755525,3.822109
1002.648438,1.266477,1.470613,4.965668,-1.371420
1002.652344,-5.725234,-0.734788,4.429240,-2.497801
1002.656250,0.404144,-4.655960,-9.814811,-3.948322
1002.660156,-12.192841,3.901606,-13.786558,-6.508707
1002.664062,-8.250639,-13.899568,-4.029862,-3.602934
1002.667969,-8.168126,-9.286848,-6.288891,-6.881553
1002.671875,-7.278458,-13.804855,-6.591175,-9.993110
1002.675781,-17.373202,-4.591798,-18.297949,-12.753412
1002.679688,-12.018271,-3.802085,-11.711942,-5.869962
1002.683594,-13.245037,-10.250360,-6.003752,-11.119871
1002.687500,-6.029288,-6.066547,-1.955347,-4.257699
1002.691406,-4.928129,-6.622469,0.049540,-1.452870
1002.695312,-2.204999,2.133502,-5.827117,-9.733973
1002.699219,2.683167,3.196210,0.196056,6.115070
1002.703125,3.558265,1.793454,-4.485658,1.875758
1002.707031,4.654801,-1.611467,9.472880,5.204909
1002.710938,3.310799,1.907413,3.522573,5.693277
1002.714844,11.953880,7.821414,4.850703,7.642090
1002.718750,6.175133,4.277053,3.096911,6.733439
1002.722656,13.248699,3.793876,8.516519,4.194037
1002.726562,12.864864,14.645968,7.446237,12.331360
1002.730469,5.996871,9.141244,6.035528,8.034380
1002.734375,3.611159,13.694025,17.094885,6.965650
1002.738281,1.047218,8.649842,0.288940,3.689254
1002.742188,3.807730,5.814139,6.797502,3.493578
1002.746094,5.127951,3.049430,4.169148,-2.837500
1002.750000,-2.047467,-1.686197,1.473673,1.802131
1002.753906,-1.356829,2.048323,-0.388689,0.590202
1002.757812,-2.579526,-1.778713,-5.168291,-12.605051
1002.761719,-7.534105,-4.803684,-5.865783,-8.049072
1002.765625,-13.811943,-6.441630,-8.355615,-9.910104
1002.769531,-7.629179,-8.598302,-4.574893,-7.271031
1002.773438,-12.770226,-7.650389,-8.960036,-12.960699
1002.777344,-12.212276,-8.652787,-9.937434,-8.334576
1002.781250,-16.451521,-8.843045,-4.345464,-4.397554
1002.785156,-9.194818,-12.217005,-8.777014,-11.026040
1002.789062,-5.287757,-5.147432,-4.333602,-10.564678
1002.792969,2.575162,3.520714,-3.929216,-6.629189
1002.796875,4.913253,2.262332,3.107363,-13.930470
1002.800781,1.856866,-3.048941,-5.695125,0.402684
1002.804688,2.232947,5.767184,-0.614113,3.771441
1002.808594,7.471858,8.264051,8.384667,6.752324
1002.812500,5.108416,9.180664,6.940700,8.862618
1002.816406,6.949621,7.839487,4.604590,3.198386
1002.820312,7.145485,9.366467,16.521320,5.774617
1002.824219,12.067468,1.747441,5.827610,6.980538
1002.828125,12.211912,5.127875,10.011782,9.837562
1002.832031,5.863816,10.525740,4.306773,6.531318
1002.835938,7.932223,3.149606,4.189093,-1.473616
1002.839844,5.288725,8.867352,11.254481,10.134732
1002.843750,1.098601,3.003125,-4.556126,-0.700277
1002.847656,-1.648905,3.473660,1.673781,-0.206580
1002.851562,-3.924151,0.629158,8.819874,-8.243385
1002.855469,-4.479899,-1.568124,-0.550648,-6.174670
1002.859375,-6.484457,-13.364431,-6.644474,-1.313637
1002.863281,-4.005818,-11.307901,-8.172884,-3.641254
1002.867188,-10.293256,-7.431167,-13.755483,-9.340624
1002.871094,-10.527110,-8.528278,-7.077219,-7.534350
1002.875000,-7.865160,-9.100530,-14.447057,-12.340807
1002.878906,-7.326274,-18.043550,-6.787052,-8.314645
1002.882812,-14.508483,-7.592242,-10.333003,-5.918034
1002.886719,-4.077212,-2.496465,-10.821335,-10.769927
1002.890625,-7.677611,2.322273,-2.417537,0.907686
1002.894531,-1.824527,-1.844512,-0.923385,-1.303467
1002.898438,-2.992505,-2.561142,-3.078926,-7.310786
1002.902344,-1.472654,6.193437,-1.815434,-2.744783
1002.906250,4.868026,-0.530971,0.002586,6.365340
1002.910156,-0.050000,1.025548,3.713603,2.550851
1002.914062,0.820979,6.110986,7.944764,7.138030
1002.917969,12.747091,9.062924,9.865464,7.121430
1002.921875,11.261926,4.388065,13.939414,9.972653
1002.925781,6.373060,10.698469,9.114918,13.192580
1002.929688,9.688130,9.535837,17.967085,11.035220
1002.933594,12.266273,-0.210692,14.705684,12.829658
1002.937500,2.717540,2.899918,4.816157,10.889965
1002.941406,5.193431,-1.612517,3.814789,10.330625
1002.945312,4.289443,-3.409429,2.052512,1.815113
1002.949219,4.471230,1.982738,3.082453,-0.407925
1002.953125,-5.900403,-5.078150,-1.294919,-2.860018
1002.957031,-3.673183,-8.652131,-6.226949,-0.696749
1002.960938,-5.302036,-4.023161,-11.218445,-12.809007
1002.964844,-2.167934,-10.801087,-7.037412,-8.625336
1002.968750,-14.271508,-10.295552,-9.439959,-8.453371
1002.972656,-13.976657,-10.744746,-9.368236,-11.155560
1002.976562,-6.078970,-3.457365,-13.316888,-14.146660
1002.980469,-6.533277,-10.641771,-3.484471,-11.898169
1002.984375,-10.679343,-12.025427,-13.133363,-11.832396
1002.988281,-14.276672,-5.701996,-10.064599,1.340936
1002.992188,-8.362469,-9.800751,1.128082,-8.865438
1002.996094,-1.157792,-3.241163,-3.833894,-2.222079
1003.000000,-5.139564,1.512222,-8.505467,2.945982
1003.003906,10.109633,5.112995,3.027018,3.216436
1003.007812,4.165273,4.264267,3.522515,11.728475
1003.011719,0.202518,6.728799,6.887245,9.456465
1003.015625,8.707048,6.670126,5.838610,9.436976
1003.019531,5.688124,6.599719,19.566587,8.157898
1003.023438,11.866965,8.458675,5.778904,12.936744
1003.027344,7.890276,7.678572,14.065598,11.584766
1003.031250,3.700187,5.018958,4.025064,6.731413
1003.035156,8.076338,12.874821,11.584395,8.482524
1003.039062,14.868721,6.542442,4.425226,1.629423
1003.042969,9.164880,9.623083,4.859795,10.646428
1003.046875,-0.243421,5.977809,4.646565,-0.228664
1003.050781,-2.031109,3.032775,-0.302420,-3.816394
1003.054688,1.404990,-4.523223,-2.900831,-0.493640
1003.058594,-2.240519,-5.302878,-7.965362,-3.904466
1003.062500,-2.994063,0.580785,0.729025,-10.306630
1003.066406,-11.876166,-3.476021,-7.668653,-8.284165
1003.070312,-15.667867,-6.302684,-8.172579,-5.613564
1003.074219,-10.200835,-7.956517,-10.160434,-3.217475
1003.078125,-6.022647,-10.337146,-6.392430,-11.627151
1003.082031,-6.202331,-7.681834,-12.478308,-9.999955
1003.085938,-9.206383,-9.826005,-13.929249,-1.696752
1003.089844,-6.334594,-2.691531,-3.562237,2.026538
1003.093750,-8.784287,-10.149870,-3.649319,-3.210492
1003.097656,-6.371515,-4.882019,-3.672188,-8.421301
1003.101562,-0.580195,-2.403907,3.304757,-2.662552
1003.105469,4.530611,-0.633686,4.016573,-3.795051
1003.109375,6.840675,6.107841,5.824566,5.039929
1003.113281,13.027529,7.157234,6.354650,3.144752
1003.117188,4.221805,12.009558,12.134710,5.001292
1003.121094,6.100280,6.311495,6.962478,2.671790
1003.125000,3.666438,15.924500,6.622855,4.907615
1003.128906,17.970786,3.441900,12.772807,6.941865
1003.132812,14.358531,11.156352,5.978341,5.610563
1003.136719,7.872040,14.994172,6.581176,14.267483
1003.140625,3.499813,3.304003,6.163284,5.997853
1003.144531,2.686329,7.156487,4.001643,8.424081
1003.148438,0.764515,-0.138233,1.480098,0.522087
1003.152344,-0.764528,-9.855423,-8.200027,-5.935886
1003.156250,-5.005404,0.847825,-7.463860,-2.471956
1003.160156,-4.472348,-7.568723,-15.696926,-0.968651
1003.164062,-12.490218,-2.122263,-5.249982,-9.359305
1003.167969,-5.708160,-18.695810,-3.661094,-6.437293
1003.171875,-8.341080,-8.262194,-15.322255,0.731868
1003.175781,-9.946004,-5.692829,-11.320304,-15.823809
1003.179688,-3.125233,1.365100,-8.811859,-8.469817
1003.183594,-5.725826,-16.511053,-4.001822,-12.736480
1003.187500,-11.608995,-5.464781,-8.490157,1.021993
1003.191406,-2.693408,-10.883722,-13.837848,-2.897735
1003.195312,-1.023672,-1.017216,-1.122715,-7.719533
1003.199219,-2.955818,-0.930453,4.849051,0.603618
1003.203125,6.477158,-2.252664,5.154600,1.086647
1003.207031,-2.903255,8.691159,1.912563,3.359311
1003.210938,4.647664,2.702234,3.519922,4.878188
1003.214844,5.584515,10.945922,2.141925,13.736181
1003.218750,5.629418,16.103268,10.332099,7.773133
1003.222656,14.158318,11.205031,6.347560,13.733482
1003.226562,9.633789,10.752131,9.906370,7.241831
1003.230469,9.970819,2.259207,6.967163,13.404687
1003.234375,11.198096,12.299752,13.275585,5.570123
1003.238281,7.483754,1.936828,-1.201609,7.895992
1003.242188,1.960863,5.612061,3.361877,4.742052
1003.246094,-1.398245,-1.885601,4.934276,1.628174
1003.250000,-1.797641,-2.422061,-0.340335,-1.136829
1003.253906,-2.897794,-3.197014,-0.205257,1.074111
1003.257812,-6.119283,-12.556979,-16.303016,-1.770678
1003.261719,-5.796475,-8.134335,-0.022194,-2.372613
1003.265625,-4.430570,-7.896388,-11.280240,-4.016250
1003.269531,-2.052540,-7.712634,-13.166846,-5.145636
1003.273438,-5.539367,-10.547109,-9.705611,-7.067884
1003.277344,-0.233361,-10.258148,-4.959290,-11.667668
1003.281250,-19.312965,-7.258169,-7.228350,-11.704718
1003.285156,-6.019457,1.531864,-10.749572,-7.428139
1003.289062,-1.314301,-2.284842,-6.373758,-8.194885
1003.292969,-5.417490,-9.700818,-4.003616,0.966128
1003.296875,0.692077,-2.739299,-2.427407,5.411626
1003.300781,1.827594,2.616060,-1.198901,-3.067922
1003.304688,0.077276,5.793711,3.633488,-2.139142
1003.308594,3.643165,9.192466,7.387406,-2.100712
1003.312500,3.720118,7.842908,-6.714684,13.622390
1003.316406,10.472164,10.223851,11.535940,8.842117
1003.320312,9.805876,4.675687,16.374953,14.625244
1003.324219,7.944161,13.126125,11.867484,12.065639
1003.328125,12.649817,12.201781,11.501454,13.492847
1003.332031,9.226416,9.802594,9.697466,7.928570
1003.335938,11.225456,10.977323,-1.561762,9.591396
1003.339844,11.724317,8.547099,6.825346,10.782391
1003.343750,2.173428,-3.913246,0.880146,-1.526270
1003.347656,4.445255,10.145728,0.514773,1.271962
1003.351562,-3.845381,-3.219118,-4.496863,-6.243330
1003.355469,-3.150772,2.543404,-4.346363,-6.578812
1003.359375,-0.587396,-6.845757,-9.415659,-1.257496
1003.363281,-4.501846,-0.277217,-2.174336,-7.281630
1003.367188,-11.289091,-6.676088,-11.505720,-7.306115
1003.371094,-14.467362,-13.487776,-9.314077,-18.597133
1003.375000,-10.121788,-10.808905,-12.595886,-5.909641
1003.378906,-11.214539,-16.205068,-2.144007,-11.356770
1003.382812,-10.310687,-11.092747,-5.409454,-13.126658
1003.386719,-6.987961,-5.975432,-4.578090,-13.848732
1003.390625,-9.687438,-4.429594,-5.867165,-9.593215
1003.394531,-0.449517,-0.868951,-10.075781,-5.317867
1003.398438,-7.766205,-5.086648,-5.485227,-3.729038
1003.402344,2.395652,6.577296,5.821411,4.396311
1003.406250,-3.309863,7.062318,1.828029,0.174667
1003.410156,-1.842636,8.881910,10.292489,8.797066
1003.414062,15.180787,4.660767,8.997334,6.307333
1003.417969,13.427351,9.816872,-0.926449,5.884724
1003.421875,15.253881,16.138101,7.780632,14.657325
1003.425781,6.123537,8.565281,7.564692,7.730402
1003.429688,5.796061,7.519999,10.364325,7.742959
1003.433594,8.278900,3.364270,4.716012,15.184110
1003.437500,16.740141,9.720796,11.589316,6.341884
1003.441406,9.058017,-2.307630,9.954038,2.871191
1003.445312,0.546629,-6.000223,2.081545,1.456007
1003.449219,4.369533,4.289852,-2.211827,-11.941946
1003.453125,-1.794617,-3.993837,-8.549159,-0.412313
1003.457031,0.353380,-11.331669,-0.875924,-1.716570
1003.460938,-6.971812,-12.139711,-6.523272,-5.869649
1003.464844,-0.133190,-13.110729,-15.109113,-6.272072
1003.468750,-10.545046,-11.268914,-2.890075,-13.570669
1003.472656,-10.081888,-12.339895,-6.284688,-8.063807
1003.476562,-14.855424,-10.939273,-11.230555,-20.846023
1003.480469,-8.817091,-10.624170,-10.059645,-7.929748
1003.484375,-9.069949,-5.766395,-6.121894,-6.227385
1003.488281,-4.268206,-6.081517,-6.355596,-7.365921
1003.492188,-7.489678,-4.174159,-5.954199,-6.030186
1003.496094,-2.501791,5.131443,-1.541442,0.161934
1003.500000,1.696943,-1.736062,0.818603,-2.713363
1003.503906,8.360726,9.330863,0.088381,3.511863
1003.507812,5.918855,5.656845,10.225015,0.201784
1003.511719,12.114308,10.441362,13.934045,13.164837
1003.515625,6.535817,12.248212,8.766053,9.638063
1003.519531,12.679361,17.580632,12.409004,9.540962
1003.523438,16.863802,5.698532,11.464275,11.187028
1003.527344,12.494191,12.122899,7.835409,6.817360
1003.531250,3.247657,10.657402,14.181322,13.356458
1003.535156,16.291904,11.299424,13.275937,7.038971
1003.539062,5.555982,6.980142,3.937485,-0.842470
1003.542969,4.415875,-0.547811,2.646238,1.192742
1003.546875,4.136322,3.948359,-0.603820,-4.179978
1003.550781,2.587914,-0.422594,3.154561,2.747261
1003.554688,3.402067,5.752480,5.245226,-6.678120
1003.558594,-5.025341,0.479229,-16.578083,-6.399127
1003.562500,-1.521047,-4.109018,-9.452241,-7.230185
1003.566406,-10.204605,-4.779831,-13.322088,-9.797493
1003.570312,-14.172994,-17.910727,-8.279113,-6.047306
1003.574219,-10.104301,-7.050630,-12.508485,-11.468530
1003.578125,-13.263266,-4.370834,-5.834370,-14.210229
1003.582031,-2.059352,-7.279456,-10.380210,-2.242687
1003.585938,-3.052365,-12.288034,-5.994140,-7.143378
1003.589844,-7.171484,-0.910094,-13.355708,-3.654712
1003.593750,-3.519823,-6.107471,5.001855,-3.113692
1003.597656,-0.243174,4.599027,1.466519,1.746030
1003.601562,2.533207,2.974895,-1.841575,4.727710
1003.605469,5.275902,12.418165,0.439878,-2.131357
1003.609375,0.241942,1.096257,12.545100,2.491474
1003.613281,8.749805,7.984019,10.765340,7.326253
1003.617188,9.561278,11.181609,9.946115,11.152143
1003.621094,7.242519,9.232194,13.806204,4.667372
1003.625000,14.786516,10.627611,8.704710,15.382980
1003.628906,11.762077,6.221266,11.742820,12.668422
1003.632812,5.454744,4.842375,1.858087,10.920533
1003.636719,8.873818,1.024652,6.289317,-0.526694
1003.640625,3.403731,7.290947,4.241362,-2.595746
1003.644531,8.599689,8.397940,-2.622196,3.090349
1003.648438,-5.083687,1.525105,0.151944,10.959377
1003.652344,-0.375292,-4.666426,-0.689872,4.259593
1003.656250,-7.540044,-7.478908,-3.781796,-3.288150
1003.660156,-6.199631,-8.200817,-4.401078,-5.220270
1003.664062,-9.814729,-11.551404,1.298136,-10.155486
1003.667969,-17.350064,-5.044220,-11.564257,-13.632037
1003.671875,-13.954055,-3.500865,-14.160693,-16.888180
1003.675781,-7.854998,-10.175269,-13.307462,-9.377325
1003.679688,-2.935825,-4.635753,-14.785591,-6.891192
1003.683594,-12.362822,-9.086744,-8.340403,-6.046842
1003.687500,4.758831,-4.902632,-2.928901,-5.257315
1003.691406,-7.513638,-12.828114,-2.063401,-5.703087
1003.695312,-0.006354,-2.439742,-1.678974,-5.004777
1003.699219,-2.116992,0.533566,-1.890691,1.631265
1003.703125,1.150665,-0.709704,-2.361291,-0.588965
1003.707031,5.485357,3.602544,-1.236847,7.236903
1003.710938,10.669967,1.256675,4.668151,6.252717
1003.714844,3.545715,7.408832,8.343919,8.317749
1003.718750,2.649874,7.899668,9.507925,7.938526
1003.722656,6.571029,7.140522,8.222603,6.983245
1003.726562,11.149112,6.594510,14.260288,13.896018
1003.730469,4.412046,7.615173,5.582202,5.981816
1003.734375,6.978587,9.781910,6.603097,14.932940
1003.738281,2.342048,2.493235,4.983606,14.331436
1003.742188,11.252009,4.606371,5.760153,3.960983
1003.746094,-1.130832,6.540760,-1.432543,3.123207
1003.750000,-4.491272,-0.835684,6.063155,-1.043262
1003.753906,-4.912045,-6.527457,2.575804,-8.363019
1003.757812,-0.690192,-1.088465,-3.679806,-5.136990
1003.761719,-4.995893,-5.152886,-10.412961,-3.914153
1003.765625,-17.417962,-2.360280,-13.749207,-13.458098
1003.769531,-9.819987,-11.185788,-6.866782,-13.015894
1003.773438,-10.581838,-11.138076,-10.047288,-6.881712
1003.777344,-4.005191,-14.996626,-5.938716,-7.300545
1003.781250,-11.164183,-9.660931,-13.118395,-12.239129
1003.785156,-8.165741,-8.024789,-2.230494,-3.776343
1003.789062,-5.751967,-1.264356,-9.396022,-9.767438
1003.792969,-6.570324,-5.049278,-1.673953,-6.040843
1003.796875,1.403762,-0.614737,5.578060,-5.122685
1003.800781,0.879237,-2.298954,-2.501269,4.085985
1003.804688,12.423353,6.480207,-1.279098,2.121146
1003.808594,7.330681,3.666372,9.989179,9.072658
1003.812500,9.198147,7.037931,12.640360,6.923561
1003.816406,10.947844,0.621227,7.814423,8.554283
1003.820312,13.567370,11.581025,8.758841,14.417576
1003.824219,2.279645,12.288957,7.901032,13.717501
1003.828125,4.138736,5.130582,9.186991,13.235808
1003.832031,11.176779,9.666365,11.653823,9.617997
1003.835938,5.714708,12.321383,15.764124,4.570003
1003.839844,7.830355,3.559038,7.895457,7.981309
1003.843750,3.973337,4.649037,9.309280,7.187979
1003.847656,-0.811139,1.706826,-0.006340,1.394996
1003.851562,-2.359060,-2.931364,2.111028,-5.056249
1003.855469,-4.086309,5.934442,-1.211980,-5.546606
1003.859375,-6.624126,-13.779553,-5.984277,-8.312284
1003.863281,-9.282586,-11.206286,-5.739267,-9.028258
1003.867188,-16.026846,-12.047071,-6.441591,-9.519607
1003.871094,-15.525634,-9.774735,-17.004242,-17.324496
1003.875000,-14.689039,-8.650444,-8.979714,-5.998365
1003.878906,-10.622622,-11.654203,-9.952844,-9.817080
1003.882812,-7.526143,-5.220917,-9.216525,-10.197375
1003.886719,-1.575426,-3.520483,-9.965613,-3.355421
1003.890625,-3.214777,-7.200993,-10.856609,-9.290634
1003.894531,-4.996664,0.445958,-3.974090,-2.204100
1003.898438,-3.480676,-1.093623,0.970385,-3.710877
1003.902344,-3.903756,1.686923,7.828895,8.530879
1003.906250,3.299486,0.461777,5.109728,-3.194071
1003.910156,7.711658,7.950357,9.359538,5.626455
1003.914062,15.560428,17.350530,6.425819,11.293555
1003.917969,10.121548,12.800144,13.065126,7.848719
1003.921875,10.651943,13.907230,6.386479,13.195869
1003.925781,12.544134,13.603876,12.541631,17.479709
1003.929688,5.663093,7.623007,5.601860,11.043799
1003.933594,9.301431,2.659692,5.964888,1.734438
1003.937500,8.036350,9.384914,8.610702,4.919079
1003.941406,4.938361,9.182528,6.839044,-0.115336
1003.945312,-6.221366,3.255036,0.744726,8.187160
1003.949219,7.576728,-0.271118,-5.409210,1.996120
1003.953125,-2.498098,-2.820983,2.884237,-3.207626
1003.957031,-1.796201,-7.919583,-9.413342,-7.218764
1003.960938,-5.263164,-8.274556,-6.013630,-7.174572
1003.964844,-12.823625,-5.803434,-2.886316,-10.849570
1003.968750,-2.449857,-5.312823,-3.118049,-15.987171
1003.972656,-18.948581,-8.666132,-11.470794,-13.597193
1003.976562,-14.899340,-2.630236,-4.663908,-12.425257
1003.980469,-12.799356,-6.180007,-11.638471,-15.342157
1003.984375,-11.543307,-5.561769,-9.909530,-15.358864
1003.988281,-11.802031,-5.402615,-6.425975,-6.285583
1003.992188,-6.372178,-0.187892,-4.490555,1.269821
1003.996094,-3.581658,-2.531095,-6.340649,0.592348
1004.000000,0.613996,-4.647451,4.309850,3.583106
1004.003906,0.034218,-2.233781,2.911742,9.788697
1004.007812,11.485658,13.305736,-3.626379,4.946746
1004.011719,0.048496,8.574441,-1.379747,9.974760
1004.015625,6.890567,4.861773,6.608823,12.137092
1004.019531,9.140963,6.285779,9.328801,7.515011
1004.023438,14.262970,7.975107,12.596338,7.463030
1004.027344,18.591325,5.725053,17.850397,6.073981
1004.031250,11.603193,6.844032,8.975112,16.451720
1004.035156,10.106082,7.968453,8.804057,9.067441
1004.039062,7.650436,11.360373,5.817055,1.559383
1004.042969,-0.595459,8.642916,3.262134,7.322061
1004.046875,3.290152,5.760976,-2.915116,-0.205977
1004.050781,-1.340949,-4.735667,-1.751045,-3.070935
1004.054688,3.170780,2.466716,4.414470,1.356082
1004.058594,-10.073403,-8.007489,-7.182933,-9.450572
1004.062500,-3.793380,-3.186328,-13.359122,-2.582085
1004.066406,-4.500649,-6.384977,-1.105689,-11.151243
1004.070312,-1.644451,-14.956322,-13.755770,-3.405319
1004.074219,-9.705602,-7.484269,-10.570331,-0.470447
1004.078125,-9.734534,-14.229127,-16.662612,-5.116512
1004.082031,-6.463058,-5.220785,-5.287750,-9.407141
1004.085938,-6.749304,-10.040962,-13.498552,-6.177710
1004.089844,-1.435708,-12.163705,-14.558227,-7.613280
1004.093750,3.052234,-2.349762,-4.753593,-0.917928
1004.097656,-3.249163,2.124528,-2.170049,3.508077
1004.101562,2.995430,4.818225,-0.013819,-0.668842
1004.105469,4.249057,8.101003,-3.581260,-3.916791
1004.109375,6.380418,10.128277,4.946152,7.565641
1004.113281,1.282772,7.308940,5.109151,5.025755
1004.117188,3.896105,10.884178,6.772293,11.592785
1004.121094,3.699646,15.300906,11.000861,8.049061
1004.125000,-0.066079,8.482757,4.180409,4.930828
1004.128906,8.283723,9.878288,8.879494,13.132772
1004.132812,5.083260,5.856048,4.841570,3.552979
1004.136719,14.089597,8.167185,10.193504,16.543051
1004.140625,1.203729,11.424663,13.350335,3.009224
1004.144531,9.613974,7.935513,1.588942,3.989133
1004.148438,-1.644673,1.201811,0.697556,-5.452365
1004.152344,-0.153548,-0.977698,6.834398,0.658264
1004.156250,-3.536323,-8.852933,-6.426530,-8.275742
1004.160156,-8.305420,-9.057793,-7.609915,-10.490926
1004.164062,-14.101035,-3.806350,-11.476350,-4.576141
1004.167969,-14.628120,-7.324075,-6.771474,-4.225082
1004.171875,-8.386580,-5.543362,-9.019430,-11.804094
1004.175781,-5.568965,-7.322278,-6.613182,-4.426740
1004.179688,-12.081708,-3.867395,-6.398054,-7.804832
1004.183594,-5.513558,-1.330321,-4.939300,-8.364336
1004.187500,-11.013573,-12.270144,-0.750283,-6.517392
1004.191406,-9.367721,-7.010838,-2.235486,-2.731640
1004.195312,0.373842,-0.318444,-2.781496,-1.671227
1004.199219,2.918815,-3.534075,-3.448905,-0.016432
1004.203125,-1.391812,-0.318021,-1.068336,0.304418
1004.207031,5.161452,6.221356,7.867513,3.904549
1004.210938,9.439571,11.480628,10.286559,1.840226
1004.214844,7.448361,10.328249,3.994691,13.520637
1004.218750,8.445607,5.526141,9.410784,15.050029
1004.222656,11.668839,8.354700,5.144303,18.064713
1004.226562,10.600401,10.813220,9.826566,10.204488
1004.230469,3.157039,7.089128,4.992168,8.860782
1004.234375,8.171395,8.780750,8.154175,3.903262
1004.238281,9.778214,8.197466,7.435607,11.052311
1004.242188,1.076112,4.810864,0.685694,8.607425
1004.246094,-1.874828,4.531539,5.030077,-4.349741
1004.250000,1.307661,8.492580,7.376566,5.345192
1004.253906,1.835841,-2.806747,5.987657,-5.359242
1004.257812,-6.142699,-5.418785,1.861922,-3.875629
1004.261719,-1.218978,-2.225303,-2.907001,-4.168991
1004.265625,-12.928091,-9.067320,-7.758434,-8.053396
1004.269531,-10.439139,-0.984793,-8.446175,-9.364485
1004.273438,-9.086488,-14.056981,-9.092532,-12.640445
1004.277344,-11.126697,-10.086705,-6.519049,-7.688365
1004.281250,-8.043091,-5.540900,-11.485130,-4.717057
1004.285156,-7.104384,-12.302177,-7.554241,-16.625503
1004.289062,0.686924,-16.255240,-3.728058,-2.100968
1004.292969,-1.321037,-4.719327,-1.668063,-4.015062
1004.296875,-2.948395,1.402532,-9.319741,-4.406744
1004.300781,1.311908,8.501753,-1.995893,9.140262
1004.304688,7.113446,1.350663,3.294368,10.450007
1004.308594,4.774321,6.601969,7.352479,0.571692
1004.312500,10.254666,9.431332,5.498094,-1.333438
1004.316406,7.932822,6.171066,5.272267,3.043573
1004.320312,10.653176,18.183602,4.627116,9.925100
1004.324219,8.698970,5.490975,15.581590,2.005107
1004.328125,12.113794,10.152656,10.412087,7.500174
1004.332031,12.680484,8.693568,16.334721,9.530133
1004.335938,8.194675,10.560948,11.206742,3.500005
1004.339844,7.855812,5.257080,4.592228,6.938254
1004.343750,-2.997130,11.111753,-0.307409,3.543914
1004.347656,6.623758,1.176493,2.556914,3.443876
1004.351562,1.253463,-3.208906,-1.245429,-2.806306
1004.355469,0.300840,-3.409471,-2.392694,-3.264344
1004.359375,-3.748282,-2.362580,-11.714498,-8.188692
1004.363281,-10.591395,-11.317102,-13.577510,-10.772824
1004.367188,-9.245714,-7.498641,-11.335234,-8.375618
1004.371094,-16.564752,-7.882336,-11.129643,-10.117994
1004.375000,-10.592569,-3.811085,-18.868805,-5.295605
1004.378906,-11.390079,-9.450676,-12.272527,-7.111750
1004.382812,-12.567639,-9.959741,-8.353836,-10.185453
1004.386719,-4.435076,-11.788556,-8.890423,-6.432859
1004.390625,-12.463093,-8.632401,-4.547594,-5.567875
1004.394531,-4.609099,-2.262105,-5.628910,-6.415988
1004.398438,-0.503129,-2.665223,-2.681889,-2.729259
1004.402344,-0.780872,2.527789,-2.828726,0.972173
1004.406250,9.397760,6.393089,-0.581170,2.680145
1004.410156,5.626488,8.737736,1.270465,7.932848
1004.414062,12.843802,3.894712,9.439392,14.275685
1004.417969,4.414917,6.389758,6.943151,8.199397
1004.421875,13.613075,7.228935,14.344134,10.145796
1004.425781,4.513175,8.393088,8.137656,7.283387
1004.429688,15.692179,8.806811,6.382077,9.824735
1004.433594,6.303426,9.909254,11.518961,8.902119
1004.437500,8.662376,-0.668751,11.540076,8.278397
1004.441406,11.778477,9.920897,15.063804,0.835780
1004.445312,8.470313,1.343764,8.593586,4.939579
1004.449219,-0.924378,3.065129,1.808766,1.213735
1004.453125,-5.108809,-3.363411,-4.625256,-10.572741
1004.457031,-7.211590,-1.099333,-8.576686,-8.096934
1004.460938,-1.326155,-3.846604,-6.893440,-8.596895
1004.464844,-10.275264,-11.053983,-7.405797,-10.645667
1004.468750,-13.493058,-6.602835,-11.624654,-6.067051
1004.472656,-7.057933,-9.729983,-5.331620,-18.321051
1004.476562,-6.517293,-7.335575,-14.334995,-13.852682
1004.480469,-5.542939,-13.018345,-7.739677,-8.576943
1004.484375,-9.183621,-9.335398,-7.682859,-10.480150
1004.488281,-7.247420,-13.825879,-13.083431,-9.165529
1004.492188,-4.975710,-11.951383,-8.541265,-4.476275
1004.496094,1.286228,-3.878989,0.762641,-2.651351
1004.500000,-3.072050,4.605263,0.871331,-1.678225
1004.503906,7.499011,10.421376,-3.506203,7.416131
1004.507812,0.450596,7.103744,4.605219,11.963025
1004.511719,7.752950,6.883189,5.995029,4.023165
1004.515625,13.514011,4.052439,7.007349,12.483575
1004.519531,11.434498,9.566333,8.148103,11.502293
1004.523438,10.578462,10.511711,5.017789,10.526013
1004.527344,8.546251,10.121338,3.951047,9.437759
1004.531250,12.242343,11.328169,7.156319,0.666332
1004.535156,6.534053,5.162317,3.332809,3.350435
1004.539062,13.398488,8.311660,6.800615,3.960214
1004.542969,-3.721410,8.126760,4.451602,6.821734
1004.546875,2.451047,3.660083,1.949470,1.725336
1004.550781,3.743933,0.290188,2.150875,-1.665996
1004.554688,-2.060743,-0.448452,-3.195222,-7.973225
1004.558594,-10.945432,-7.682969,-1.028287,-2.049872
1004.562500,-4.863469,-2.429686,-9.500169,-10.033821
1004.566406,-2.612633,-11.226439,-9.488240,-16.355510
1004.570312,-13.502136,-10.624036,-9.877044,-11.240659
1004.574219,-9.190104,-9.053161,-1.508635,-13.207373
1004.578125,-9.496106,-21.190287,3.767437,-2.209082
1004.582031,-1.651315,-11.431534,-9.955952,-4.836511
1004.585938,-10.649950,-8.510254,-8.045939,-3.172391
1004.589844,-4.556646,-9.291598,-12.620590,-1.710845
1004.593750,-9.476149,-5.477758,-2.153998,-3.028608
1004.597656,0.873646,-3.570679,-8.264733,-3.496946
1004.601562,0.246902,1.965430,-3.375615,-2.944273
1004.605469,-3.265885,4.065200,9.314646,4.954551
1004.609375,10.859444,1.477012,1.952605,5.374368
1004.613281,12.323123,8.888069,11.492740,4.969205
1004.617188,15.502242,7.293027,5.507761,9.883497
1004.621094,15.651982,10.236936,7.978520,8.428815
1004.625000,15.423263,5.978419,10.412779,12.800353
1004.628906,10.146992,15.552831,5.529163,10.663992
1004.632812,10.673307,11.646548,10.374343,4.682089
1004.636719,10.629894,4.625042,1.958631,8.054078
1004.640625,3.495814,8.341116,6.199335,7.908829
1004.644531,1.485197,5.760191,9.806693,-1.235908
1004.648438,2.228851,-0.073434,3.841868,0.227999
1004.652344,0.733831,-1.180397,6.848306,0.584078
1004.656250,-6.868666,-5.525667,3.417891,-0.484035
1004.660156,-9.675741,-8.719912,-8.722020,-1.635018
1004.664062,-11.575615,-6.218797,-6.746941,-14.328456
1004.667969,-7.944374,-7.270748,-12.970704,-3.877427
1004.671875,-8.231482,-7.960372,-14.690861,-3.941517
1004.675781,-13.461955,-15.324108,-14.640321,-7.254651
1004.679688,-3.431619,-7.276129,-7.122585,-9.000170
1004.683594,-6.588654,-2.905444,-5.931751,-4.355058
1004.687500,-10.367545,-10.739382,-9.874075,-6.999651
1004.691406,1.266023,-8.354063,-8.377643,-7.731386
1004.695312,-4.931252,-6.965638,-1.302076,-7.804726
1004.699219,-4.692767,-2.591458,7.743365,-1.633338
1004.703125,4.388074,7.163123,1.404771,0.272268
1004.707031,10.772187,9.917749,6.136549,5.025560
1004.710938,4.178814,10.523069,6.066243,2.714445
1004.714844,6.518810,-2.060362,6.163770,8.295676
1004.718750,3.882189,7.316043,16.214687,0.568435
1004.722656,3.917000,5.720011,10.506507,12.632705
1004.726562,7.178268,15.794941,10.178463,10.648012
1004.730469,6.308921,14.192535,1.521559,7.956841
1004.734375,10.552833,10.866143,7.510406,9.406836
1004.738281,-1.739192,1.742561,4.480084,9.188824
1004.742188,9.940498,3.909363,4.307917,2.948211
1004.746094,-1.564218,9.346096,1.893786,0.154343
1004.750000,-1.005037,4.235856,-6.161039,-4.573895
1004.753906,1.345335,-3.275588,-3.631892,-1.998887
1004.757812,-1.252800,0.375990,-7.902671,-3.718847
1004.761719,-5.030519,-8.572680,-10.955238,-8.805046
1004.765625,-3.162538,0.665093,-3.871567,5.253168
1004.769531,-14.621263,-7.574982,-8.364642,-7.872272
1004.773438,-10.436442,-10.616402,-7.542774,-8.325488
1004.777344,-8.222283,-14.034732,-15.807157,-12.153515
1004.781250,-12.137824,-7.245777,-6.307372,-14.575671
1004.785156,-11.763758,-7.845421,-11.886039,-4.525062
1004.789062,-2.002645,-4.834446,-13.421156,-7.064590
1004.792969,-3.631603,-1.171400,-2.618932,-3.137027
1004.796875,-2.559487,-5.578767,0.328496,2.634323
1004.800781,-2.948334,-5.190719,5.715987,2.930820
1004.804688,6.565028,1.815795,5.179061,-2.806354
1004.808594,12.535399,8.823505,-1.365510,8.944807
1004.812500,5.036700,10.106330,5.315614,9.012720
1004.816406,7.390986,3.345386,3.090944,4.855095
1004.820312,6.991256,9.124426,8.876415,11.055595
1004.824219,10.107597,8.649753,13.434735,11.682153
1004.828125,11.640338,7.867908,10.670587,4.474211
1004.832031,6.459858,16.462378,13.322419,8.076960
1004.835938,8.505724,8.060698,10.635385,9.368443
1004.839844,3.643464,8.073880,2.557628,-0.579367
1004.843750,-0.812621,4.644616,-0.296265,6.061148
1004.847656,3.383612,0.163839,4.411421,-1.918495
1004.851562,-2.216141,0.422861,1.444018,-1.664986
1004.855469,4.113996,-0.310083,-3.696741,0.913292
1004.859375,-3.258836,-0.684451,-5.849596,-0.591443
1004.863281,-11.565702,-10.591710,-2.509073,-9.002631
1004.867188,-10.411977,-4.376578,-14.977575,-6.442947
1004.871094,-5.769469,-12.005290,-7.139545,-9.420630
1004.875000,-11.360540,-11.496706,-6.733719,-7.671768
1004.878906,3.566305,-3.895704,-10.224029,-9.263397
1004.882812,-10.878881,-17.675749,-8.173810,-13.540076
1004.886719,-7.209673,-4.022991,-6.318588,-10.912383
1004.890625,-6.638849,-14.143074,-2.715985,-10.288250
1004.894531,-5.041099,1.342859,-3.165477,2.774034
1004.898438,-3.052301,5.618332,-0.418044,-5.484849
1004.902344,1.367468,4.015481,-0.224670,3.412558
1004.906250,8.584583,8.494680,1.617521,-4.538245
1004.910156,8.905595,3.342327,-1.114913,5.131141
1004.914062,8.755639,11.390776,5.418744,9.804104
1004.917969,7.696992,3.432494,6.782495,6.096773
1004.921875,8.660475,4.830112,11.550120,12.331141
1004.925781,17.822718,19.937671,1.880278,6.731784
1004.929688,6.623480,7.780126,1.406425,10.143997
1004.933594,12.327952,11.612786,4.807888,13.923744
1004.937500,-1.283105,5.612524,6.222207,1.535059
1004.941406,1.818187,2.220173,12.486681,-2.650489
1004.945312,1.187932,-1.312108,3.244491,3.261659
1004.949219,0.538111,1.346976,-2.223945,5.484680
1004.953125,-4.679333,3.761896,-0.485688,0.583668
1004.957031,-3.930335,-0.748514,-3.552176,-3.054051
1004.960938,-1.987142,-4.958175,-4.600208,-14.765875
1004.964844,-15.605342,-8.180985,-5.083034,-17.448139
1004.968750,-6.987111,-11.366055,-2.736117,-5.736264
1004.972656,-16.094292,-6.742958,-6.442009,-9.482305
1004.976562,-9.936549,-8.662656,-11.407591,-6.000473
1004.980469,-3.237956,-13.811958,-11.652436,-8.640797
1004.984375,-14.261053,-9.977424,-14.830522,-11.594167
1004.988281,-4.943403,2.417224,-3.926644,0.369557
1004.992188,-5.520462,-7.191077,-5.048686,-3.254359
1004.996094,-6.542716,-4.048318,-4.973722,-9.937777
1005.000000,1.120173,0.438919,4.822479,1.955346
1005.003906,5.114376,-4.268062,-5.292579,4.090810
1005.007812,1.334983,0.449120,13.601464,-0.823504
1005.011719,9.416811,5.315340,5.014848,10.435746
1005.015625,10.267558,16.605877,12.139389,10.297651
1005.019531,4.179359,11.156262,6.471723,13.882073
1005.023438,12.095930,12.035207,6.285545,11.231589
1005.027344,5.840362,10.666491,4.442991,8.179260
1005.031250,4.133602,10.602241,5.213942,7.573725
1005.035156,4.825953,11.530523,3.576738,11.138342
1005.039062,14.014129,8.515745,15.219328,9.582084
1005.042969,4.432684,4.076037,10.524374,9.705847
1005.046875,-6.901165,2.429031,5.672730,3.536961
1005.050781,-2.872462,5.246226,-0.821466,3.810425
1005.054688,2.686483,0.194568,-2.266759,-4.906699
1005.058594,-5.532513,-9.505191,-8.989631,-8.695185
1005.062500,-5.876667,-9.213834,-9.925454,6.613569
1005.066406,-15.721026,-12.699672,-12.186005,-17.984035
1005.070312,-9.369257,-16.303239,-11.755406,-12.215574
1005.074219,-10.515174,-15.171553,-9.499599,-9.705243
1005.078125,-9.601108,-8.245358,-0.922248,-3.921017
1005.082031,-11.246628,-11.369190,-12.671458,-7.578841
1005.085938,-12.383063,-6.784657,-11.743435,-4.396755
1005.089844,-5.636898,-6.316572,-12.082190,-5.792892
1005.093750,-11.456035,-8.128355,-4.219835,-5.391658
1005.097656,-2.275783,0.098989,3.697057,0.868300
1005.101562,-8.270343,3.524136,3.583604,-2.544480
1005.105469,-0.015648,2.053083,4.188637,7.962840
1005.109375,3.847154,2.521511,5.767138,4.608930
1005.113281,15.701701,14.035825,1.425062,8.796198
1005.117188,7.770598,12.633135,13.429052,11.400256
1005.121094,10.121724,12.835548,15.529914,15.102797
1005.125000,7.013733,11.303332,9.825866,8.097794
1005.128906,10.931019,16.176420,17.187005,2.617977
1005.132812,13.733692,12.406101,17.401426,18.082912
1005.136719,10.530381,4.970267,6.200976,-0.100555
1005.140625,8.664206,5.644211,6.341345,6.238145
1005.144531,6.238773,1.597961,2.480925,9.141474
1005.148438,2.790605,11.479795,1.605526,2.306754
1005.152344,-2.754383,-4.290735,2.341768,1.923466
1005.156250,-3.977403,0.663569,-7.590666,-9.514465
1005.160156,-9.011254,-5.252144,-3.829019,-5.172138
1005.164062,-7.182507,-3.259239,-8.958151,-12.440381
1005.167969,-12.442210,-6.223175,-8.557500,-1.542819
1005.171875,-3.802513,3.972323,-16.514003,-5.622395
1005.175781,-18.888483,-1.529972,-8.650442,-9.451654
1005.179688,-1.468781,-3.869043,-0.729751,-11.236577
1005.183594,-13.285879,-15.609895,-7.642380,-10.410461
1005.187500,-2.949838,-2.336800,-12.933214,-3.916045
1005.191406,-7.061939,-4.615243,-6.986728,-9.066594
1005.195312,-7.505259,-9.369390,-9.101069,-7.771413
1005.199219,1.680171,2.128999,5.246128,-0.768210
1005.203125,-2.815097,-1.592662,0.985357,3.036058
1005.207031,-2.171464,2.588170,9.432851,3.734218
1005.210938,8.176621,6.876283,4.672327,2.098699
1005.214844,12.150868,11.688941,7.090780,13.996627
1005.218750,5.612676,11.102993,5.849300,5.019895
1005.222656,1.468526,20.439799,8.887175,11.532517
1005.226562,-2.824966,8.241922,12.884742,9.778195
1005.230469,9.659273,13.811701,11.273283,10.363593
1005.234375,7.516141,11.782003,1.736220,5.868267
1005.238281,4.597748,8.183399,5.304222,11.161278
1005.242188,6.556955,5.439202,8.037540,6.768480
1005.246094,-4.217035,6.233933,7.215002,2.342509
1005.250000,0.875439,-6.130359,-2.174017,-7.072773
1005.253906,0.790121,-3.160952,4.055614,-2.298680
1005.257812,-0.920196,-0.560776,-4.312665,-4.531000
1005.261719,-2.910151,-3.405284,-5.542027,-4.483186
1005.265625,-5.604374,-12.467948,-12.196872,-10.691592
1005.269531,-10.715719,-12.008862,-9.898239,-4.238843
1005.273438,-15.274436,-3.340431,-12.868287,-11.717376
1005.277344,-15.450882,-9.696227,-6.477739,-9.460963
1005.281250,-4.278637,-14.408043,-7.391113,-6.908333
1005.285156,-10.347254,-10.574860,-8.304459,-12.289287
1005.289062,-7.317565,-6.735326,-10.021991,-2.271540
1005.292969,-2.382331,-9.515927,-0.702534,4.934682
1005.296875,-2.069418,-4.638432,-1.579075,0.207722
1005.300781,0.637727,-4.026283,3.420399,-1.735907
1005.304688,2.937162,3.438095,3.165961,-0.475391
1005.308594,5.045976,0.979163,1.061982,8.428087
1005.312500,4.214302,10.764438,14.933754,1.504535
1005.316406,13.728731,7.933645,4.002596,9.216683
1005.320312,5.598080,12.066034,12.129576,7.975256
1005.324219,6.144663,2.072794,15.026464,1.654892
1005.328125,10.298854,8.003076,5.932599,10.405479
1005.332031,7.708775,-1.282150,14.788575,8.919646
1005.335938,6.566957,3.187242,4.513658,8.363594
1005.339844,4.661109,-0.171305,11.037241,15.496350
1005.343750,4.336859,5.417524,9.071332,-2.108367
1005.347656,1.028846,3.942736,-0.076373,-7.928642
1005.351562,-5.228841,4.382659,1.581723,0.344342
1005.355469,-0.762793,-5.364163,-8.199315,-4.323414
1005.359375,-13.405586,-13.507673,-0.683722,-10.876068
1005.363281,-4.441585,-14.380340,-8.943197,-5.221325
1005.367188,-15.166690,-6.131829,-6.892181,-9.235830
1005.371094,-12.457782,-14.173698,-18.491538,-12.715832
1005.375000,-9.167307,-13.582197,-5.415994,-12.189091
1005.378906,-5.891655,-7.632969,-7.859216,-4.949202
1005.382812,-9.926787,-6.514574,-7.334081,2.473886
1005.386719,-11.375594,-8.630446,-3.706146,-2.792939
1005.390625,-7.561469,-8.347410,-4.854384,-10.705169
1005.394531,-3.584880,-2.353093,-2.179988,-1.499945
1005.398438,-4.349384,1.303124,2.513988,-7.731978
1005.402344,2.730560,0.198729,2.191103,-1.637644
1005.406250,4.637017,1.328614,5.005616,10.440240
1005.410156,0.536468,8.896833,8.445732,3.404536
1005.414062,5.670095,10.442877,8.075559,8.315841
1005.417969,9.002584,12.924485,8.444934,9.522791
1005.421875,5.711255,9.147936,5.261570,12.303106
1005.425781,11.134948,15.178015,6.035164,7.905062
1005.429688,2.093513,3.523245,9.304371,8.606413
1005.433594,2.161593,8.541552,7.065471,9.693001
1005.437500,9.168437,6.328943,6.441144,14.359266
1005.441406,5.087001,1.397517,7.258773,-0.196050
1005.445312,10.417055,2.236960,3.561739,9.548796
1005.449219,0.600842,2.543583,1.096231,7.336605
1005.453125,3.796952,0.487659,-1.221425,-0.948341
1005.457031,-6.982872,-2.024808,-5.452693,-9.136446
1005.460938,1.040018,-1.874849,-5.427810,-9.346461
1005.464844,-15.096489,-6.533942,-9.813281,-10.462992
1005.468750,-10.413577,-11.466869,-12.949584,-7.793761
1005.472656,-12.774369,-4.594114,-5.593774,-10.340223
1005.476562,-16.390105,-12.081013,-19.801085,-8.421888
1005.480469,-12.223623,-9.874300,-5.891834,-9.080065
1005.484375,-7.775853,-14.456633,-2.874359,-0.587122
1005.488281,-3.376595,-9.107776,-10.354878,-1.994184
1005.492188,-5.410633,-7.105268,-0.303031,-7.442979
1005.496094,0.936262,-2.995686,-0.497249,-5.271503
1005.500000,9.420741,-0.325797,9.717285,-9.990329
1005.503906,6.031717,-3.640597,-2.037299,2.134152
1005.507812,1.610328,4.625366,3.264592,7.873853
1005.511719,4.039963,6.654271,12.176350,8.943572
1005.515625,9.683535,9.176336,6.278352,10.649469
1005.519531,5.713643,10.701290,5.079493,16.200172
1005.523438,4.716733,16.359804,12.714310,8.897198
1005.527344,10.618208,10.588447,8.242064,13.504145
1005.531250,9.213670,10.939636,9.091916,2.797000
1005.535156,5.306430,10.448406,12.577022,9.399033
1005.539062,7.808368,7.538720,6.912980,0.699598
1005.542969,0.595599,3.683517,7.464044,7.049139
1005.546875,2.350553,2.398706,-0.274125,-1.196817
1005.550781,-6.308944,-1.544419,-3.395718,0.401559
1005.554688,-1.301474,-8.794191,-5.221573,-6.118581
1005.558594,-1.361825,-1.529108,-3.142618,-11.338807
1005.562500,-7.930654,-1.242913,-3.069518,-7.597912
1005.566406,-0.978382,-6.205470,-7.053637,-12.390534
1005.570312,-6.703250,-0.707612,-9.428472,-9.732156
1005.574219,-8.630267,-7.477604,-12.442962,-18.966139
1005.578125,-9.768380,-2.416690,-6.603903,-16.979479
1005.582031,-6.341935,-0.019095,-7.766169,-4.842235
1005.585938,-11.779796,-8.810548,-6.996141,-5.937844
1005.589844,-7.681547,-8.459491,-10.295282,-9.085372
1005.593750,-0.105689,-6.462920,-0.436981,0.404970
1005.597656,-5.932133,-6.453219,-0.668551,-0.590130
1005.601562,7.929727,3.165173,-8.267490,0.898242
1005.605469,3.471566,-3.116423,3.629784,3.561241
1005.609375,5.277253,7.143752,0.987109,7.898303
1005.613281,4.757204,-1.826104,12.738200,12.664047
1005.617188,5.087243,10.630625,11.551317,6.357101
1005.621094,7.230249,11.159487,3.499714,15.379688
1005.625000,12.511936,13.576250,17.260537,10.390508
1005.628906,9.370195,13.803450,13.184516,12.594244
1005.632812,12.971131,12.097984,1.831690,8.475978
1005.636719,9.103654,-0.713958,0.675813,11.270901
1005.640625,4.749646,4.513041,17.497128,2.626227
1005.644531,5.989355,6.063037,-0.494302,11.017008
1005.648438,1.770335,-0.333443,3.319246,3.150943
1005.652344,-5.679367,1.379326,-1.334728,-2.812995
1005.656250,-3.755626,-3.112835,-1.673073,-2.012704
1005.660156,-3.340416,-9.768739,-1.863163,-5.413740
1005.664062,-7.066256,-4.892931,-9.634818,-10.998605
1005.667969,-8.479989,-16.783148,-2.876106,-14.458976
1005.671875,-11.919431,-11.504431,-5.484820,-13.089910
1005.675781,-11.160303,-7.839959,-6.279915,-18.016196
1005.679688,-11.886739,-4.780839,-2.451384,-9.040776
1005.683594,-6.521262,-8.029141,-17.864078,-3.055623
1005.687500,-5.715681,-6.886184,-1.700332,-12.339922
1005.691406,-11.694519,-3.944037,-4.465670,-0.932761
1005.695312,-0.379644,0.759526,1.227872,-6.684148
1005.699219,5.909047,6.715627,0.671207,-1.096816
1005.703125,-1.381724,8.741665,4.579967,0.511391
1005.707031,12.217546,-0.469362,1.656693,3.821255
1005.710938,10.407411,8.439686,12.061223,6.126075
1005.714844,10.280565,0.680219,8.400989,1.831306
1005.718750,6.370646,3.631850,7.918454,13.999095
1005.722656,14.747993,5.755966,8.346153,11.247658
1005.726562,1.549211,-0.036930,11.181987,9.672854
1005.730469,9.496258,3.942985,8.481007,11.613539
1005.734375,10.787892,6.001007,9.629121,10.283727
1005.738281,5.045814,1.192009,2.807181,8.451691
1005.742188,7.127397,1.516337,10.286426,11.054909
1005.746094,5.868102,5.616604,2.403548,2.752445
1005.750000,4.621975,-2.780823,-0.129384,-3.630103
1005.753906,-5.209170,0.920385,-0.379569,-3.309514
1005.757812,-4.748928,-2.292509,-6.230079,1.016038
1005.761719,-9.120370,-2.914782,0.262529,-2.303194
1005.765625,-3.828931,-3.144329,-12.136238,-9.082348
1005.769531,-15.562884,-11.247641,-7.036194,-11.984752
1005.773438,-7.576424,-13.000409,-9.809134,-5.817471
1005.777344,-5.391087,-22.818966,-7.328282,-11.340118
1005.781250,-10.328411,-5.124023,-3.005161,-8.504356
1005.785156,-4.542821,-5.716668,-7.389607,-2.747795
1005.789062,-9.193668,-3.992470,-6.566347,-5.954044
1005.792969,-8.340786,-6.883348,-1.756380,-5.018056
1005.796875,0.880374,3.495398,-3.868322,-5.334705
1005.800781,4.466963,-3.253809,2.317519,0.184697
1005.804688,0.700896,4.695279,-0.594067,13.692305
1005.808594,3.232235,2.618809,4.271204,13.041116
1005.812500,4.838122,9.187943,3.984073,13.012463
1005.816406,3.504410,1.223552,7.579657,5.605280
1005.820312,3.323168,15.141069,6.233462,7.768176
1005.824219,13.763448,6.094795,7.408700,15.404954
1005.828125,9.298496,11.998478,9.624567,14.495476
1005.832031,7.964428,10.036181,11.820450,2.751512
1005.835938,9.324888,10.710672,9.111418,4.219769
1005.839844,7.733176,6.638859,-4.377683,5.577965
1005.843750,4.602665,2.944173,3.366959,-0.793906
1005.847656,4.427608,3.011526,0.095518,4.675677
1005.851562,-3.226623,3.311901,-7.564119,-3.508324
1005.855469,1.318102,-0.641710,-8.681318,-2.371297
1005.859375,-6.796882,-4.919314,-6.994683,-2.511161
1005.863281,-7.529233,-6.410084,-9.288455,-7.674435
1005.867188,-8.702553,-10.486612,-4.861022,-13.356829
1005.871094,-11.828881,-8.341117,-8.725069,-9.268148
1005.875000,-8.704524,-15.203015,-6.985432,-8.208003
1005.878906,-9.582239,-5.906315,-10.280512,-12.657682
1005.882812,-8.993742,-5.788523,-9.585935,-3.953630
1005.886719,-4.819064,-0.700302,-7.511427,-6.889066
1005.890625,-8.587863,1.635693,-13.004250,-0.936314
1005.894531,-6.256970,0.119933,-2.667228,-6.925429
1005.898438,-5.983604,-0.884431,5.720405,5.030600
1005.902344,0.969104,4.684355,2.480994,-5.465778
1005.906250,-4.255080,10.267931,7.654585,7.635820
1005.910156,9.579784,3.562397,3.325240,8.391102
1005.914062,7.563692,11.106804,6.783610,3.001808
1005.917969,10.574945,6.322004,11.694319,16.314834
1005.921875,14.597422,10.580383,3.936606,9.709238
1005.925781,9.058274,5.252661,17.452203,4.126351
1005.929688,9.474301,8.488699,9.789325,4.237828
1005.933594,7.555051,-2.381048,8.008876,11.353863
1005.937500,8.820284,4.909475,8.363789,5.750376
1005.941406,10.545697,2.865140,8.486796,12.018497
1005.945312,6.365639,5.124072,3.144714,-1.869794
1005.949219,-1.426836,-0.965817,-6.716473,-0.341431
1005.953125,1.172911,-7.196839,-1.716132,-2.009958
1005.957031,0.241378,-3.692413,-2.264134,-4.871419
1005.960938,-4.613343,-10.352884,-10.634368,-5.874183
1005.964844,-5.873531,-6.267803,-5.345169,-6.636518
1005.968750,-11.337943,-16.030881,-9.436856,-12.466324
1005.972656,-13.724936,-3.260375,-11.800578,-6.652197
1005.976562,-5.770599,-11.529575,-6.929459,-6.066761
1005.980469,-8.050871,-14.493230,-13.004680,-12.235728
1005.984375,-9.771426,-10.031544,-7.859693,-4.277721
1005.988281,-5.781428,-5.521180,-7.865089,-6.328462
1005.992188,-6.570179,-2.615995,-1.278870,1.840579
1005.996094,-2.821014,0.405052,1.586809,-4.406663
1006.000000,7.231315,-5.195645,2.751902,-0.808530
1006.003906,6.218992,1.578672,4.567012,1.491153
1006.007812,2.540191,5.687206,0.310562,2.560667
1006.011719,8.128506,8.197386,7.575846,1.635304
1006.015625,7.121461,8.820798,1.308342,5.125553
1006.019531,6.243758,5.299774,6.098351,5.217289
1006.023438,11.025041,7.806452,7.372141,14.000853
1006.027344,11.860327,9.906482,8.265863,3.174114
1006.031250,5.872035,8.539833,5.061506,5.591642
1006.035156,6.846385,7.652921,0.479509,5.761421
1006.039062,2.189237,2.360496,10.882117,-0.353655
1006.042969,8.393988,7.522249,1.880862,0.388106
1006.046875,7.644126,-2.856612,6.821307,-2.358396
1006.050781,-3.556357,5.281819,-3.508379,3.775432
1006.054688,2.323845,-6.411101,-0.269422,0.128967
1006.058594,-6.574637,-9.032820,3.371130,-3.136798
1006.062500,-2.556504,-19.037156,-10.344392,-8.405814
1006.066406,-5.872813,-13.119814,-12.609995,0.711000
1006.070312,-10.072869,-12.260838,-1.987170,-9.078364
1006.074219,-12.783890,-10.526429,-12.355835,-14.194070
1006.078125,-14.706467,-13.379083,-16.847504,-8.649740
1006.082031,-6.207618,-9.622116,-18.140308,-5.283142
1006.085938,-2.849180,-6.753717,-7.616306,-13.423714
1006.089844,-11.774756,-13.581639,-6.714589,2.043124
1006.093750,-6.922204,-5.607477,-5.671026,-0.823982
1006.097656,-2.189295,-2.228631,-7.122548,-2.225448
1006.101562,8.829615,6.762732,6.784551,-2.495325
1006.105469,5.709865,3.975513,-0.099915,1.584626
1006.109375,4.184240,6.910331,7.866747,-2.095626
1006.113281,10.238686,6.165525,6.133747,10.687059
1006.117188,3.226593,6.446064,17.159724,16.064321
1006.121094,13.860855,14.346475,13.752275,11.633064
1006.125000,9.730974,2.643335,12.946952,13.694993
1006.128906,3.724872,12.984094,14.677901,10.831732
1006.132812,3.471802,15.732830,9.930178,12.858336
1006.136719,6.611725,2.780472,9.863080,7.339872
1006.140625,5.073778,3.315195,6.253589,5.283414
1006.144531,12.169602,9.927336,0.310695,4.726974
1006.148438,1.206167,9.223996,7.627962,-6.040291
1006.152344,0.299957,0.485556,-0.645305,0.264840
1006.156250,-7.546267,-0.659547,-7.539441,-3.517176
1006.160156,-5.058864,-3.289924,-5.125411,-9.606640
1006.164062,-6.014352,-9.743452,-6.396402,-6.079381
1006.167969,-6.853798,-7.811711,-15.777152,-3.690547
1006.171875,-8.267080,-7.379666,-10.792868,-9.935107
1006.175781,-5.082984,-5.923763,-10.901784,-16.537793
1006.179688,-11.331694,-9.442021,-8.928229,-7.987584
1006.183594,-16.365002,-9.537123,-7.308818,-7.830363
1006.187500,-9.176280,-1.359669,-9.451761,-9.193989
1006.191406,-11.077526,-11.106343,0.486874,-6.914584
1006.195312,8.827363,-6.773652,-6.088350,-0.009524
1006.199219,-6.148819,5.033749,1.777446,1.678741
1006.203125,9.322250,4.868390,1.723433,7.788891
1006.207031,2.923381,0.336767,7.333501,6.241327
1006.210938,6.735864,6.537782,4.351027,4.596449
1006.214844,11.707043,11.888397,5.214150,8.486726
1006.218750,0.250455,3.554044,17.679618,13.077663
1006.222656,7.528227,11.441891,13.869024,2.661042
1006.226562,9.852287,7.525308,8.748699,8.971383
1006.230469,10.860546,0.739498,9.097919,10.999167
1006.234375,5.993180,6.067938,9.858144,6.083441
1006.238281,3.144305,2.859263,6.821747,7.170534
1006.242188,7.858450,6.670204,3.963097,8.712690
1006.246094,1.650329,4.818737,5.348851,0.402722
1006.250000,2.558521,3.244131,-2.847520,-5.427920
1006.253906,0.702109,2.602227,-0.844914,-3.075494
1006.257812,-3.801912,-3.274021,-6.713907,-6.364998
1006.261719,-3.038595,-1.221648,-8.970637,-6.720212
1006.265625,-4.852548,-4.288483,-12.947750,-6.759460
1006.269531,-15.749606,-8.605384,-5.586128,-5.014544
1006.273438,-10.189593,-11.731101,-11.354062,-7.228801
1006.277344,-12.865344,-10.355468,-15.124408,-8.865237
1006.281250,-10.759084,-14.709594,-9.796811,-9.764996
1006.285156,-1.326869,-4.161735,-1.653331,-1.416646
1006.289062,-11.010738,-5.288763,-1.068394,-3.934129
1006.292969,-6.021200,-4.752604,-8.995744,-3.232184
1006.296875,-7.228371,-4.642856,-9.304762,-5.353206
1006.300781,3.790038,-0.730753,5.300974,-1.420812
1006.304688,-1.491230,11.729534,-0.670305,-3.149235
1006.308594,4.523382,9.220167,2.550070,0.022375
1006.312500,13.789236,4.108436,12.025875,7.977232
1006.316406,6.265706,8.711160,5.191313,11.605359
1006.320312,13.270363,6.868292,13.454217,14.343235
1006.324219,11.312209,11.472281,8.392303,7.339802
1006.328125,2.000541,10.728722,8.528696,8.428924
1006.332031,14.638743,8.979450,13.921714,8.055762
1006.335938,15.200367,8.894671,1.182740,3.751822
1006.339844,3.898513,6.835568,6.791967,3.157086
1006.343750,8.204085,3.014389,1.218000,7.336666
1006.347656,1.056076,6.472178,4.442930,-0.225267
1006.351562,0.303241,0.557257,-3.830824,-2.457917
1006.355469,-4.388006,-1.473728,1.599739,-4.126356
1006.359375,0.197590,-10.902982,-8.745498,-5.143523
1006.363281,-13.647698,-10.215225,-8.942718,-3.705823
1006.367188,-11.689086,-13.426901,-7.227262,-8.945806
1006.371094,-10.056724,-6.649434,-12.511633,-7.188914
1006.375000,-11.615618,-6.088729,-0.986561,-10.692902
1006.378906,-6.564662,-13.650135,-14.296492,-12.387494
1006.382812,-13.127988,-4.468419,-4.882026,-9.442082
1006.386719,-12.897428,1.210014,-12.678453,-6.873820
1006.390625,-7.403884,-2.257156,-5.622553,-3.077766
1006.394531,-2.322752,-4.041268,-3.484448,-3.699217
1006.398438,-4.331806,4.119499,2.916919,2.719461
1006.402344,6.989894,2.032893,-1.970334,1.687898
1006.406250,-0.027839,6.565683,6.927317,3.697888
1006.410156,6.681514,4.140640,-2.406967,11.743385
1006.414062,8.136525,0.612791,13.168853,11.856220
1006.417969,9.296135,5.465586,13.656338,9.534930
1006.421875,15.859796,9.115484,6.865655,13.976397
1006.425781,11.575786,13.991707,19.052993,10.157622
1006.429688,13.971580,16.484863,0.916243,10.142742
1006.433594,10.568864,9.329044,4.600221,8.258638
1006.437500,3.249019,7.006423,7.264864,10.714776
1006.441406,8.784001,4.390783,4.292549,2.338230
1006.445312,2.793092,-2.233409,-0.103801,6.457048
1006.449219,1.689596,-2.963363,2.556479,-2.371568
1006.453125,-8.156641,0.795568,3.874109,1.274236
1006.457031,-3.624956,-7.715290,-11.536852,0.740655
1006.460938,-12.251565,-4.274222,-3.793936,-2.660465
1006.464844,0.170181,-12.018457,-6.629177,-11.013884
1006.468750,-1.834120,-7.530851,-15.523439,-15.300179
1006.472656,-5.064668,-1.853637,-10.788318,-8.839499
1006.476562,-11.413385,-13.349012,-9.112297,-12.515231
1006.480469,-9.287206,-5.273106,-9.621312,-6.107134
1006.484375,-9.383637,-7.314264,-8.132763,-9.038692
1006.488281,-10.718594,-14.204736,-3.472020,-5.426590
1006.492188,-2.699288,-7.774721,-7.190519,-12.518343
1006.496094,-1.040356,-8.028119,5.014562,0.000047
1006.500000,2.342819,-4.017899,3.010853,3.191665
1006.503906,1.022748,3.318787,-0.787352,2.472940
1006.507812,4.938078,9.591557,3.756765,3.922682
1006.511719,12.280122,7.087762,5.820253,9.125632
1006.515625,9.175128,11.041994,6.217105,5.909785
1006.519531,7.694660,9.007164,15.820274,13.103723
1006.523438,14.985923,7.950005,10.629612,18.609471
1006.527344,7.048534,6.208867,11.431212,5.669538
1006.531250,7.293619,8.919212,2.022770,4.004300
1006.535156,6.678831,5.609027,6.669464,5.763968
1006.539062,7.317908,11.357404,3.914141,3.815042
1006.542969,8.355596,13.450566,7.225221,0.123909
1006.546875,-0.276254,-1.367726,-4.271088,4.911802
1006.550781,4.921870,4.718057,-11.430029,-4.454880
1006.554688,0.043418,-5.245663,-17.245302,-2.471964
1006.558594,2.297445,-3.964099,-2.501058,-6.785809
1006.562500,-6.169482,-11.042686,-3.254142,-12.647826
1006.566406,-6.795890,-4.473474,-17.914574,-4.610634
1006.570312,-11.974573,-3.060423,-3.699273,-8.222486
1006.574219,-10.346362,-14.282711,-12.751461,-6.825599
1006.578125,-4.178468,-14.727602,-15.961790,-13.553206
1006.582031,-15.107099,-10.223767,-6.788816,-17.362082
1006.585938,-9.199460,-15.686313,-11.519118,-4.401518
1006.589844,-4.885669,-9.759690,-1.532150,-4.266555
1006.593750,-2.191438,-8.891804,-5.384534,-4.170736
1006.597656,-2.300308,-2.128486,1.804800,0.495444
1006.601562,1.290492,-0.689732,-0.405758,3.042871
1006.605469,12.298078,0.618877,3.477367,2.890254
1006.609375,2.683899,9.361891,5.546623,11.860321
1006.613281,6.518940,3.229496,4.826587,3.745878
1006.617188,6.543451,8.402896,10.809613,10.729161
1006.621094,13.680493,14.241648,10.021706,6.612472
1006.625000,0.131033,10.381532,9.107091,6.548018
1006.628906,5.419020,4.528965,11.211739,6.562698
1006.632812,13.153733,6.856673,12.311139,4.161773
1006.636719,5.965271,10.382729,9.171059,3.730714
1006.640625,1.729141,5.477355,12.172712,6.434794
1006.644531,3.658880,3.462706,2.065618,6.769100
1006.648438,-1.624998,-1.119125,5.544864,8.569094
1006.652344,1.980157,3.408205,-5.394974,2.635164
1006.656250,-0.126613,-13.003218,-9.640804,-7.084351
1006.660156,-4.784650,-6.259657,-6.384323,-6.125851
1006.664062,-7.088663,-9.437507,-4.204202,-4.442268
1006.667969,-3.268392,-5.646716,-12.578392,-1.992192
1006.671875,-12.728269,-19.019372,-7.857958,-6.916056
1006.675781,-9.000588,-14.169405,-10.107301,-11.681611
1006.679688,-8.165807,-10.090900,-10.145817,-9.231957
1006.683594,-15.397613,-11.878054,-3.039700,-7.561577
1006.687500,-5.192886,-2.862991,-4.588791,-10.688524
1006.691406,-4.176455,-7.048073,-0.840550,-0.988915
1006.695312,-8.035781,-4.435619,1.368343,-1.828195
1006.699219,0.693646,-4.410025,-8.055550,-0.059066
1006.703125,0.741271,6.548367,5.528821,2.917608
1006.707031,3.521942,11.981449,1.083422,2.124540
1006.710938,4.627266,13.679092,7.989799,5.778085
1006.714844,17.113014,3.689981,4.881801,4.758042
1006.718750,10.910921,10.490555,5.244261,10.800911
1006.722656,10.027837,12.036463,20.860152,15.520278
1006.726562,18.383956,15.996232,8.670490,10.300088
1006.730469,6.509481,8.918597,8.984545,11.841379
1006.734375,6.264290,8.438809,1.831404,13.648103
1006.738281,2.124024,13.966056,-0.036693,3.861918
1006.742188,7.610104,3.129113,7.234017,4.718995
1006.746094,5.352123,-0.894188,-6.025022,-1.108583
1006.750000,-2.136721,-1.486491,-3.864319,-1.189426
1006.753906,-3.588950,-1.271608,-6.906813,-5.802265
1006.757812,-3.847284,-9.803046,-6.206899,2.335995
1006.761719,-7.063607,2.285787,-1.816471,-12.753892
1006.765625,-6.784673,-10.994777,-3.819350,-11.401945
1006.769531,-7.742092,-14.551980,-2.951841,-5.497683
1006.773438,-5.188980,-11.442759,-4.395455,-10.485799
1006.777344,-6.395886,-12.748557,-5.860224,-10.692767
1006.781250,-5.480087,-10.290111,-11.934832,-5.279177
1006.785156,-7.878206,-9.719582,-5.172241,-3.531072
1006.789062,-4.991423,-3.137242,-6.477204,-5.979696
1006.792969,-5.573853,4.436157,-2.267843,-3.126633
1006.796875,-6.527549,-1.200053,-1.051479,-4.761182
1006.800781,-0.675051,-0.773059,-1.602041,4.638834
1006.804688,6.910297,-2.730736,5.122699,1.296106
1006.808594,4.351743,1.867853,7.127523,2.310049
1006.812500,8.946615,8.868559,7.670774,4.905910
1006.816406,7.841734,11.571867,7.426227,8.268779
1006.820312,8.183464,1.042499,13.602207,13.055753
1006.824219,8.837897,16.404145,13.357905,10.793886
1006.828125,5.887224,7.961446,8.362551,11.479568
1006.832031,0.726584,8.090477,14.013225,5.564822
1006.835938,12.474082,11.280657,-0.648045,7.175417
1006.839844,2.787744,6.002528,7.571223,-2.807835
1006.843750,-0.547667,2.296058,3.775336,-3.328833
1006.847656,7.884480,16.205274,0.665500,-1.501159
1006.851562,0.312525,-9.495924,2.985179,1.576420
1006.855469,-3.482781,2.586133,-3.212125,3.258384
1006.859375,-13.796420,-4.639538,-8.604783,-5.966843
1006.863281,-11.852213,-2.713688,-15.087090,-3.743211
1006.867188,-12.810374,-9.083980,-3.645771,-6.863128
1006.871094,-15.155474,-8.383621,-10.621034,-9.506577
1006.875000,-16.390752,-6.703854,-9.678123,-5.604101
1006.878906,-13.729272,-9.669544,-11.376461,-4.876221
1006.882812,-16.035113,-16.981113,7.086317,-10.900684
1006.886719,-9.373153,-2.209482,-5.407034,-6.296050
1006.890625,-3.113342,-1.328456,-0.922552,0.780834
1006.894531,-3.735445,-9.193024,-3.104845,-5.061991
1006.898438,2.591157,-1.564743,-1.921467,4.280758
1006.902344,-2.256419,0.494716,2.428236,1.392823
1006.906250,3.476574,7.397003,8.247649,4.974224
1006.910156,2.891375,10.710726,5.687291,7.964099
1006.914062,8.894467,12.035927,8.679560,3.075273
1006.917969,0.997727,12.611331,8.524227,15.453699
1006.921875,10.263851,18.174931,-0.037258,11.064360
1006.925781,4.306809,14.368116,14.641716,0.741768
1006.929688,12.962549,13.026289,8.906635,-0.478452
1006.933594,12.001369,8.602958,0.004086,7.558239
1006.937500,6.712825,7.790479,8.053002,8.672545
1006.941406,10.917959,3.810369,4.255418,0.209776
1006.945312,9.679460,2.420912,5.645887,6.567887
1006.949219,4.022941,1.540443,1.153978,-2.146542
1006.953125,-1.030004,-2.550628,-3.148166,-3.399886
1006.957031,1.732992,-11.731869,-11.238617,-3.055441
1006.960938,-12.507073,-7.557904,-7.526949,-5.884315
1006.964844,-14.909678,-8.990800,-9.481256,-7.990338
1006.968750,-2.883523,-1.640523,-7.414691,-13.091844
1006.972656,-9.288752,-9.569681,-11.424285,-14.772721
1006.976562,-11.679786,-15.006158,-7.740339,-6.357185
1006.980469,-4.872513,-9.477705,-12.547224,-6.080368
1006.984375,-12.384607,-13.200007,-6.778774,-4.714974
1006.988281,-5.975881,-5.578590,-5.231042,-2.948380
1006.992188,-1.611960,-8.341382,3.441268,-4.601201
1006.996094,-5.904008,-3.484562,-2.276506,-1.051850
1007.000000,-1.336617,-0.842746,0.298434,0.034221
1007.003906,1.337712,-0.829352,4.588633,1.448000
1007.007812,2.672630,13.484746,3.236960,2.405464
1007.011719,6.497455,12.904935,8.909966,5.374409
1007.015625,6.872063,12.884669,6.089751,11.220523
1007.019531,8.645007,11.951282,7.581921,8.115040
1007.023438,13.312006,7.840563,8.345164,12.594615
1007.027344,6.230492,2.791941,9.462143,1.635373
1007.031250,3.884447,13.780903,8.541586,7.097856
1007.035156,1.702693,10.721888,11.629366,9.737497
1007.039062,6.376021,8.136784,3.578201,9.707372
1007.042969,8.832384,2.976934,5.857085,9.972592
1007.046875,4.438098,0.887588,7.550182,-2.339627
1007.050781,2.908460,-3.861063,-4.691437,1.297693
1007.054688,-1.539816,-6.314439,-5.479347,-8.588619
1007.058594,-2.845901,-8.334370,-0.546912,-4.623406
1007.062500,-0.656049,-5.800788,-8.514112,-14.475858
1007.066406,-7.158254,-12.947631,-2.907450,-2.513497
1007.070312,-1.636963,-5.866828,-3.573701,-6.387564
1007.074219,-4.779887,-12.589367,-8.616207,-11.433283
1007.078125,-1.982403,-7.248381,-18.923185,-13.478184
1007.082031,-8.504313,-5.411658,-8.213643,-9.343192
1007.085938,-8.925227,-12.967444,-13.337910,-8.117013
1007.089844,-0.993230,-4.842606,-7.559894,-6.447176
1007.093750,-5.735548,-0.925753,-5.913634,2.109811
1007.097656,-1.750466,-2.937247,-9.740254,2.286484
1007.101562,2.207056,-3.286197,4.950478,2.880711
1007.105469,2.910512,5.973606,1.417461,1.081791
1007.109375,3.049002,13.570044,8.805550,-1.575744
1007.113281,14.451029,7.877469,-1.313235,9.857581
1007.117188,13.046634,8.712786,9.490325,7.831006
1007.121094,11.923035,9.052621,9.398015,8.039866
1007.125000,9.611893,0.930969,11.558780,13.077983
1007.128906,7.555714,7.933398,3.721386,13.365243
1007.132812,3.191427,9.601871,13.958681,13.220555
1007.136719,14.150947,12.348822,9.661536,6.563750
1007.140625,4.547894,5.996610,2.473481,8.841034
1007.144531,0.924751,-0.173160,3.058741,2.729301
1007.148438,7.173357,1.365356,-4.641051,4.595281
1007.152344,1.826096,-0.121903,0.319634,-1.302376
1007.156250,-0.489377,-3.972893,5.947217,-8.475990
1007.160156,-8.128202,-8.901567,-9.477509,-4.465613
1007.164062,-7.477265,-6.784241,-5.797440,-9.393517
1007.167969,-5.652807,0.211200,-13.124712,-11.590529
1007.171875,-16.011195,-10.832505,-9.094048,-2.759859
1007.175781,-3.959211,-11.842387,-12.617704,-8.671516
1007.179688,-18.076464,-10.460839,-16.574195,-9.265773
1007.183594,-8.391136,-10.670664,-17.177933,-4.228050
1007.187500,-6.133203,-5.122312,-3.849697,-10.996330
1007.191406,-2.411434,-2.289532,-6.214090,-10.407568
1007.195312,-1.733899,-8.975416,-4.516771,-11.202137
1007.199219,-7.904106,0.323488,-0.370529,0.820028
1007.203125,-4.913730,6.877922,0.870072,2.124434
1007.207031,3.180700,7.535695,4.243110,4.412372
1007.210938,11.099841,7.269236,10.035189,6.806944
1007.214844,6.011486,5.710921,9.657636,11.518499
1007.218750,7.299261,8.752276,9.505882,11.505272
1007.222656,10.678331,6.863427,10.521247,10.679924
1007.226562,10.920251,5.677972,8.786594,9.908534
1007.230469,4.700133,6.864841,9.250606,11.177331
1007.234375,13.486890,9.803591,5.900661,11.480505
1007.238281,4.372924,9.068869,-1.205620,12.767503
1007.242188,4.733129,3.454174,2.219455,4.956694
1007.246094,-3.000130,0.357780,4.069166,2.629978
1007.250000,5.827512,-8.866332,-1.594385,-1.225096
1007.253906,1.676662,-4.903328,-2.553648,3.108941
1007.257812,4.923504,-11.691979,-6.706546,-10.711337
1007.261719,-5.236546,-9.615097,-1.486654,-6.819399
1007.265625,-9.689559,-7.471522,-16.020146,-9.545554
1007.269531,-10.353125,-6.229705,-10.642390,-12.144176
1007.273438,-14.691344,-7.296963,-5.208178,-2.913569
1007.277344,-5.226393,-13.740789,-7.202907,-6.679068
1007.281250,-2.095262,-7.105670,-7.384606,-17.764246
1007.285156,-6.431928,-3.747158,-9.216119,-6.404300
1007.289062,-4.902167,-3.809544,-1.476363,-2.016919
1007.292969,-4.216645,-0.229959,-4.594070,-6.992770
1007.296875,-0.757608,4.776295,-3.380402,1.047968
1007.300781,-1.253146,2.279926,-0.092066,0.182929
1007.304688,1.190445,0.834771,-1.076588,3.595084
1007.308594,0.430048,8.334446,5.877892,4.744233
1007.312500,0.845478,7.535698,10.859122,3.057106
1007.316406,6.731739,11.307429,2.690872,11.155660
1007.320312,8.806343,3.812695,4.802366,0.914658
1007.324219,14.160504,12.614465,13.114916,11.165667
1007.328125,16.364266,14.925372,7.771937,14.932421
1007.332031,8.114330,11.294580,12.056513,11.293894
1007.335938,11.304249,4.802475,5.931424,12.650310
1007.339844,9.873677,8.833623,1.654212,8.009622
1007.343750,12.275405,4.777259,3.682300,5.452583
1007.347656,4.191195,5.733854,5.466677,1.650332
1007.351562,-5.683657,-8.500387,-2.722449,3.605021
1007.355469,1.420786,-10.021757,2.356991,-4.981265
1007.359375,-5.854578,-3.914841,0.252901,-8.653420
1007.363281,-0.163934,-1.060633,-2.694259,-4.043741
1007.367188,-5.924676,-7.060947,-4.319286,-5.017213
1007.371094,-10.171300,-8.891144,-17.533064,-14.156281
1007.375000,-15.594561,-12.713144,-13.641672,-10.858312
1007.378906,-14.627413,-13.490411,-9.265820,-14.286459
1007.382812,-15.998461,-8.262057,-12.619644,-8.504131
1007.386719,-4.382055,-9.096091,-10.886484,-3.235845
1007.390625,-9.291050,-6.894812,-3.496745,-8.834119
1007.394531,1.064707,-5.145877,2.868476,4.766215
1007.398438,0.253028,2.080454,-0.390658,-2.437574
1007.402344,-1.673545,5.760990,4.911307,2.948438
1007.406250,5.490047,2.146062,2.878017,1.335655
1007.410156,3.048753,8.221908,8.209589,5.657922
1007.414062,8.260377,12.589850,5.829203,23.225384
1007.417969,9.761146,10.600768,3.455328,10.872203
1007.421875,6.755670,14.096844,9.125385,15.395024
1007.425781,18.039116,8.373000,14.486255,16.715496
1007.429688,8.346132,10.449232,2.599473,14.899947
1007.433594,11.854492,14.786289,7.840728,4.934202
1007.437500,1.346907,10.679708,9.265179,8.307635
1007.441406,10.786152,-1.223556,12.237277,5.884900
1007.445312,0.622544,7.015447,0.829534,11.642773
1007.449219,1.931349,-1.478768,3.427306,-5.618056
1007.453125,-4.339180,1.643193,-7.807311,-4.152072
1007.457031,0.367788,-9.397086,-5.502400,-2.478572
1007.460938,-13.655991,-18.321471,-9.062631,-6.012856
1007.464844,-7.108921,-9.580050,-17.055366,-6.512676
1007.468750,-11.040320,-1.793169,-17.836814,-18.788496
1007.472656,-3.080969,-5.009662,-16.927776,0.123902
1007.476562,-14.928982,-4.595227,-14.964857,-9.723943
1007.480469,-0.672752,-9.218912,-17.597768,-7.966631
1007.484375,-14.122900,-9.461111,-12.141673,-10.520374
1007.488281,-10.637072,-5.502332,-1.832203,-13.350437
1007.492188,1.104944,-7.149252,-6.550096,-3.048631
1007.496094,-3.329433,-1.664949,-0.689039,-4.444000
1007.500000,0.696598,1.983585,-2.772239,-2.106519
1007.503906,3.520706,5.902361,1.115424,-5.496334
1007.507812,3.089817,4.386966,6.738983,8.918586
1007.511719,9.109014,12.621487,8.200637,8.871429
1007.515625,12.407380,5.769273,5.882281,9.345714
1007.519531,5.183687,8.020481,10.045972,8.984354
1007.523438,9.574868,12.225882,9.219752,15.663511
1007.527344,10.214368,10.575064,12.572650,10.846530
1007.531250,9.524297,13.430626,3.097106,8.081576
1007.535156,5.070438,10.567714,1.855495,8.304949
1007.539062,4.678636,14.577782,12.092547,12.120897
1007.542969,7.965125,8.283596,9.641597,4.683630
1007.546875,-0.364834,-2.719795,0.277388,3.023468
1007.550781,-6.541331,-4.731995,6.637247,1.725250
1007.554688,4.851383,-5.299714,-0.032759,-0.382233
1007.558594,-14.817217,-3.155535,-2.337139,3.222044
1007.562500,5.501814,-2.072352,1.441135,-9.509050
1007.566406,-0.660128,-13.381970,0.037416,-17.151264
1007.570312,-14.958810,-8.482422,-8.205370,-14.805343
1007.574219,-15.024017,-9.582689,-5.838760,-4.091479
1007.578125,-9.629605,-10.256193,-15.635801,-12.573879
1007.582031,-14.770105,-10.631787,-10.149209,-6.422378
1007.585938,-13.362821,-10.835671,-6.521413,-10.421878
1007.589844,-1.532096,-10.356854,-10.231852,-9.008477
1007.593750,-11.739796,-7.087698,-5.865661,1.411237
1007.597656,-2.852918,-1.927998,1.252418,-1.875905
1007.601562,6.174700,2.167280,3.744336,4.760067
1007.605469,5.704787,6.346038,10.084375,4.536710
1007.609375,5.329571,10.535928,0.517181,6.198451
1007.613281,11.978239,4.442744,2.006097,3.801399
1007.617188,3.338904,4.310594,7.675496,1.560025
1007.621094,8.252655,15.966817,10.672513,9.598700
1007.625000,6.190645,9.678103,1.213355,9.669034
1007.628906,12.097006,8.983206,6.717580,10.180241
1007.632812,4.119321,3.918448,0.437319,11.049733
1007.636719,12.394123,8.962447,8.851001,6.479390
1007.640625,7.665202,2.660832,2.614180,2.574072
1007.644531,5.912413,0.886519,-1.423568,2.413779
1007.648438,2.866923,3.693551,1.026632,0.696993
1007.652344,3.322387,-1.231340,-6.374890,0.789108
1007.656250,1.486596,-5.665769,-0.296831,-10.113262
1007.660156,-6.091285,-3.119458,-4.394324,-3.443859
1007.664062,-9.498915,-12.111983,-7.736595,-5.367650
1007.667969,-10.062410,-7.442181,-11.550241,-4.486183
1007.671875,-7.804663,-16.125870,2.398243,-2.697454
1007.675781,-9.267859,-9.512360,-7.112169,-10.699113
1007.679688,-14.038779,-15.464478,-8.113820,-6.076913
1007.683594,-7.230595,-12.256412,-13.930826,-9.251791
1007.687500,-8.991415,-2.616255,-7.872750,-7.263378
1007.691406,-2.407506,-0.724656,-2.644375,-10.066588
1007.695312,-3.550751,-8.817905,0.509093,-1.993875
1007.699219,0.953388,-3.819455,3.703399,0.410272
1007.703125,2.921572,0.899888,2.681809,5.818799
1007.707031,1.762311,2.687057,0.371690,5.457605
1007.710938,4.764678,7.103534,6.742853,11.363100
1007.714844,10.401313,4.920896,16.379921,13.613345
1007.718750,9.747524,6.476075,2.964463,3.711684
1007.722656,14.681620,3.390303,11.935418,6.845236
1007.726562,13.622487,8.845701,9.199085,6.395797
1007.730469,9.619137,12.185319,5.479013,4.075212
1007.734375,5.530720,8.315028,7.962581,5.582124
1007.738281,10.974969,8.804905,11.204597,7.956633
1007.742188,0.927697,-3.015260,3.094977,0.822687
1007.746094,5.440374,6.112611,3.253805,5.174684
1007.750000,-2.238482,8.748540,4.787236,-1.268104
1007.753906,0.847716,-7.093223,1.788414,-2.331575
1007.757812,-5.068824,-7.168667,-10.879081,-2.498980
1007.761719,-7.876646,-13.016669,-11.314090,-0.914294
1007.765625,-5.180784,-6.956083,-10.669387,-0.139647
1007.769531,-8.570251,-18.195426,-5.107534,-8.840050
1007.773438,-9.046967,-10.963906,-2.476603,-10.861900
1007.777344,-2.144730,-3.357471,-8.061724,-12.317387
1007.781250,-9.229552,-20.807847,-9.544824,-14.757156
1007.785156,-11.256001,-7.058382,-18.004334,-6.986521
1007.789062,-8.032878,-3.866022,-5.898680,-0.830408
1007.792969,-9.420603,-5.599021,-5.696338,-6.535757
1007.796875,-9.344028,-0.947537,1.334251,2.851696
1007.800781,-0.749248,1.842936,-5.138165,1.812175
1007.804688,-1.369002,3.614385,0.946678,-0.919252
1007.808594,8.690086,5.932831,5.384298,7.572877
1007.812500,9.138193,3.542317,5.934732,7.864374
1007.816406,8.548404,12.863581,5.291086,9.916903
1007.820312,5.197426,7.827164,11.277604,12.224962
1007.824219,19.046080,8.563922,15.440281,11.133721
1007.828125,8.360323,8.038878,15.898775,10.962406
1007.832031,14.014810,0.886264,8.487746,11.989584
1007.835938,9.116394,11.225339,9.248220,2.462678
1007.839844,14.507592,4.498957,0.686305,4.181667
1007.843750,4.804169,2.942973,9.030854,8.190813
1007.847656,1.900501,-0.343548,3.360682,3.126194
1007.851562,-5.390765,-0.570453,-2.419378,-6.147235
1007.855469,-3.297966,-6.002464,-10.348555,-12.306261
1007.859375,-9.070306,-3.580485,-8.561106,-2.939479
1007.863281,-4.410210,-10.809870,-11.917513,-5.314881
1007.867188,-3.433102,-6.263328,-10.555429,-8.976708
1007.871094,0.066809,-13.238972,-9.047490,-11.883215
1007.875000,-7.004155,-11.727836,-4.962633,-11.396465
1007.878906,-12.112322,-9.112075,-12.508869,-8.195817
1007.882812,-5.953819,-5.809857,-6.721082,-1.799379
1007.886719,-12.620391,4.823541,-8.130474,-11.172024
1007.890625,-5.648165,-5.651718,5.574496,0.594817
1007.894531,-1.191072,-8.519233,-6.650306,-1.945461
1007.898438,-5.054744,-0.708851,0.963087,1.482484
1007.902344,6.656818,6.371625,3.569534,5.346084
1007.906250,9.484456,0.569677,6.435133,5.318132
1007.910156,4.369063,1.120581,9.623846,14.782080
1007.914062,11.545184,6.075510,15.806337,5.682094
1007.917969,8.411351,14.772442,9.477305,5.184141
1007.921875,4.669996,8.605363,8.655313,12.259653
1007.925781,8.455755,12.435611,9.363740,7.499090
1007.929688,6.768231,15.931471,15.433454,14.988376
1007.933594,9.381762,4.757316,5.280473,12.086610
1007.937500,10.800563,3.249948,5.186938,-0.396587
1007.941406,9.689388,5.607333,7.506492,8.286975
1007.945312,6.452780,2.725133,7.308856,3.261135
1007.949219,-7.664655,-2.373183,0.993485,-3.000327
1007.953125,-2.810211,6.730326,-3.318473,-6.040863
1007.957031,-3.567501,-7.455366,0.004647,-2.124840
1007.960938,-4.794052,-9.224144,-10.007790,-6.978994
1007.964844,-4.143493,-5.171216,-15.146650,-6.947160
1007.968750,-8.902658,-7.835499,-2.088490,-8.382839
1007.972656,-11.202599,-7.088474,-12.676153,-9.468522
1007.976562,-5.421530,-5.453250,-2.048216,-16.240801
1007.980469,-11.261180,-9.246014,-15.818312,-11.034108
1007.984375,-6.277316,-8.111027,-5.960885,-0.576466
1007.988281,-3.407113,-3.874965,-6.267224,-10.863621
1007.992188,-7.003381,-3.423674,-13.338469,-5.282882
1007.996094,-6.121641,-4.885617,3.506958,4.790186
1008.000000,2.873099,1.251420,-1.207378,2.551516
1008.003906,5.579630,0.792993,4.515729,0.572835
1008.007812,7.342866,4.979669,4.888633,8.888471
1008.011719,1.425111,3.025600,2.680516,5.681142
1008.015625,10.788046,14.546029,13.392352,5.967867
1008.019531,14.096063,11.718150,13.333428,4.300706
1008.023438,7.831125,5.768346,3.879717,7.802442
1008.027344,2.793866,7.952444,17.872010,8.779013
1008.031250,11.559534,9.809190,6.979635,11.564409
1008.035156,12.046271,5.110144,4.667890,7.939471
1008.039062,4.145208,0.294741,6.511008,11.076343
1008.042969,3.280900,10.746368,13.482609,10.871763
1008.046875,7.911064,-4.819953,9.340622,-1.207015
1008.050781,-8.805753,1.014658,-2.079611,1.530144
1008.054688,-8.850355,-0.548187,-5.553169,-0.755665
1008.058594,-0.563113,-2.598594,-13.760663,-7.796701
1008.062500,-2.102209,-3.605008,-11.061897,-1.170409
1008.066406,-4.938074,-5.973965,-4.450562,-14.883514
1008.070312,-12.522239,-10.902445,-14.173844,-7.549920
1008.074219,-12.726531,-14.563300,-10.044733,-8.320748
1008.078125,-8.654499,-8.356779,-9.650464,-11.570670
1008.082031,-9.506565,-9.905252,-11.498463,-10.350172
1008.085938,-10.464755,-16.008044,-7.543102,-7.977890
1008.089844,-14.734635,-10.405799,-3.991914,-10.918612
1008.093750,-1.564271,-9.267246,-3.688610,-7.774291
1008.097656,-9.393783,-2.414175,-7.108497,-1.317619
1008.101562,0.842122,-4.690206,5.267348,-5.068818
1008.105469,-4.312999,10.221155,4.212910,6.649616
1008.109375,11.301018,5.709972,6.530096,3.126838
1008.113281,5.932953,1.919167,12.096057,5.940691
1008.117188,6.457589,0.973939,11.184476,4.763038
1008.121094,9.360129,14.256773,5.642979,9.859259
1008.125000,9.260707,11.312933,8.102162,6.686432
1008.128906,10.522643,13.591202,11.359900,10.014351
1008.132812,4.621146,10.098092,7.355896,11.166423
1008.136719,5.086877,7.179203,8.616797,9.306266
1008.140625,12.901610,5.947397,15.027376,10.158196
1008.144531,3.854253,-0.504558,-0.031857,-1.381942
1008.148438,-4.083108,-2.221707,5.102402,-4.109700
1008.152344,-0.201906,5.449234,-9.631713,-5.368275
1008.156250,-2.096461,-11.111018,-7.606899,-2.839907
1008.160156,-7.427301,-1.130639,-8.096714,-10.627226
1008.164062,-5.715876,-12.136553,-7.361250,-9.515392
1008.167969,-14.398988,-15.396581,-10.083614,-7.334700
1008.171875,-17.871606,-11.091243,-11.279405,-8.507776
1008.175781,-7.587855,-4.672825,-7.214683,-9.323867
1008.179688,-5.092006,-14.854199,-12.560370,-7.237166
1008.183594,-3.148891,-3.937177,1.560532,-14.654574
1008.187500,-6.457401,-14.143274,-4.374362,-4.690654
1008.191406,-5.216903,-5.330472,-0.989268,-9.772952
1008.195312,-4.646852,-7.707165,-3.947876,-4.647279
1008.199219,-5.428511,-0.475078,-5.347302,-0.922745
1008.203125,4.560262,-1.639698,2.513799,0.505456
1008.207031,4.743538,8.784752,9.978624,2.840953
1008.210938,9.805402,-2.211521,10.587768,12.157353
1008.214844,10.679877,5.566873,8.681077,10.918087
1008.218750,11.416578,9.440802,6.657719,12.803870
1008.222656,7.711701,11.423713,7.101882,2.058147
1008.226562,13.667146,9.959065,13.718149,2.847962
1008.230469,6.962745,13.759121,18.684904,15.867272
1008.234375,9.941318,-1.383695,6.147750,2.058452
1008.238281,8.752774,6.390751,6.399697,14.300616
1008.242188,-3.644920,10.542684,7.561833,4.084955
1008.246094,0.462965,7.026061,4.401445,3.065279
1008.250000,-6.795316,-8.416519,-1.174198,-2.302268
1008.253906,-2.028405,5.125810,-2.626003,-4.969445
1008.257812,-1.255756,-9.885065,-3.362196,0.612402
1008.261719,-10.988717,-7.742126,-1.016224,-1.482520
1008.265625,-7.692867,-8.201908,-6.805991,-9.639611
1008.269531,-10.010203,-10.900224,-11.874152,-0.449968
1008.273438,-11.179134,-13.594675,-3.550589,-9.101973
1008.277344,-1.492275,-8.950578,-16.984218,-14.193434
1008.281250,-6.460740,-4.475671,-10.579620,-12.060185
1008.285156,-11.511268,-5.162056,-9.805931,-5.687817
1008.289062,1.839276,-0.524641,-8.967231,-3.492417
1008.292969,-7.616812,-6.384103,-9.602947,3.668698
1008.296875,1.931201,0.179445,3.148919,-7.889700
1008.300781,6.428999,0.529630,-4.304002,0.129102
1008.304688,-5.167525,1.872517,8.245302,4.604789
1008.308594,2.906828,6.663198,3.808766,5.928404
1008.312500,8.270810,7.110426,7.712595,5.769806
1008.316406,0.747712,11.194210,13.408884,8.046220
1008.320312,5.825117,8.044234,10.845263,11.616510
1008.324219,4.521100,5.893488,7.428499,2.034861
1008.328125,4.976503,1.732771,4.604437,10.734642
1008.332031,3.284691,7.051778,6.190597,15.387819
1008.335938,9.817754,5.233002,8.234058,6.961686
1008.339844,6.463386,6.463754,11.044140,4.360437
1008.343750,3.104329,-1.483717,1.673816,-3.975354
1008.347656,6.453053,1.640360,0.911287,3.766300
1008.351562,1.517151,-2.415798,0.089545,1.365230
1008.355469,-3.557995,4.065413,1.874213,-8.200692
1008.359375,-4.553373,-1.223305,-2.342309,-7.459296
1008.363281,-3.636138,-11.063484,-2.131729,-9.001843
1008.367188,-9.642308,-7.607987,-7.937117,-10.222168
1008.371094,-13.136690,-6.540370,-11.900455,-15.660103
1008.375000,-13.960164,-12.753098,-9.562385,-18.300016
1008.378906,-10.503088,-12.917419,-5.997676,-21.389412
1008.382812,-0.549803,-9.255962,-7.866491,-11.693333
1008.386719,-0.415348,-9.390095,-2.530956,-7.599455
1008.390625,-12.477102,-4.145480,-3.237511,-5.294524
1008.394531,-7.797363,-9.474865,-0.383737,-3.611067
1008.398438,-1.849540,-3.961155,-1.845021,-2.017078
1008.402344,-1.645028,2.329901,2.339229,0.471598
1008.406250,-0.257021,11.813588,4.876277,-5.151706
1008.410156,6.207543,8.926557,0.272574,7.823376
1008.414062,3.413693,3.627605,8.608978,6.012487
1008.417969,6.884835,4.219216,9.622957,8.747897
1008.421875,10.570054,9.546471,9.095333,7.856592
1008.425781,12.109539,2.238351,17.146880,7.575899
1008.429688,8.953719,17.095391,14.841937,12.990407
1008.433594,9.141718,1.630065,13.995143,16.245411
1008.437500,7.856211,9.285005,11.931155,7.698430
1008.441406,8.680453,4.830395,7.910118,8.619191
1008.445312,9.661997,-0.280303,6.240493,5.355720
1008.449219,-9.638574,3.544876,5.227288,4.952451
1008.453125,2.948991,-3.146106,-0.205320,-7.848558
1008.457031,-6.173465,-12.619341,1.935850,-10.120140
1008.460938,-3.211481,-4.515506,-5.615691,-2.430635
1008.464844,-3.957178,-13.952328,-9.201002,-4.598511
1008.468750,-1.702107,-10.082889,-9.783636,-11.556143
1008.472656,-6.573134,-15.916884,-8.721501,-5.528442
1008.476562,-14.352993,-11.711320,-5.611541,-7.120748
1008.480469,-2.906075,-2.655637,-3.028501,-9.089787
1008.484375,-15.632041,-14.466272,-10.523228,-11.044679
1008.488281,-12.940241,-4.335034,-4.508770,-7.593533
1008.492188,-2.253350,2.642363,0.759141,-4.314233
1008.496094,-4.387135,-3.155554,-0.456462,-4.405203
1008.500000,0.938743,-3.475293,-1.425699,0.232102
1008.503906,-3.434126,6.492625,1.457670,5.023267
1008.507812,5.593980,1.049727,-0.826351,1.565597
1008.511719,8.827387,5.641228,1.393293,7.799004
1008.515625,2.797414,7.678360,10.289748,6.131522
1008.519531,3.220687,12.589575,14.952807,11.622421
1008.523438,11.265483,21.019371,3.539061,10.213078
1008.527344,7.254676,8.740106,13.527967,7.279872
1008.531250,16.962904,10.506639,2.476656,10.096223
1008.535156,0.409573,6.528881,5.960569,6.990721
1008.539062,3.496011,11.766634,8.797345,6.733354
1008.542969,1.987962,2.533037,0.901677,5.754149
1008.546875,-0.004043,-0.305906,-1.433307,6.099823
1008.550781,0.578012,1.839601,-0.749619,0.522953
1008.554688,-4.091079,-1.402985,0.456831,-6.500211
1008.558594,-2.539610,-4.473758,-11.618358,-0.579586
1008.562500,-0.370465,-5.680847,-5.457227,-3.889640
1008.566406,-9.636147,-4.288155,2.924381,-6.151335
1008.570312,-13.350395,-7.413532,-15.537207,-7.515109
1008.574219,-10.476635,-10.087514,-2.043427,-9.520426
1008.578125,-18.331870,-16.825963,-5.159725,-4.539271
1008.582031,-2.120136,-8.378072,-14.263579,-3.631071
1008.585938,-5.201406,-9.821686,-12.919819,-19.093319
1008.589844,-1.919652,-5.437461,-3.282246,-2.233587
1008.593750,-1.867588,3.017158,-5.587365,-3.219630
1008.597656,0.708262,1.065895,2.867085,-1.522390
1008.601562,6.931354,4.382185,0.141318,-5.442449
1008.605469,0.930532,8.509892,-4.196378,2.100077
1008.609375,4.529310,-7.927444,3.908660,7.562659
1008.613281,2.941697,-0.852361,2.264462,4.799490
1008.617188,12.117250,7.663457,13.658696,10.303904
1008.621094,10.366997,4.831534,7.327708,9.530120
1008.625000,11.741320,0.747951,6.435588,9.596478
1008.628906,15.976737,10.021573,5.831694,13.701867
1008.632812,4.610668,13.030099,12.338720,16.337704
1008.636719,6.510903,5.390506,9.721371,12.988282
1008.640625,7.157343,2.845792,3.870826,10.023731
1008.644531,5.037083,2.991489,11.293507,-2.567607
1008.648438,-0.244896,-2.793897,0.898194,0.085660
1008.652344,-2.879382,-1.543891,-1.360103,2.528877
1008.656250,-2.157952,-1.553130,6.374014,4.271975
1008.660156,-1.038191,-11.137967,-4.902592,-4.789161
1008.664062,-7.922302,-11.123375,-8.618309,-5.408416
1008.667969,-12.372932,-14.950195,-12.902925,-11.435984
1008.671875,-10.157767,-14.459441,-12.378737,-12.106118
1008.675781,-10.142144,-12.439194,-4.607820,-14.984582
1008.679688,-4.973583,-10.718087,-13.535425,-3.516042
1008.683594,-3.399581,-13.992482,-4.124407,-7.850010
1008.687500,-4.932274,-8.239606,-10.257912,-9.462213
1008.691406,-8.371253,-9.896519,-8.468928,-2.016845
1008.695312,-3.157034,-4.027537,-5.103200,-3.122013
1008.699219,2.036179,4.572757,-1.251017,1.500512
1008.703125,-1.300765,-0.733462,1.942072,3.221682
1008.707031,3.557866,1.933501,8.427199,5.009515
1008.710938,4.732227,5.231345,3.404580,2.891714
1008.714844,5.595051,8.298987,11.903571,8.988134
1008.718750,8.178538,9.269388,5.615638,5.077532
1008.722656,9.638626,14.712126,9.508524,13.069916
1008.726562,9.915493,22.839921,6.234341,9.594283
1008.730469,9.910514,11.546480,5.748722,7.075153
1008.734375,9.874595,4.298751,9.970979,9.921011
1008.738281,8.054272,11.171210,6.226461,-2.017273
1008.742188,-0.633327,0.378445,4.283454,-2.482191
1008.746094,1.867643,-4.210382,0.219657,8.431206
1008.750000,-2.545185,4.065142,0.971457,6.062252
1008.753906,-5.989504,-4.598977,1.137247,1.297177
1008.757812,-5.119047,-2.388784,-8.599029,-8.948163
1008.761719,-12.727918,-3.790778,-7.827568,-11.102725
1008.765625,-9.215723,-9.952484,0.436992,-11.846669
1008.769531,-17.984432,-6.559983,-11.678342,-8.897917
1008.773438,-12.616922,-6.773798,-10.525927,-11.939781
1008.777344,-5.912499,-9.893748,-9.945575,-15.352791
1008.781250,-10.780971,-17.718351,-12.030435,-6.212537
1008.785156,-6.792006,-8.971161,-5.229935,-9.293944
1008.789062,-6.201934,-10.451998,-4.667532,-4.545757
1008.792969,-9.628266,-8.566787,-4.306622,-5.203732
1008.796875,-3.610989,-3.309007,-0.592593,-9.154046
1008.800781,-9.577714,4.183276,-1.817952,2.552530
1008.804688,4.208473,-3.648685,4.011057,6.014695
1008.808594,7.260819,6.149921,4.113287,1.719717
1008.812500,4.308457,10.926272,-0.650785,4.062272
1008.816406,6.707123,11.352195,-0.268057,6.143113
1008.820312,8.117609,12.618808,8.760020,14.506313
1008.824219,5.617760,7.695469,9.040806,18.816118
1008.828125,11.467260,13.955915,3.355627,8.612377
1008.832031,6.983978,12.538776,13.267640,6.086593
1008.835938,2.559762,-6.588098,9.452182,11.507599
1008.839844,-0.057575,6.563143,6.481665,7.197248
1008.843750,1.685558,2.452413,15.633901,0.620011
1008.847656,1.575094,2.014816,4.279632,0.093255
1008.851562,0.730394,6.998750,-1.843663,-1.122859
1008.855469,-6.689294,-3.889983,-8.035970,-10.603425
1008.859375,-8.370970,-1.415612,-9.843878,-14.144744
1008.863281,-7.225131,-10.338454,-11.502187,-7.903514
1008.867188,-8.450648,-10.733142,-10.870650,-15.982994
1008.871094,-5.082230,-16.388817,-6.178482,-11.709255
1008.875000,-10.433183,-11.062476,-18.512291,-16.263332
1008.878906,-8.027989,-11.493210,-7.643333,-14.921732
1008.882812,-6.729605,-8.061905,-14.949835,-7.776826
1008.886719,-7.258072,-8.378173,-12.282999,-10.622179
1008.890625,-9.286486,3.706129,-8.558726,2.222321
1008.894531,0.341581,-3.487730,-5.544940,-8.283319
1008.898438,6.651517,1.339183,-1.731235,-4.609768
1008.902344,-0.548557,-4.500897,8.945030,-1.494728
1008.906250,3.727501,0.268631,1.600854,-1.745890
1008.910156,9.509766,12.776115,4.471634,2.732660
1008.914062,13.978520,9.079137,0.619576,7.357499
1008.917969,10.505159,4.848808,3.627301,19.302460
1008.921875,12.783559,8.165499,7.984187,12.704912
1008.925781,17.298740,1.058980,8.707599,13.161926
1008.929688,14.706081,13.880198,13.424749,12.036837
1008.933594,-2.448030,1.270833,12.236374,9.914645
1008.937500,15.122540,6.132897,6.498605,2.334441
1008.941406,7.382369,-2.404957,9.325074,3.523013
1008.945312,3.358010,2.529472,0.781666,1.674664
1008.949219,4.845781,-3.902880,1.422719,0.650766
1008.953125,-5.012050,0.697543,0.192283,-1.022956
1008.957031,4.418567,-5.523009,-6.318337,0.479723
1008.960938,-9.011713,-4.535830,-9.473543,-7.155375
1008.964844,-4.285570,-6.970935,-11.269539,-5.307852
1008.968750,-11.536719,-5.211734,-11.284146,-9.379838
1008.972656,-8.390821,-10.472160,-13.130186,-11.811554
1008.976562,-9.254585,-0.476506,-10.216085,0.229479
1008.980469,-12.807600,-7.613591,-13.547754,-5.801400
1008.984375,-16.776356,-5.549367,-13.862818,-10.214552
1008.988281,-3.777121,-8.617752,-12.334150,-5.958538
1008.992188,-9.578681,-1.281965,-10.910641,-12.166121
1008.996094,1.988285,-9.338212,-2.293188,-7.892210
1009.000000,-5.023547,1.406698,0.870788,2.316258
1009.003906,5.424664,1.182934,3.946430,2.289562
1009.007812,1.036828,6.208964,5.331479,10.119842
1009.011719,2.433301,0.983117,11.491217,13.911552
1009.015625,11.017106,9.964728,11.249592,6.368160
1009.019531,12.912490,6.598307,8.628740,17.543408
1009.023438,7.967457,22.165105,12.128672,6.318891
1009.027344,11.253760,7.682402,4.666339,6.931231
1009.031250,7.174642,5.132654,13.397869,4.964918
1009.035156,5.699023,10.019825,3.553103,-1.392829
1009.039062,8.010884,7.617616,3.343352,5.876544
1009.042969,4.659050,4.383349,-0.183632,7.048091
1009.046875,-2.393824,-2.152919,6.884991,-3.783315
1009.050781,3.956111,-5.373749,4.904041,-6.005428
1009.054688,-2.049790,-4.707956,-3.794134,-1.094502
1009.058594,-4.357721,-6.266371,-7.059694,-0.736544
1009.062500,-2.128547,-12.820510,-9.900959,-7.902625
1009.066406,-16.234090,-10.844298,-6.955914,-13.420527
1009.070312,-10.218126,-18.086765,-11.198429,-1.411474
1009.074219,-10.495252,-11.596220,-5.553714,-8.968085
1009.078125,-1.560434,-10.594095,-12.840987,-14.858799
1009.082031,-11.355774,-5.694206,-9.577287,-10.845067
1009.085938,-8.088000,-6.075802,-11.213234,-1.760404
1009.089844,-2.041920,-13.260814,-8.008088,0.390932
1009.093750,-6.137423,-10.223747,-2.132810,0.473937
1009.097656,1.962052,4.128891,-4.030155,-3.782497
1009.101562,-2.836006,0.553814,3.619522,3.123974
1009.105469,5.036276,6.695839,4.672991,9.152863
1009.109375,4.173297,7.801276,4.884768,7.741404
1009.113281,8.508408,10.258863,10.820384,9.882870
1009.117188,6.528613,2.925768,16.874472,3.092476
1009.121094,16.445404,10.069696,3.989802,0.630284
1009.125000,8.969339,18.092660,0.964069,17.204705
1009.128906,14.010381,6.861274,15.682037,11.871798
1009.132812,11.561795,7.130709,2.697773,6.575160
1009.136719,10.881880,3.241870,3.206325,10.552313
1009.140625,9.618502,6.486804,3.447358,4.437488
1009.144531,4.407285,13.491389,4.711515,6.794978
1009.148438,8.633128,4.605813,6.934801,5.048413
1009.152344,4.543746,-7.006343,-2.858820,2.110732
1009.156250,-2.197775,-5.065706,-0.743400,-7.209500
1009.160156,-7.176086,-9.982468,-0.599521,-2.940340
1009.164062,1.305161,-7.848305,-7.606569,-12.498792
1009.167969,-15.107690,-4.171059,-5.310027,-10.320226
1009.171875,-10.239251,-4.163564,-13.327444,-14.049646
1009.175781,-6.977782,-9.165445,-10.447332,-11.053469
1009.179688,-14.275730,-13.804137,-9.602640,-12.647080
1009.183594,-14.458139,-2.223736,-9.996970,-9.451564
1009.187500,-3.561052,0.754347,-15.291384,-7.037726
1009.191406,-6.386447,-4.805858,-6.091522,-8.408419
