timestamp,TP9,AF7,AF8,TP10
1000.000000,2.497553,4.697963,-1.289866,-1.115701
1000.003906,1.332428,5.581121,-0.393130,3.973284
1000.007812,11.677283,5.573085,2.332214,4.223895
1000.011719,5.388790,3.106377,4.859339,7.250926
1000.015625,12.179637,6.374497,5.217222,7.992511
1000.019531,10.466858,12.394001,13.866308,5.087751
1000.023438,7.065464,4.274008,9.079246,11.238935
1000.027344,3.415284,12.642751,11.225534,7.303990
1000.031250,4.340985,8.388589,14.230054,8.735607
1000.035156,12.863059,5.487965,18.042212,9.713741
1000.039062,8.839487,3.422179,11.076831,10.376439
1000.042969,9.223741,4.524817,1.588330,5.274856
1000.046875,7.770485,-2.964146,-3.219253,5.290517
1000.050781,0.959177,6.723561,-0.652758,-2.803736
1000.054688,0.826437,-1.130190,-2.672637,0.685252
1000.058594,-9.091772,-8.392430,-3.631471,-1.889197
1000.062500,-3.500447,-5.539592,-10.711213,-8.267124
1000.066406,-6.007795,-7.333749,-4.123068,-11.183609
1000.070312,-15.441159,-13.555172,-9.657224,-12.757227
1000.074219,-5.352584,-15.427582,-10.811213,-16.290511
1000.078125,-11.438304,-7.534826,-12.299109,-10.740720
1000.082031,-10.798032,-13.156553,-18.045477,-9.302462
1000.085938,-8.320800,-2.982729,-11.186743,-10.430817
1000.089844,-12.313786,-1.725673,-1.600889,-4.996550
1000.093750,-3.985841,3.845505,-4.517363,-1.508021
1000.097656,-2.515184,0.420769,-8.290576,-5.926550
1000.101562,3.642408,-1.638698,-1.621381,3.650660
1000.105469,5.734484,0.700490,-4.685250,0.231434
1000.109375,5.866823,4.351323,1.576557,-0.527114
1000.113281,-1.193135,1.652668,6.549756,8.524805
1000.117188,6.620978,9.476645,4.574411,5.609674
1000.121094,10.640953,14.921765,2.759331,21.057726
1000.125000,17.632219,8.168337,5.915628,14.930503
1000.128906,10.243422,3.557700,6.477079,16.221617
1000.132812,12.641920,7.652611,11.535888,7.297487
1000.136719,2.657088,2.796611,7.169198,3.180152
1000.140625,1.557757,10.080871,-0.553774,5.278281
1000.144531,1.301635,1.978788,3.431270,2.150804
1000.148438,-8.781370,-5.384476,0.289758,1.488341
1000.152344,0.768644,-2.186607,-4.084461,-0.925723
1000.156250,1.288036,-8.899511,-1.428288,-8.166743
1000.160156,-5.199895,-11.000468,-8.048302,-10.801757
1000.164062,-11.422730,-6.069067,-8.980383,-7.710162
1000.167969,-10.709074,-11.369044,-8.258717,-10.881456
1000.171875,-13.283371,-9.803769,-9.464278,-12.467214
1000.175781,-5.866654,-4.566476,-5.984783,-2.856957
1000.179688,-8.304176,0.225116,-11.309801,-6.167502
1000.183594,-7.637636,-7.654926,-15.040892,-8.431737
1000.187500,-9.203188,-4.320963,-6.302421,-10.170528
1000.191406,-14.044076,-1.985807,-6.696197,2.585221
1000.195312,1.505258,-3.945335,-3.377935,-5.228682
1000.199219,1.841686,6.082264,3.382447,-0.180418
1000.203125,-4.426765,4.978015,7.784606,5.658141
1000.207031,2.305736,2.499814,6.017890,0.129737
1000.210938,12.560136,9.700002,3.993948,4.553369
1000.214844,11.777484,1.711285,5.421333,1.872415
1000.218750,16.577620,9.941319,6.674126,7.894905
1000.222656,9.785448,5.979515,7.759332,8.622431
1000.226562,6.916428,9.801171,7.375728,8.140977
1000.230469,5.357816,7.868427,12.424871,5.815019
1000.234375,10.342404,6.704765,5.577520,3.102937
1000.238281,6.890991,1.096248,1.270335,4.839300
1000.242188,5.069527,7.815240,7.865545,0.460050
1000.246094,0.995682,1.689822,-0.505522,4.617072
1000.250000,3.367154,0.102432,0.742067,-1.008826
1000.253906,1.236981,2.837221,2.001361,-2.488971
1000.257812,-5.453776,-9.820394,0.539426,-3.759806
1000.261719,-7.264299,-6.252459,-0.861879,-13.265743
1000.265625,-4.875483,-2.485149,-7.483231,-5.496325
1000.269531,-6.753680,-10.807521,-6.842648,-8.735551
1000.273438,-8.477473,-7.018104,-1.842420,-8.128502
1000.277344,-14.908646,-13.776072,-10.379692,-14.249727
1000.281250,-9.967222,-11.496211,-11.157548,-9.714996
1000.285156,-0.677852,-6.673287,-10.566488,-11.193845
1000.289062,-1.784784,-10.963789,-2.253009,-9.126495
1000.292969,-2.623349,-10.903530,-3.507643,-1.946193
1000.296875,-4.619737,-7.460961,-3.303071,2.396455
1000.300781,1.455249,-0.641240,-4.536649,4.248848
1000.304688,5.035200,6.887434,-3.715316,-0.217197
1000.308594,10.309046,7.578100,6.159475,8.076386
1000.312500,4.347743,11.965190,7.564837,11.835406
1000.316406,7.949007,12.328866,2.841568,12.675696
1000.320312,9.150082,11.469828,1.313630,11.934807
1000.324219,9.747177,12.068720,4.610797,6.807921
1000.328125,11.857763,7.424680,12.878309,5.994368
1000.332031,6.098131,5.876066,2.362614,10.287631
1000.335938,11.581541,7.164607,11.473226,5.800535
1000.339844,6.083937,8.119616,13.189908,3.292469
1000.343750,11.686221,12.608844,-0.813693,1.228926
1000.347656,2.086960,0.118986,0.174937,-3.385161
1000.351562,-1.108645,-2.022834,-5.370587,1.511078
1000.355469,-7.666367,-8.672811,-2.839809,-11.601133
1000.359375,-12.184672,-7.608529,-10.367405,-7.961932
1000.363281,-6.667744,-7.867801,-8.360225,-11.591377
1000.367188,-8.777875,-12.806273,-7.512369,-3.814468
1000.371094,-11.477221,-3.398048,-8.552018,-1.393721
1000.375000,-10.818373,-7.644749,-7.914113,-6.425284
1000.378906,-13.058666,-6.508526,-9.652600,-10.397941
1000.382812,-7.387339,-11.257688,-13.422367,-14.735015
1000.386719,-5.192511,-10.010035,-10.479470,-10.588714
1000.390625,-5.350515,-13.272291,-16.330747,-9.173228
1000.394531,-3.702468,-7.733120,4.184951,-10.897736
1000.398438,-1.043352,-4.268558,-2.773979,-4.146633
1000.402344,-2.459582,6.319195,-10.690087,4.554458
1000.406250,6.001395,5.975872,8.913484,-7.102416
1000.410156,7.918454,7.708768,4.459484,9.938727
1000.414062,9.438415,7.478419,3.641016,7.378650
1000.417969,8.802013,18.230805,10.729905,10.016449
1000.421875,8.809567,10.880223,8.182499,10.111174
1000.425781,14.761604,6.593560,19.455522,11.143614
1000.429688,8.809611,10.841927,6.895649,4.853530
1000.433594,3.771329,8.885359,12.264903,11.848969
1000.437500,3.157545,9.343627,7.688329,3.741748
1000.441406,7.613168,-3.139309,9.591440,1.840671
1000.445312,2.535924,2.413998,1.180061,1.857107
1000.449219,1.304090,3.566442,-1.097070,1.937135
1000.453125,0.685045,-9.983753,-2.950803,-0.114719
1000.457031,-1.410370,-0.222951,-4.648538,-6.641337
1000.460938,-5.504146,-5.256755,-10.748256,-14.268009
1000.464844,-9.837676,-1.986744,-9.392257,0.695649
1000.468750,-5.500548,-11.169758,-12.270463,-6.891712
1000.472656,-9.661969,-11.580520,-10.215674,-7.460655
1000.476562,-3.459624,-15.574743,-1.463244,-10.284226
1000.480469,-12.399910,-3.975675,-0.798251,-11.390402
1000.484375,-13.588633,-9.161400,-1.825005,-8.324250
1000.488281,-4.282397,-9.568216,-8.739905,-6.725557
1000.492188,-7.756157,-8.613445,-1.589439,-5.068717
1000.496094,1.591490,-0.711208,-13.845204,-5.266841
1000.500000,1.761208,5.092124,-1.182970,1.767341
1000.503906,1.653776,6.113208,-5.350647,8.165944
1000.507812,10.321649,9.605322,7.104329,6.604184
1000.511719,1.344046,9.808757,12.086535,6.397150
1000.515625,8.421861,4.538107,16.396276,6.530952
1000.519531,16.091160,13.623498,10.866767,5.385718
1000.523438,14.917274,10.218903,5.017677,8.608352
1000.527344,14.056743,11.682919,10.791526,10.281536
1000.531250,7.205099,6.735944,9.497667,3.435039
1000.535156,5.589039,12.095102,6.086978,10.653713
1000.539062,0.896433,10.620128,7.032748,6.244567
1000.542969,3.787364,4.664953,2.473658,7.021461
1000.546875,-3.605191,4.390909,3.997255,-0.523253
1000.550781,5.575774,3.406288,0.428246,-5.808935
1000.554688,-3.379595,-2.411808,-10.653646,-0.526885
1000.558594,-0.086808,-5.375304,-9.013759,-5.756845
1000.562500,-2.472909,-4.285117,-6.641408,-1.485747
1000.566406,-5.566773,-14.213613,-7.551472,-18.672563
1000.570312,-10.113280,-13.733989,-7.652705,-2.137509
1000.574219,-9.944919,-3.296279,-11.735231,-8.256134
1000.578125,-11.251915,-7.942672,-12.329378,-8.485306
1000.582031,-8.047370,-3.002505,-13.466026,-10.587486
1000.585938,-3.310905,-11.256379,-6.708209,-12.787536
1000.589844,-3.872547,-3.302363,-4.015160,-1.954779
1000.593750,-11.025435,0.022083,-5.190009,-2.889964
1000.597656,-3.511326,-1.966833,2.421635,-4.660619
1000.601562,2.606567,0.868871,-0.254899,-3.901280
1000.605469,-1.401362,-0.037734,2.205508,4.763492
1000.609375,7.770196,1.613006,8.114941,7.216855
1000.613281,0.633042,17.234591,7.130710,-2.166907
1000.617188,13.563516,11.423596,10.414562,10.518426
1000.621094,17.989369,9.323396,5.918569,10.880167
1000.625000,9.075694,8.798504,11.259759,14.100310
1000.628906,15.114286,18.557327,13.621523,12.089037
1000.632812,12.708219,7.805559,10.604401,6.409340
1000.636719,2.594589,4.927336,5.752601,5.698210
1000.640625,2.260089,5.246093,4.810843,7.728062
1000.644531,5.869279,5.179004,1.192185,4.992679
1000.648438,-0.989571,2.549875,3.070198,6.077461
1000.652344,-7.656955,5.142004,-0.278362,-5.089407
1000.656250,-4.848973,-7.336098,-5.197907,-12.231127
1000.660156,-1.213842,-9.199936,-8.176287,-5.506001
1000.664062,-10.145858,-5.794829,-4.955269,-10.714548
1000.667969,-10.438438,-6.979483,-12.851028,-10.640425
1000.671875,-8.895967,-3.063261,-7.347842,-5.922198
1000.675781,-6.242485,-12.054471,-6.474917,-11.435131
1000.679688,-6.356424,0.809136,-13.192231,-9.702753
1000.683594,-12.830958,-11.464741,-8.578134,-8.593287
1000.687500,-8.613581,-6.118150,-4.900755,-13.648183
1000.691406,-4.673821,-5.476462,0.963824,-2.769850
1000.695312,-4.176609,-1.073809,1.575431,-6.556114
1000.699219,3.538462,1.905519,-2.699529,8.936513
1000.703125,5.295562,-5.527572,8.441255,-1.068059
1000.707031,5.193809,2.250116,4.798180,-1.917065
1000.710938,2.315872,5.612252,3.740521,8.071212
1000.714844,11.988616,13.089753,8.091180,10.025452
1000.718750,3.541160,6.584186,12.275374,7.890417
1000.722656,10.734000,13.347691,9.710236,6.087313
1000.726562,12.179358,14.913794,11.237293,11.986975
1000.730469,6.777394,2.440958,12.352192,9.242555
1000.734375,7.928302,-2.452453,12.033477,5.704029
1000.738281,6.385423,14.615841,8.346921,4.017282
1000.742188,4.460383,9.486374,8.581398,6.529703
1000.746094,5.588212,4.378126,10.837408,5.063788
1000.750000,-1.241168,-2.688183,2.342670,-1.585907
1000.753906,-1.679285,-0.927244,-1.381844,-0.230492
1000.757812,-3.417023,-7.437184,-8.371839,-7.124899
1000.761719,-6.211612,-8.409726,0.499220,-6.135326
1000.765625,-14.913439,0.617326,-4.468687,-6.497750
1000.769531,-1.429634,-9.393933,-8.876308,-9.500684
1000.773438,-10.701213,-17.343296,-13.399585,-12.093659
1000.777344,-15.259310,-3.305640,-9.627970,-16.225658
1000.781250,-1.581753,-10.482662,-7.059741,-8.656183
1000.785156,-13.408017,-7.289136,-11.315472,-9.335141
1000.789062,-10.703217,-1.974104,-5.347457,-7.579666
1000.792969,-0.926584,-8.513001,-6.916822,-0.429348
1000.796875,2.892602,-4.459368,-7.399197,-1.897570
1000.800781,-3.149775,-3.589666,3.304355,6.009787
1000.804688,8.610279,-3.393977,-2.228456,5.137185
1000.808594,4.584987,5.433030,5.511705,2.353332
1000.812500,5.771240,13.984750,13.049515,0.574597
1000.816406,9.202550,8.219386,10.867556,6.702944
1000.820312,5.643309,12.425591,16.381176,8.797975
1000.824219,9.067493,10.488900,5.546233,11.379457
1000.828125,5.924873,3.123099,7.535030,3.700347
1000.832031,3.708283,11.686821,13.047202,8.950651
1000.835938,4.645991,15.428543,5.451852,11.586517
1000.839844,5.800036,12.215565,3.874480,0.642594
1000.843750,3.366001,1.320011,6.736343,8.565149
1000.847656,6.234663,1.561893,-2.407429,5.507655
1000.851562,-5.077266,3.199957,-0.277289,3.593881
1000.855469,1.046900,-8.699880,-2.759743,3.900070
1000.859375,-3.768100,-10.446016,-10.029078,-4.096268
1000.863281,-9.110340,-0.906928,-12.649756,-8.036449
1000.867188,-2.256526,-11.755696,3.338217,-2.241429
1000.871094,-9.869275,-11.072238,-8.018983,-9.556541
1000.875000,-13.875896,-16.008606,-8.809282,-9.283472
1000.878906,-7.682254,-3.035540,-9.237827,-7.342954
1000.882812,-17.134455,-11.622768,-16.251227,-5.166783
1000.886719,-6.807790,-4.420694,-9.277218,-8.318615
1000.890625,-5.486612,-5.286969,-3.382892,-6.396410
1000.894531,-0.708111,1.873892,-7.274783,-6.990312
1000.898438,-5.678422,2.334585,1.633669,-3.147654
1000.902344,4.610975,3.502360,1.782498,0.255777
1000.906250,8.943271,-1.364497,3.809887,7.034241
1000.910156,9.925822,8.782788,-3.569152,6.696461
1000.914062,9.668831,6.306139,12.647921,6.791674
1000.917969,8.670579,7.960669,9.289748,11.689232
1000.921875,17.161026,11.873119,13.560033,7.261921
1000.925781,8.516372,9.723732,13.430879,10.337667
1000.929688,9.283760,4.457503,5.384429,13.931274
1000.933594,17.154025,5.033947,2.324739,8.941756
1000.937500,4.189560,7.898028,7.685703,8.607128
1000.941406,4.449275,8.680107,2.782461,5.761214
1000.945312,7.264615,17.851092,-5.676937,0.812339
1000.949219,1.003965,3.237600,10.602965,-6.405240
1000.953125,-4.865264,1.697823,-0.128966,0.267985
1000.957031,3.446400,-4.822044,-8.208720,-6.839560
1000.960938,-4.066031,-9.674980,-7.017256,-9.974134
1000.964844,-12.108260,-10.191305,-4.642265,0.858836
1000.968750,-10.223274,-7.472294,-7.900668,-3.599873
1000.972656,-6.335795,-7.753796,-16.901956,-10.158509
1000.976562,-17.230233,-2.009948,-8.460408,-7.321214
1000.980469,-1.810793,-12.783919,-9.129884,-7.229705
1000.984375,-1.720904,-13.801658,-10.429166,-10.646297
1000.988281,-7.775236,-6.059616,-8.417308,-9.794961
1000.992188,-0.153907,-11.012009,-1.906993,-10.795021
1000.996094,-7.985110,-11.819131,-2.996256,-5.656810
1001.000000,-0.791353,-2.171663,0.870491,3.314323
1001.003906,-0.422480,-0.753925,-1.595177,8.550121
1001.007812,2.207744,3.053969,12.828658,2.284718
1001.011719,-5.085769,1.527771,3.912561,7.345461
1001.015625,7.981485,-1.408244,12.978668,4.571612
1001.019531,18.301374,9.154489,20.655901,14.786791
1001.023438,13.678899,7.327343,10.970572,11.747452
1001.027344,14.056628,2.284123,11.550673,10.824205
1001.031250,8.480555,11.859118,10.800300,12.255041
1001.035156,8.982323,11.411769,16.538273,10.167968
1001.039062,7.412815,4.386886,7.424878,7.308498
1001.042969,0.833080,2.327990,7.716987,8.989985
1001.046875,5.069502,1.474079,-0.796786,5.942980
1001.050781,-0.171319,-5.754298,-7.145659,-3.923162
1001.054688,-2.470217,-1.815528,0.228778,-0.319154
1001.058594,-2.738593,-12.209491,-0.719932,-6.174586
1001.062500,-5.157462,-3.729141,-4.016108,-1.930061
1001.066406,-8.198147,-17.023031,-2.745840,-8.154643
1001.070312,-7.726304,-5.780692,-2.872131,-2.623428
1001.074219,-2.790345,-12.278959,-3.146767,-4.132351
1001.078125,-14.046241,-11.912585,-15.172685,-10.022544
1001.082031,-14.310474,-15.162793,-9.359310,-11.206597
1001.085938,-2.196290,-8.230545,-8.544171,-3.907454
1001.089844,-9.168530,-6.621246,-7.027431,-0.834501
1001.093750,4.329638,-3.689664,-0.058225,-7.975079
1001.097656,-12.652970,-1.255435,0.211026,-1.242115
1001.101562,5.233151,4.672128,1.271148,-0.971724
1001.105469,10.839413,6.059356,2.453907,-0.115977
1001.109375,13.076087,-0.149033,3.593077,7.760184
1001.113281,4.563805,15.651037,5.210878,9.312634
1001.117188,11.865381,10.890022,6.810107,12.872128
1001.121094,4.951891,9.713936,11.077293,8.341820
1001.125000,11.863592,8.414649,9.203424,11.740400
1001.128906,8.988903,10.092368,13.853932,10.134596
1001.132812,11.961454,8.637016,10.202277,7.608559
1001.136719,6.076094,3.037570,5.844331,7.134118
1001.140625,1.159006,2.446895,6.288340,5.398513
1001.144531,-5.364999,1.902584,4.222221,7.527495
1001.148438,3.263763,4.309049,-2.073343,2.585868
1001.152344,-1.635172,-0.159316,-0.948209,4.431339
1001.156250,-1.904853,-3.455842,-2.434431,-6.078561
1001.160156,-3.601744,-7.731381,-5.459766,-0.549554
1001.164062,-10.069895,-8.457704,-8.818483,-5.325111
1001.167969,-10.847846,-5.687034,-12.219345,-6.209158
1001.171875,-17.479964,-7.837132,-14.246018,-13.961496
1001.175781,-12.169833,-12.404422,-11.035642,-3.886631
1001.179688,-14.556568,-8.855196,-5.180798,-1.360475
1001.183594,-5.535625,-8.735065,-9.190466,-11.100017
1001.187500,-7.096745,-7.238308,-4.281545,-6.100331
1001.191406,-2.592254,-5.875111,-5.911903,0.219559
1001.195312,-9.023362,-11.736303,1.495019,4.160536
1001.199219,2.706367,-1.723705,5.699103,-0.493875
1001.203125,5.482072,-3.386191,4.067247,-6.362633
1001.207031,5.826447,5.750837,1.734599,-0.621755
1001.210938,6.957737,10.886320,6.517876,12.914075
1001.214844,10.288697,0.809850,7.434989,13.750362
1001.218750,11.985499,16.925416,6.099940,0.942839
1001.222656,3.004667,5.903131,8.371536,11.090745
1001.226562,8.159988,6.885407,9.097313,9.674472
1001.230469,5.881677,7.773368,5.954079,6.622624
1001.234375,2.528198,11.342928,9.770161,8.651559
1001.238281,11.160717,4.080679,4.038651,3.899581
1001.242188,6.941217,-3.223319,9.393558,6.460973
1001.246094,-2.314350,2.648270,0.594858,3.224139
1001.250000,-3.819826,-2.434892,-4.983494,-4.994252
1001.253906,4.462510,1.391217,-4.276743,3.920542
1001.257812,-9.368644,-1.637982,-7.719243,-1.648308
1001.261719,-9.374628,-2.983983,-7.302442,-2.086564
1001.265625,-3.293929,-5.771219,-5.959279,-8.902264
1001.269531,-10.612306,-10.349712,-6.910868,-5.542320
1001.273438,-11.996446,-10.654529,-11.948656,-6.630587
1001.277344,-13.339070,-7.650069,-8.677251,-7.599098
1001.281250,-10.846010,-10.795505,-7.675683,-12.421364
1001.285156,-17.737895,-9.588098,-15.365745,-4.874727
1001.289062,-8.055531,-8.955178,3.323038,-0.636418
1001.292969,-6.555038,-6.810278,-9.534041,-5.781432
1001.296875,3.896170,-4.067939,-3.071390,-1.343030
1001.300781,3.010027,-4.232055,8.889171,2.477647
1001.304688,4.397720,5.177252,13.212447,1.960127
1001.308594,12.827353,8.766609,10.920698,2.760537
1001.312500,1.286006,9.668052,7.211190,3.701122
1001.316406,9.492878,3.352677,5.495428,9.465903
1001.320312,3.740198,12.903522,9.191976,9.858945
1001.324219,16.781365,7.542176,8.359065,7.844022
1001.328125,11.044508,13.517528,17.158892,5.557877
1001.332031,4.752071,3.377258,11.885868,11.783086
1001.335938,12.624975,5.124944,6.856862,12.520633
1001.339844,14.172005,5.798018,4.414887,1.934165
1001.343750,6.075058,12.097942,4.313656,-0.069580
1001.347656,0.385029,-2.217248,-0.079326,6.058266
1001.351562,1.569862,-3.379354,5.323066,1.498168
1001.355469,0.646475,-2.245805,-0.782465,1.691064
1001.359375,-5.711189,-1.593112,-9.319003,-9.750493
1001.363281,-14.201687,-7.043666,-8.096264,-11.581431
1001.367188,-12.708324,-10.782768,-5.777825,-8.379367
1001.371094,-9.150933,-10.595797,-5.024916,-11.491725
1001.375000,-7.407902,-16.497688,-8.349375,-12.000614
1001.378906,-12.812933,-1.414577,-6.872866,-10.532837
1001.382812,-12.006126,-8.683703,-12.147516,-8.072634
1001.386719,-15.644225,-3.902644,-0.462003,-15.044061
1001.390625,-8.719484,-17.610285,-13.231790,-4.729914
1001.394531,-3.323468,-0.675419,-7.425593,-2.687269
1001.398438,0.023526,-3.658423,8.733696,-4.944063
1001.402344,1.692212,0.933163,-0.776742,4.365623
1001.406250,8.225734,5.643118,8.247309,6.965265
1001.410156,4.155475,6.715781,0.764625,2.454056
1001.414062,8.620983,6.969499,5.966514,5.598839
1001.417969,4.958674,8.886277,11.255791,3.588852
1001.421875,7.552840,18.016549,14.804909,5.746265
1001.425781,13.403368,13.795004,9.861478,9.505208
1001.429688,11.053020,8.615937,8.660772,9.228975
1001.433594,6.486616,1.440071,10.002756,0.224050
1001.437500,1.797745,8.799043,5.319009,6.704604
1001.441406,2.368990,4.576320,9.202186,-0.608381
1001.445312,3.781357,-1.868099,-0.137522,2.232669
1001.449219,-0.726508,-0.982510,6.760545,-3.936921
1001.453125,-1.705775,-1.792070,-1.361615,-8.710330
1001.457031,-2.397546,-6.457272,1.286044,-2.783285
1001.460938,-4.462983,-6.612154,-1.203473,-7.164795
1001.464844,-7.683114,-7.685958,-12.831548,-7.465710
1001.468750,-5.727904,-12.899056,-6.526333,-17.613681
1001.472656,-9.606387,-13.662249,-12.563770,-11.321164
1001.476562,-10.301986,-14.286303,-12.819127,-13.057330
1001.480469,-11.031404,-4.201850,-9.044901,-10.057843
1001.484375,-17.395468,-6.292957,-14.836158,-11.984289
1001.488281,-9.907915,-3.017562,-5.802092,-7.918152
1001.492188,-10.332761,-7.651049,-5.030363,-10.809209
1001.496094,2.521906,2.811690,7.774943,-5.273613
1001.500000,-3.899216,2.070130,1.140716,-0.971003
1001.503906,5.060518,4.451505,-2.158556,7.494689
1001.507812,3.720701,6.102664,-0.288187,2.209180
1001.511719,8.771920,1.668672,4.239444,8.961814
1001.515625,7.722755,6.961240,13.783888,0.232216
1001.519531,11.328803,4.670643,15.103614,7.698060
1001.523438,11.121397,9.855145,11.986203,14.656394
1001.527344,13.179898,5.951852,6.629371,5.616821
1001.531250,4.423571,3.765553,15.745541,6.806770
1001.535156,13.604129,6.821921,10.813504,5.037571
1001.539062,4.951287,9.724016,12.430736,3.286815
1001.542969,0.449079,4.416953,3.244143,-0.520926
1001.546875,3.741438,5.300165,5.593633,10.072598
1001.550781,-0.529007,0.958341,-5.580226,-1.728485
1001.554688,2.915955,-4.040362,-1.751024,-5.827256
1001.558594,-5.852993,0.759565,-0.168791,-1.800697
1001.562500,-2.179447,-7.508349,-6.162077,-9.178013
1001.566406,-6.479871,-11.868169,-0.000542,-7.956789
1001.570312,-13.846985,-7.507485,-9.305874,-8.555128
1001.574219,-8.886633,-15.876382,-18.961859,-16.053751
1001.578125,-13.403908,-6.011651,-4.985159,-8.852131
1001.582031,-5.077204,-3.701450,-2.529218,-6.753498
1001.585938,-4.640686,-10.528628,-10.097973,-8.280835
1001.589844,-11.191257,0.414439,-5.529538,-10.052595
1001.593750,0.634053,2.982107,-6.166897,-9.516904
1001.597656,-4.860688,-3.615772,1.474842,-1.193487
1001.601562,4.090812,-6.818248,2.514308,1.666754
1001.605469,2.336928,1.900072,0.312052,7.763262
1001.609375,-4.503624,8.170532,6.253911,7.060614
1001.613281,7.421235,7.921205,6.401218,10.764319
1001.617188,11.840188,12.076422,14.003625,10.593880
1001.621094,11.579687,12.421047,6.286056,9.066252
1001.625000,10.963206,10.132989,10.190641,4.601147
1001.628906,5.086882,8.868046,10.754629,5.565245
1001.632812,6.224610,9.079088,6.836436,13.052113
1001.636719,4.696650,13.116213,-1.640474,2.858261
1001.640625,3.338185,6.832837,1.300640,6.188222
1001.644531,0.872492,2.316145,7.572838,1.814738
1001.648438,-6.695950,4.860455,-6.408798,1.568648
1001.652344,-4.073617,1.102714,-1.848702,-5.364221
1001.656250,0.561541,-1.351562,-9.261435,-5.755115
1001.660156,-11.812301,-9.776421,-9.293288,-6.729723
1001.664062,-14.583500,-13.687903,-6.987781,-12.962249
1001.667969,-4.712934,-12.181558,-7.805128,-8.572101
1001.671875,-7.917985,-11.497278,-13.916887,-14.836885
1001.675781,-10.545036,-16.102018,-6.546920,-7.755261
1001.679688,-6.980857,-4.596146,-7.754056,-12.476461
1001.683594,-10.792137,-13.047694,-10.122879,-8.255566
1001.687500,-6.834004,-6.541396,-7.733546,-8.059974
1001.691406,-5.126593,-7.926974,-3.891520,3.455313
1001.695312,-6.130137,-0.531446,2.372269,-6.438954
1001.699219,-3.754004,-1.663686,-1.088650,-6.395614
1001.703125,2.428097,1.462156,5.389861,2.390361
1001.707031,3.518055,-2.107629,1.783792,3.573391
1001.710938,5.115688,12.910270,10.377505,4.334704
1001.714844,4.367989,5.202762,7.322050,10.035030
1001.718750,11.413278,8.575902,5.368018,4.405693
1001.722656,10.572009,5.878183,6.619199,7.773305
1001.726562,12.857096,10.269775,2.335651,14.993830
1001.730469,13.604034,7.478178,16.482827,9.148379
1001.734375,5.171226,9.448839,7.604184,15.661598
1001.738281,-1.751079,10.223791,9.495903,6.743993
1001.742188,10.343415,2.579433,-1.502243,-2.019754
1001.746094,7.978507,-2.755416,0.847357,1.227049
1001.750000,-3.434612,2.078138,-0.118964,4.395664
1001.753906,3.989970,-6.116356,-7.471855,-0.299385
1001.757812,-9.814167,0.073001,3.760112,-7.971998
1001.761719,-10.048371,-9.449978,-3.940279,-4.594836
1001.765625,-7.026360,-4.053266,-5.637912,-7.227564
1001.769531,-11.007868,-6.632562,-17.611173,-10.131957
1001.773438,-7.638561,-18.936837,-5.043349,-13.937209
1001.777344,-4.192134,-8.295123,-12.105183,-9.766763
1001.781250,-14.973828,-9.546308,-11.596164,-12.175226
1001.785156,-5.477016,-12.345823,-8.263362,-13.028059
1001.789062,-4.105733,-5.244365,-4.960919,-13.733425
1001.792969,-7.675673,-5.650913,-9.905299,-2.761659
1001.796875,-4.984935,-0.001151,-3.566377,-6.285124
1001.800781,2.026617,1.598540,-1.800073,1.948398
1001.804688,-0.142595,6.244395,7.154443,5.149209
1001.808594,5.849563,5.335532,5.532121,8.309988
1001.812500,10.210465,7.109239,4.294540,10.104122
1001.816406,2.955522,8.546835,10.937085,8.464337
1001.820312,8.955898,7.666527,9.334230,3.762406
1001.824219,4.905444,5.434867,11.806121,12.888569
1001.828125,10.882539,2.477941,6.832397,9.468194
1001.832031,8.940113,4.355036,6.283858,7.356275
1001.835938,9.870270,-0.087943,11.235094,0.664324
1001.839844,14.851372,6.975329,9.358143,8.290757
1001.843750,-0.859562,11.143765,4.889217,3.257652
1001.847656,0.769838,5.162948,3.561594,6.724662
1001.851562,4.179107,5.548671,-2.952481,-2.506280
1001.855469,-6.091727,0.866642,-3.393576,-5.384901
1001.859375,-0.546629,0.153740,-10.384875,-0.346388
1001.863281,-10.948724,-14.732003,-1.893296,-7.277145
1001.867188,-5.910949,-4.477330,-6.701377,-3.503354
1001.871094,-12.030551,-6.664597,-15.041013,-5.857466
1001.875000,-15.648990,-15.020597,-12.883409,-8.479937
1001.878906,-10.403920,-12.883588,-5.636963,-5.210252
1001.882812,-10.958861,-8.466819,-11.906375,-7.386414
1001.886719,-14.024281,-9.149293,-4.281639,-11.812066
1001.890625,-6.508405,-4.253838,-3.851252,-6.095472
1001.894531,0.978654,5.542586,-4.273961,-1.787929
1001.898438,2.672239,5.065906,-3.950160,-1.909224
1001.902344,-3.365440,-2.718132,-3.627548,0.876612
1001.906250,12.695874,-0.855406,0.891580,7.743311
1001.910156,-0.259912,4.738793,4.857765,7.088659
1001.914062,8.940092,0.438819,6.023412,2.302797
1001.917969,12.141812,16.792100,5.777768,13.882457
1001.921875,7.145013,13.748142,2.856442,5.941284
1001.925781,3.060552,8.984911,16.090557,16.570223
1001.929688,9.169044,8.872932,4.246920,7.174932
1001.933594,15.854502,7.405914,-0.680710,5.500202
1001.937500,2.055809,11.484702,9.271262,2.001008
1001.941406,6.063355,10.422262,5.532570,6.602492
1001.945312,-0.219442,8.883906,5.660961,-3.421656
1001.949219,1.628749,-0.333307,-0.558526,-1.430988
1001.953125,-1.275631,-6.809015,-3.878340,-4.663761
1001.957031,-4.470114,1.066425,-2.699560,-2.219162
1001.960938,-6.725757,-5.232028,-5.802699,-8.044867
1001.964844,-6.327914,-12.232718,-5.188565,-6.025921
1001.968750,-5.338285,-5.587494,-11.439115,-8.045495
1001.972656,-11.415960,-13.993399,-9.875230,-7.539543
1001.976562,-12.974000,-13.111891,-8.834179,-16.653797
1001.980469,-8.112709,-12.819673,-3.194898,-9.539728
1001.984375,-5.150124,-7.165028,-9.493121,-8.619192
1001.988281,-7.040129,-4.337220,-7.021618,-8.330796
1001.992188,-3.942099,-4.712272,-6.264780,-1.974810
1001.996094,4.735031,1.803548,-2.994033,-0.436447
1002.000000,4.408517,0.877741,-0.508295,1.374093
1002.003906,8.078681,-2.572141,-2.189485,-0.672318
1002.007812,12.257717,1.807174,3.892077,9.366926
1002.011719,14.955960,10.027556,11.281573,0.280568
1002.015625,10.776412,9.901349,3.527587,6.596545
1002.019531,10.828645,0.858211,6.432666,9.922193
1002.023438,8.749073,7.280063,5.585782,11.817052
1002.027344,8.606265,7.256395,12.085995,16.606353
1002.031250,12.800707,9.163174,2.546576,18.274740
1002.035156,7.245253,8.111770,9.425022,11.976909
1002.039062,0.432449,7.510189,7.880925,9.283886
1002.042969,4.921107,-1.604454,8.469580,7.450936
1002.046875,6.253748,5.393892,6.676835,6.934594
1002.050781,1.910033,-0.800917,1.082334,2.576304
1002.054688,0.015443,-1.822042,-4.864521,0.072838
1002.058594,2.756245,-10.720815,-5.812042,-3.333616
1002.062500,-12.528073,-1.954114,-6.049077,-12.004012
1002.066406,-3.771800,-5.926996,-10.191979,-10.869925
1002.070312,-16.578964,-10.178204,-2.234303,-8.241294
1002.074219,0.218755,-5.320526,-7.611394,-10.651160
1002.078125,-4.990178,-11.104942,-14.921215,-8.263383
1002.082031,-3.834468,-13.723772,-6.643839,-10.347352
1002.085938,-9.969904,-9.052754,-11.021663,0.502484
1002.089844,-15.306855,-11.092716,-9.204006,-12.138627
1002.093750,5.354274,-9.654804,-3.653032,-3.372056
1002.097656,-5.848807,-1.926180,1.396416,-4.107164
1002.101562,5.460321,0.845565,2.298334,-1.256227
1002.105469,2.823920,12.804320,2.181858,2.374675
1002.109375,10.190428,-0.798839,2.868526,1.606967
1002.113281,6.400348,8.178774,7.529959,-4.002560
1002.117188,7.998706,1.312201,3.861507,14.393234
1002.121094,13.059973,8.679406,10.163712,10.794246
1002.125000,17.408224,11.353927,9.901375,14.034880
1002.128906,11.668982,0.463657,5.805929,13.835529
1002.132812,13.228603,4.763047,7.620968,9.757340
1002.136719,1.839481,10.981688,7.403960,7.188381
1002.140625,6.338792,3.128695,0.152775,3.322318
1002.144531,-1.691557,8.000172,-5.405211,5.226218
1002.148438,2.283877,-2.511925,3.072590,2.396155
1002.152344,1.835025,-7.468631,-10.293306,-5.967691
1002.156250,-2.155287,-4.233473,1.592065,-4.579147
1002.160156,-7.418954,-7.776355,-4.067535,-3.906894
1002.164062,-2.201290,-4.312048,-4.064133,-16.052047
1002.167969,-14.721134,-8.039131,-4.593367,-4.494941
1002.171875,-8.082146,-13.472389,-12.314493,-9.294043
1002.175781,-12.354026,-9.894828,-8.107516,-0.066826
1002.179688,-9.848723,-17.078655,-2.157996,-3.781320
1002.183594,-1.863923,-10.468050,-13.078921,-14.572386
1002.187500,-2.775511,-9.772267,-6.138903,-3.781205
1002.191406,-1.895801,2.603759,-6.962752,-0.392424
1002.195312,-2.321098,-4.737963,2.202203,-2.352267
1002.199219,2.676630,-3.769223,-2.661525,8.604187
1002.203125,5.388848,-2.228030,5.005098,4.010507
1002.207031,4.071263,-1.009930,6.931157,0.946602
1002.210938,6.015906,7.219628,7.252668,14.156626
1002.214844,5.439106,8.301467,12.921681,9.930866
1002.218750,4.683667,9.241475,16.391138,11.075174
1002.222656,7.059321,10.337185,8.714225,9.926396
1002.226562,10.505098,14.971086,16.602541,13.413990
1002.230469,7.486044,7.467668,11.095069,21.588234
1002.234375,5.338953,9.325730,4.916277,8.762039
1002.238281,6.360231,5.997546,8.717696,7.899290
1002.242188,5.123061,12.530787,-4.977006,8.267669
1002.246094,0.814154,-5.559343,-0.922677,5.149818
1002.250000,-3.171917,-4.989533,5.507142,-2.064320
1002.253906,3.781691,-2.172695,0.396591,0.200008
1002.257812,2.837724,-7.048350,-3.816841,-4.015179
1002.261719,-7.482173,-3.956103,-9.275146,-6.517012
1002.265625,-12.990552,-5.002674,-7.487172,-2.800792
1002.269531,-12.205149,-12.087931,-8.966375,-11.862368
1002.273438,-15.391342,-9.853376,-11.165048,-10.510778
1002.277344,1.902076,-1.421817,-6.696977,-8.638846
1002.281250,-8.571950,-9.383924,-12.707986,-9.112627
1002.285156,-8.926806,-16.253131,-11.403623,-10.974114
1002.289062,-5.257189,-9.956085,-12.854885,0.592254
1002.292969,-3.331697,-3.614203,-2.370216,-5.475083
1002.296875,-0.237552,-4.978839,-2.484246,-3.817412
1002.300781,-1.015463,-5.313720,12.336952,3.927548
1002.304688,7.331460,0.794658,2.616346,3.734227
1002.308594,7.723230,6.556628,2.590179,5.396167
1002.312500,7.893515,3.818152,15.738710,3.152833
1002.316406,2.869461,2.604102,8.046207,3.336685
1002.320312,12.781645,-3.432830,10.013415,4.520126
1002.324219,10.821163,8.601946,16.101036,13.512039
1002.328125,8.317358,4.497052,5.988760,8.184587
1002.332031,1.180050,5.473200,5.405201,16.724888
1002.335938,6.611442,4.358027,11.406911,5.096335
1002.339844,2.847204,10.165728,3.265248,2.125228
1002.343750,1.004650,6.768700,0.695561,4.228790
1002.347656,2.865775,5.107374,1.266636,4.111590
1002.351562,-0.063389,-1.527241,0.435836,3.323557
1002.355469,-3.223375,-4.996909,3.433296,-5.507659
1002.359375,-15.643290,-3.117268,0.077961,-3.163977
1002.363281,-2.030382,-17.227198,-2.082288,1.799441
1002.367188,-10.156214,-16.323424,-4.434374,-9.884301
1002.371094,-14.296802,-8.829889,-1.358826,-6.189687
1002.375000,-6.027267,-1.654041,-13.499511,-8.808628
1002.378906,-10.837720,-8.815550,-13.631416,-12.797831
1002.382812,-8.613421,-9.786178,-12.297302,-15.755498
1002.386719,-9.019435,-10.502977,-1.007651,3.861264
1002.390625,1.178502,-4.411894,-5.996809,-14.982960
1002.394531,-7.981685,2.691793,-2.464447,-7.234625
1002.398438,6.419002,0.028910,4.956033,1.224720
1002.402344,-2.853244,-0.950325,3.188831,-1.858167
1002.406250,-2.665430,6.872248,-0.699614,6.275578
1002.410156,2.567611,10.548804,7.722780,3.487609
1002.414062,8.460075,7.621694,3.280427,8.879250
1002.417969,10.040573,11.326640,8.745709,6.981388
1002.421875,6.594846,12.306615,11.301110,10.024269
1002.425781,11.567126,9.218649,8.947724,9.077682
1002.429688,9.560270,3.891155,14.837684,10.837636
1002.433594,5.223059,2.990572,7.918007,14.691178
1002.437500,6.786789,6.859580,7.866340,7.520711
1002.441406,1.037909,0.469881,5.048855,-4.178787
1002.445312,4.539475,9.866692,5.753771,-2.200960
1002.449219,1.915104,-1.306926,-1.234643,2.506813
1002.453125,1.037325,-3.165261,1.852144,-4.123458
1002.457031,-6.792325,-12.837436,1.522476,-7.593331
1002.460938,3.744363,-9.605150,-8.338745,1.555787
1002.464844,-8.870699,-6.469965,-12.201176,-2.963725
1002.468750,-0.530349,-6.479553,-9.914858,-10.905777
1002.472656,-5.080063,-16.245655,-8.047961,-7.453763
1002.476562,-13.886632,-6.033158,-10.983996,-10.228128
1002.480469,-8.844916,-9.815464,-8.744222,-7.533215
1002.484375,-2.888176,-3.136514,-1.275341,-3.772057
1002.488281,-8.370707,-5.193748,-3.937704,-2.527404
1002.492188,-8.291788,-1.022828,-4.976933,-6.091056
1002.496094,0.048633,-4.843484,-1.387488,1.228926
1002.500000,0.908348,4.081356,0.890622,8.202104
1002.503906,10.164994,8.260282,-0.062968,1.325039
1002.507812,-1.520089,4.970745,9.533249,1.309758
1002.511719,5.349291,7.250162,3.330954,7.171516
1002.515625,10.060364,13.359449,9.430399,8.336039
1002.519531,4.270995,6.701514,14.910951,10.233677
1002.523438,8.011985,0.395461,11.950590,8.240595
1002.527344,15.022123,4.143210,14.465328,7.658066
1002.531250,10.851560,8.743502,8.356884,9.770989
1002.535156,5.471616,8.018678,3.554721,4.265882
1002.539062,11.662247,6.722196,12.759898,4.544873
1002.542969,1.240337,12.411539,0.926591,1.168615
1002.546875,-1.670226,2.383608,2.525520,2.920086
1002.550781,5.183067,-10.491723,2.047108,3.015391
1002.554688,-8.869662,-4.056937,0.702413,-4.131933
1002.558594,-4.948626,-2.261332,-5.457372,-2.032545
1002.562500,-7.540368,-4.191507,0.127071,-4.061503
1002.566406,-12.923951,-6.604332,-13.450548,-13.368704
1002.570312,-18.938573,-4.197678,-11.991704,-4.759602
1002.574219,-4.020833,-12.605619,-5.501458,-0.435894
1002.578125,-11.623441,-12.732205,-10.579004,-11.115183
1002.582031,-7.556765,-11.665597,-21.973233,-12.233190
1002.585938,-8.309588,-10.468320,-9.544497,-2.632420
1002.589844,-10.228514,-6.945067,-0.451830,-6.658854
1002.593750,-9.848785,0.654128,-9.251702,-4.146487
1002.597656,-3.299654,-2.015989,-0.902109,-3.113246
1002.601562,-3.719341,-2.877694,-8.030159,-3.390779
1002.605469,5.482466,1.421761,1.059153,-0.990327
1002.609375,16.517824,4.502432,5.785223,4.824298
1002.613281,9.476585,4.636132,5.130073,11.427027
1002.617188,8.708309,1.218595,14.178016,8.116170
1002.621094,4.992280,11.337933,0.985382,2.464972
1002.625000,10.014539,8.372262,9.084947,-0.243256
1002.628906,4.837099,13.542225,17.382102,9.390982
1002.632812,11.275649,7.376891,11.627076,5.310058
1002.636719,5.312538,9.183500,6.222235,12.192065
1002.640625,7.679306,-2.110781,12.289707,4.004471
1002.644531,-1.971954,-3.968908,13.586968,12.666876
1002.648438,-2.377852,-4.233710,-9.182043,1.606685
1002.652344,-1.334821,1.978043,1.993292,4.802631
1002.656250,-7.643382,-2.838462,-9.095243,-5.151211
1002.660156,-4.192189,-12.993611,-2.642236,-8.326790
1002.664062,-4.571813,-6.687000,-5.087951,-10.415814
1002.667969,-11.670479,-9.351646,-2.469127,-9.780538
1002.671875,-8.400165,-6.977319,-10.585143,-10.458593
1002.675781,-4.505792,-11.719754,-6.341673,-12.696503
1002.679688,-13.369730,-8.318338,-1.054018,-10.101010
1002.683594,-4.096258,-7.872183,-1.588194,-3.589379
1002.687500,-3.637365,-2.112815,-2.629306,-0.548080
1002.691406,-8.402879,-7.757164,-1.012501,-4.261665
1002.695312,-7.781692,-5.566115,-5.478143,0.855239
1002.699219,-6.810569,-4.194057,-4.516137,0.874897
1002.703125,2.753029,3.630243,2.173521,-0.887852
1002.707031,0.778616,4.697643,4.232577,1.048136
1002.710938,2.888681,7.213907,5.156770,12.097718
1002.714844,7.057437,12.158174,5.840269,7.742021
1002.718750,11.094923,11.978912,9.424408,9.412369
1002.722656,10.799004,12.177689,2.378154,13.620873
1002.726562,5.754984,9.088551,13.862667,10.467420
1002.730469,10.495900,11.105574,1.840878,18.760315
1002.734375,13.342398,8.953747,-0.865173,10.017126
1002.738281,-1.145368,-3.026296,7.653725,8.146064
1002.742188,6.075091,10.667686,11.092453,-3.062207
1002.746094,2.214380,-0.762673,4.210876,2.374330
1002.750000,7.783688,-2.721200,-0.699635,4.039112
1002.753906,2.905801,0.580728,-2.757110,-5.758727
1002.757812,-7.083492,-9.386549,-0.252733,-10.783464
1002.761719,-9.733844,-8.303736,-7.270988,-8.434774
1002.765625,-7.704325,-4.344748,-12.911067,-5.965761
1002.769531,-3.785411,-4.755652,-16.169037,-3.965582
1002.773438,-13.170362,-8.926777,-15.527495,-7.957333
1002.777344,-7.738536,-11.446788,-10.924254,-8.718550
1002.781250,-16.499686,-9.914361,-8.433346,-10.161645
1002.785156,-10.947618,-6.745425,-7.197141,-12.354566
1002.789062,-6.526251,-7.112267,-6.053430,-5.570474
1002.792969,-4.024813,0.351788,1.178981,-11.934883
1002.796875,-0.792410,-2.002291,-3.773931,0.420342
1002.800781,-2.118379,5.693711,6.111756,0.751834
1002.804688,8.072554,-0.900989,-0.618348,2.438044
1002.808594,-0.263455,2.880443,5.320582,0.927408
1002.812500,4.719407,4.099487,10.866401,13.574660
1002.816406,7.000821,8.526466,7.495076,5.653717
1002.820312,12.091452,12.067329,7.225046,9.355200
1002.824219,2.929898,13.429015,16.113931,11.853798
1002.828125,5.159349,4.686049,12.760978,7.687396
1002.832031,13.824056,17.253471,9.782181,6.313289
1002.835938,2.649569,2.660601,7.664592,10.631300
1002.839844,8.687503,5.658247,5.788882,5.176319
1002.843750,4.519184,-7.173568,11.992516,3.722894
1002.847656,-1.824845,5.097520,3.407924,2.270011
1002.851562,-3.297527,-1.993295,1.972214,-1.920288
1002.855469,0.441302,-2.050562,-7.320008,-1.393843
1002.859375,-5.882103,-9.547027,-1.505094,-7.103338
1002.863281,-5.771194,-7.969644,-2.723807,-5.050009
1002.867188,-10.333309,-10.811094,-0.897472,-9.747256
1002.871094,-13.603927,-7.149177,-12.337598,-0.992951
1002.875000,-2.958296,-6.119633,-14.476038,-11.398260
1002.878906,-6.778211,-7.830862,-9.986798,-3.808364
1002.882812,-9.654095,-6.365095,-7.355846,-6.205683
1002.886719,-0.240124,-14.155302,-11.063253,-6.103963
1002.890625,-5.682604,-3.148958,-3.090560,-5.432031
1002.894531,-0.629552,0.112525,-0.005446,-3.626143
1002.898438,3.289277,1.361841,2.262833,-5.035048
1002.902344,7.663627,4.543094,-1.493780,-2.418262
1002.906250,7.915974,6.140221,-6.152928,6.257228
1002.910156,10.776180,3.788118,7.494933,3.390430
1002.914062,6.904028,10.056682,9.252006,5.667504
1002.917969,7.443601,-0.848320,10.602151,7.525677
1002.921875,6.646583,10.825963,10.674945,11.069521
1002.925781,-3.453392,9.269344,13.579172,9.211490
1002.929688,5.997548,1.287558,7.558376,11.147123
1002.933594,2.237924,0.375752,14.704360,3.779570
1002.937500,4.992854,4.619792,7.553938,-0.193442
1002.941406,-1.385108,2.064607,7.073803,12.441522
1002.945312,4.930674,7.351205,-1.244451,1.247884
1002.949219,2.449276,-4.265986,2.421354,-1.671454
1002.953125,3.018429,4.362487,6.038992,-2.699477
1002.957031,-6.779421,-2.213801,-9.203595,-6.921041
1002.960938,-6.268426,-4.737612,-7.755550,-11.916477
1002.964844,-3.984534,-13.083386,-11.926415,-7.801202
1002.968750,-9.952165,-6.646433,-14.938376,-16.845412
1002.972656,-14.912291,-10.836676,-7.897046,-9.244509
1002.976562,-8.169260,-7.689297,-11.031273,-10.970865
1002.980469,-9.840673,-4.624041,-9.822050,-10.973967
1002.984375,-10.909653,-8.839045,-3.943246,-8.855582
1002.988281,-8.288181,-12.235740,-7.126689,-0.084697
1002.992188,-8.378767,-9.458133,2.760341,-7.773755
1002.996094,-6.292482,2.867729,-6.813879,-1.677608
1003.000000,-1.841742,1.842675,0.957906,5.321836
1003.003906,-2.731388,2.628965,-2.406557,3.323898
1003.007812,1.356454,9.415881,7.151966,4.107398
1003.011719,6.837108,13.498973,14.068705,9.234386
1003.015625,9.846980,12.758488,3.977014,9.423574
1003.019531,4.331743,7.386757,11.605853,7.991468
1003.023438,8.715776,12.411488,8.599423,11.013783
1003.027344,13.639121,1.423666,10.635656,8.510160
1003.031250,7.756248,6.807688,8.138291,7.579270
1003.035156,4.923747,10.643945,8.027038,10.957496
1003.039062,5.776609,3.704685,5.224700,12.563357
1003.042969,4.771065,7.064822,11.580491,-2.150566
1003.046875,6.637380,6.755360,1.667392,9.671375
1003.050781,3.193950,-0.516829,-0.576170,-2.940740
1003.054688,2.145205,-8.154476,-6.576221,-6.008051
1003.058594,-3.557844,-10.235318,-5.731128,-6.884625
1003.062500,-10.519169,-1.667429,-4.902138,-2.793731
1003.066406,-0.595395,-8.581934,-11.424148,-14.006883
1003.070312,-6.107348,-10.954888,-10.547400,-5.471664
1003.074219,-8.201699,-17.075428,-5.851443,-4.935888
1003.078125,-5.318963,-6.008578,-10.063784,-14.711583
1003.082031,-0.855478,-9.251770,-9.598021,-9.515555
1003.085938,-14.462350,-5.299022,-7.150013,-11.787508
1003.089844,-13.601738,-2.187293,-8.054412,1.684373
1003.093750,-6.326250,-10.458418,-1.402201,0.196275
1003.097656,-3.562225,-0.777606,1.347284,-1.185926
1003.101562,9.609838,4.068963,3.178783,-2.505279
1003.105469,4.313067,6.221014,0.254895,7.580747
1003.109375,3.508109,3.180406,-0.885748,4.376621
1003.113281,11.725845,6.595130,16.450230,9.842521
1003.117188,17.528881,10.003167,9.354417,15.594028
1003.121094,4.913358,7.864449,6.075068,9.846858
1003.125000,5.630037,7.014522,8.566017,14.118959
1003.128906,10.133841,3.230665,4.722382,10.146731
1003.132812,4.435718,7.858843,7.827258,11.389829
1003.136719,3.098930,10.207054,4.171349,7.235251
1003.140625,10.745758,5.664270,6.090699,1.281088
1003.144531,-3.173348,-7.097972,4.629586,4.934683
1003.148438,9.996462,-9.894709,1.385410,4.010282
1003.152344,-6.476785,0.789512,-3.889565,-1.167713
1003.156250,-1.536996,-10.269055,-4.784508,-4.655152
1003.160156,-12.298566,-3.581814,-3.065301,-2.879327
1003.164062,0.395493,-9.861735,-10.027304,-5.586173
1003.167969,-1.357832,-9.357388,-5.214399,-9.547105
1003.171875,-9.493834,-9.526264,-14.308776,-14.339752
1003.175781,-20.574211,-8.279184,-4.940974,-10.447954
1003.179688,-13.582684,-8.111940,-10.328285,-8.373334
1003.183594,-11.531082,-7.943341,-5.706778,-10.515152
1003.187500,-13.724119,-0.563454,-7.158186,-4.310839
1003.191406,-0.465144,-4.642390,-11.458971,-13.011187
1003.195312,-4.937262,-0.996099,-1.761755,-12.221104
1003.199219,4.587620,-9.551856,1.639326,-2.119817
1003.203125,3.188040,-4.914834,10.089549,8.863626
1003.207031,9.790008,5.768044,11.150478,-2.092353
1003.210938,4.285238,6.166355,16.643411,0.900963
1003.214844,2.392903,3.866727,13.354397,5.342256
1003.218750,13.343638,3.730233,8.734739,4.756046
1003.222656,6.663714,4.840607,9.853365,10.027170
1003.226562,16.358775,7.531282,12.479102,11.397624
1003.230469,16.055535,7.291732,12.035064,8.449292
1003.234375,-0.571853,18.057365,11.805187,5.264545
1003.238281,7.413698,5.584397,6.222493,6.135624
1003.242188,1.459802,8.653427,8.088138,0.902174
1003.246094,3.791929,7.249044,-1.373232,1.078534
1003.250000,-4.453290,-2.791044,-4.711310,-4.098936
1003.253906,-4.895426,-9.197616,7.968880,1.811984
1003.257812,-0.991570,-2.547197,-3.154899,-0.919324
1003.261719,-10.461539,-6.899829,-2.746540,-4.953344
1003.265625,1.007432,-5.054466,-2.181684,-6.364097
1003.269531,-9.726254,-10.325401,-1.794795,-10.014179
1003.273438,-13.489215,-8.076297,-13.161199,-8.467349
1003.277344,-11.665842,-11.472067,-6.847408,-10.665131
1003.281250,-6.277016,-14.273926,-6.245532,-9.278416
1003.285156,-15.888391,-7.801722,-3.319482,-7.198332
1003.289062,-5.749423,-4.359904,-6.429423,-8.538928
1003.292969,1.581125,-12.855262,-10.462585,-7.721625
1003.296875,4.076781,0.434060,-11.174775,1.402495
1003.300781,-2.724978,2.017372,-2.066530,-5.706968
1003.304688,-0.558042,7.649699,8.576226,1.716334
1003.308594,2.370221,14.513557,7.682759,6.972327
1003.312500,4.909224,17.236122,6.885955,6.340248
1003.316406,6.772475,12.389999,11.939810,6.648399
1003.320312,6.396887,9.397473,4.477362,13.639819
1003.324219,2.278591,13.655062,10.415768,6.841989
1003.328125,14.956419,7.300165,8.616478,8.761996
1003.332031,8.072212,12.345671,7.434175,6.033820
1003.335938,6.863945,15.151499,14.586143,6.290980
1003.339844,1.025296,8.292794,8.711106,13.960412
1003.343750,2.969339,2.928420,-2.868807,0.498870
1003.347656,4.232639,8.264082,1.113251,8.803062
1003.351562,-2.450307,-4.610856,-0.713657,-5.806218
1003.355469,1.228857,-2.654760,-5.857956,1.788672
1003.359375,1.934894,-10.670184,-3.911143,-3.232293
1003.363281,-0.040937,-4.855752,-9.282228,-5.922945
1003.367188,-7.416158,-16.410052,-5.400323,-9.970891
1003.371094,-12.911236,-10.481420,-4.418351,-6.732242
1003.375000,-9.799595,-16.765450,-10.699602,-6.392276
1003.378906,-18.344615,-16.679634,-6.529835,-10.103282
1003.382812,-5.907418,-5.013344,-9.388239,-14.067825
1003.386719,-7.456563,-5.481218,-1.865411,-8.879759
1003.390625,-5.581144,-4.869406,-11.045795,-5.455938
1003.394531,0.580463,-4.975115,-9.815045,-5.528363
1003.398438,2.561647,1.041275,-4.002652,1.633667
1003.402344,-0.712867,3.103803,1.732376,0.213348
1003.406250,-3.040786,-0.060697,4.332125,3.095825
1003.410156,8.380644,1.828472,8.003904,12.205872
1003.414062,13.007679,3.366904,7.785702,9.373039
1003.417969,0.314652,13.513985,5.967425,11.490185
1003.421875,2.435939,11.014789,4.083512,12.092840
1003.425781,6.382827,11.870680,8.162055,3.137240
1003.429688,8.986518,6.023573,5.786859,5.820195
1003.433594,9.021105,7.494724,8.935494,3.681862
1003.437500,1.656911,-3.802483,-1.267490,4.791119
1003.441406,12.161516,5.782100,11.811946,-6.183493
1003.445312,2.223684,14.297311,-1.225552,1.948083
1003.449219,-5.104122,-1.589942,-2.224214,2.281774
1003.453125,-2.487551,-5.567469,5.972021,-2.469377
1003.457031,-3.165971,-2.740631,-1.997693,1.141461
1003.460938,-6.274265,0.289067,-9.549698,-12.964953
1003.464844,-12.514931,-7.233686,-8.278896,-6.365623
1003.468750,-10.609331,-6.977273,-13.698156,-7.055783
1003.472656,-10.345202,-5.436719,-11.388431,-13.413622
1003.476562,-11.555114,-12.037600,-10.455337,-1.731225
1003.480469,-7.006747,-10.098281,-10.887127,-9.708180
1003.484375,-10.637955,-7.244387,-5.330845,1.038040
1003.488281,-1.530042,-5.343765,-3.493444,-0.669499
1003.492188,-10.742819,-14.122390,0.602838,-0.789987
1003.496094,2.386176,1.627775,2.094305,7.534229
1003.500000,5.700632,-4.012834,-4.149979,-3.022078
1003.503906,0.881560,6.237929,6.299680,-0.853489
1003.507812,0.139641,2.965598,3.212947,7.329773
1003.511719,4.508209,3.761695,10.470233,12.772651
1003.515625,4.301703,7.626189,13.102811,3.838574
1003.519531,8.458786,6.918432,15.200563,7.712489
1003.523438,17.838998,15.277344,10.269986,10.977608
1003.527344,8.970883,15.080150,13.230927,5.983190
1003.531250,14.454390,8.968892,12.419384,8.271679
1003.535156,7.199379,4.936368,11.232443,12.016262
1003.539062,5.591814,6.690314,9.218416,10.569846
1003.542969,2.039528,5.324608,-0.190470,5.212111
1003.546875,-2.419901,0.283131,9.253749,-1.870880
1003.550781,-2.388712,-2.682295,0.789401,1.345446
1003.554688,-3.142793,-4.397884,5.418785,-2.748221
1003.558594,-7.131085,-3.351985,-8.752578,-6.296509
1003.562500,-7.737640,-2.270112,-7.408794,-9.264934
1003.566406,-5.945933,-9.503567,-7.395457,-5.960705
1003.570312,-12.885409,-4.120333,-5.209643,-8.169230
1003.574219,-7.296012,-1.494650,-5.202600,-12.003804
1003.578125,-12.307710,-4.987711,-11.902634,-13.589567
1003.582031,-14.038276,-8.845188,-8.819076,-12.625207
1003.585938,-10.708939,-7.177292,-7.801283,-10.747196
1003.589844,-6.142788,-4.995176,-10.879224,-7.700122
1003.593750,-8.203271,4.578078,-4.951956,-7.886339
1003.597656,-8.191660,0.818928,-2.379804,1.491379
1003.601562,5.974277,1.456219,5.344106,-2.225151
1003.605469,3.213099,2.078378,7.539812,2.957878
1003.609375,8.347405,-1.082648,8.156366,9.885940
1003.613281,1.466493,11.657807,5.291659,11.980950
1003.617188,7.396291,8.233859,11.781383,16.508916
1003.621094,7.153106,10.964993,9.648066,11.859544
1003.625000,21.473142,9.122336,3.212457,13.290908
1003.628906,9.880931,11.461315,11.156929,9.415151
1003.632812,2.122166,11.343160,5.439368,17.846268
1003.636719,6.866521,15.731864,5.567275,12.094732
1003.640625,12.803067,0.599384,9.168647,7.055720
1003.644531,1.306042,1.909056,-3.147308,2.548528
1003.648438,5.931185,0.290786,-6.390112,-2.742211
1003.652344,1.183209,1.140011,3.753940,6.265202
1003.656250,2.097831,-7.556417,-4.229796,-8.181075
1003.660156,-3.043766,-1.001917,-3.448875,-4.125654
1003.664062,-10.703287,-5.356841,-7.485648,-9.648271
1003.667969,-8.622790,-5.122392,-8.352727,-10.014919
1003.671875,-7.759108,-9.637724,-10.716641,-18.230697
1003.675781,-12.612979,-8.830974,-11.123724,-9.462782
1003.679688,-14.375966,-1.800143,-17.518259,-9.592796
1003.683594,-8.766465,-1.596756,-16.097432,-7.435305
1003.687500,-16.379922,-10.642714,-10.593278,-3.486956
1003.691406,4.463111,-4.379134,-1.327719,-3.879259
1003.695312,-3.874666,-6.665696,-2.581617,-5.096393
1003.699219,1.677151,-4.468296,-1.193223,-0.384200
1003.703125,5.244203,4.792310,-0.611142,7.511591
1003.707031,12.307517,2.841483,2.345606,-0.056541
1003.710938,1.140657,8.312957,9.247014,1.802181
1003.714844,7.081213,10.219195,6.325756,6.183075
1003.718750,15.943876,15.598308,11.936235,10.192753
1003.722656,12.502743,9.256737,6.113365,12.617007
1003.726562,5.838738,20.720571,12.157822,2.472876
1003.730469,12.784646,9.813139,7.520731,17.336721
1003.734375,13.230253,6.747447,6.069186,9.164725
1003.738281,3.806976,6.756224,12.135493,7.586176
1003.742188,4.604135,2.898514,-2.157526,2.460679
1003.746094,4.183185,-0.701472,8.319617,-2.803286
1003.750000,1.974086,-3.881177,-0.327962,-7.073252
1003.753906,4.681005,-3.134339,-6.264169,-8.985531
1003.757812,-11.838029,-4.529648,-0.701929,-10.150935
1003.761719,-6.014126,-2.758035,-16.354411,-3.025653
1003.765625,-9.221329,-12.453039,-10.556712,-9.828044
1003.769531,-6.249127,-13.859179,-11.807921,-10.029017
1003.773438,-10.735855,-9.900297,-16.016831,-8.600470
1003.777344,-11.209717,-9.823606,-20.032588,-1.719882
1003.781250,-14.057588,-13.999750,-12.772775,-6.216847
1003.785156,-16.566827,-11.155558,-2.078957,-12.579734
1003.789062,-5.098500,-9.510957,-10.767973,-1.756716
1003.792969,-6.374470,-1.948815,-9.328465,-4.647602
1003.796875,-4.682198,-4.058457,0.609336,-2.703016
1003.800781,1.681823,-2.057266,-2.870386,7.198248
1003.804688,1.816019,0.502484,1.514800,6.860635
1003.808594,0.118913,9.761140,-2.030754,3.623439
1003.812500,8.499295,3.480903,6.938461,7.399299
1003.816406,10.340416,7.698032,3.990613,4.285496
1003.820312,10.751627,10.884631,10.434114,8.690647
1003.824219,9.380493,7.290664,9.999712,12.148592
1003.828125,15.450916,12.513144,11.544211,8.919293
1003.832031,7.687229,12.597514,9.146662,7.438288
1003.835938,15.067151,12.068182,9.352155,10.094017
1003.839844,9.276255,6.070601,2.305034,5.364018
1003.843750,3.630803,10.880238,5.146358,-0.735597
1003.847656,-5.715558,0.177423,1.234689,1.764617
1003.851562,3.267203,-2.266698,0.466270,-11.778210
1003.855469,-3.459492,3.316734,-1.768894,-5.584944
1003.859375,-3.087994,0.571781,-4.485189,-4.715596
1003.863281,-8.937953,-14.036788,-7.228573,-0.511915
1003.867188,-8.743229,-6.519399,-7.502144,-5.185292
1003.871094,-10.172012,-7.882597,-7.219973,-13.459433
1003.875000,-7.402953,-7.801376,-11.641943,-8.777370
1003.878906,-5.316384,-15.197274,-7.941084,-2.038592
1003.882812,-7.476563,-9.299604,-7.562442,-9.736298
1003.886719,-8.476402,-3.720963,-0.278525,-5.224944
1003.890625,-8.068696,-4.062599,-9.209299,-11.803163
1003.894531,-5.806994,-4.603811,-9.154617,-4.818786
1003.898438,-0.442279,-0.079509,5.633053,5.744367
1003.902344,-3.378005,3.331523,0.726304,8.539110
1003.906250,-3.132228,1.990966,9.168132,6.766120
1003.910156,6.627208,10.955004,11.637046,11.555109
1003.914062,2.344473,11.061706,8.813194,5.580396
1003.917969,6.647035,4.114565,6.953732,11.956642
1003.921875,9.562189,7.972581,10.902937,9.226683
1003.925781,11.707843,9.744245,6.110976,8.006256
1003.929688,10.364082,10.027225,13.439806,17.135911
1003.933594,5.264345,1.898575,9.488615,2.488569
1003.937500,11.142250,6.307110,4.921551,8.404686
1003.941406,-1.334384,5.534924,4.615369,8.351262
1003.945312,4.200109,-9.515770,4.608349,0.333618
1003.949219,-0.542749,1.681871,0.188218,1.565476
1003.953125,-2.042045,5.139695,-1.305939,-3.631065
1003.957031,-14.884657,-5.439725,-0.294237,-7.360036
1003.960938,-4.487133,-2.354891,-6.420140,-6.503146
1003.964844,-3.446857,-14.223037,-7.087765,-7.381802
1003.968750,-5.660601,-10.893654,-8.338840,-10.924808
1003.972656,-11.570441,-17.032958,-12.422212,-9.229617
1003.976562,-9.835548,-14.471724,-13.611059,-2.226361
1003.980469,-6.982637,-8.970915,-11.163132,-10.592668
1003.984375,-11.689257,-6.326484,-4.906713,-11.483698
1003.988281,-3.559927,-4.566104,-12.246525,-12.187078
1003.992188,-0.003623,0.671839,-2.915664,-6.918526
1003.996094,-3.331094,5.853509,3.884610,1.321725
1004.000000,2.009089,-1.280878,2.796547,6.241808
1004.003906,-3.607625,7.720719,4.755540,6.016891
1004.007812,6.782928,6.911412,2.784278,4.140613
1004.011719,11.996462,12.864179,6.884897,8.869333
1004.015625,11.356641,3.244947,6.962402,6.490147
1004.019531,12.020529,7.439937,10.108746,11.249692
1004.023438,2.811143,6.998456,5.822319,4.757330
1004.027344,8.889563,6.407190,10.751105,8.000321
1004.031250,6.474210,9.856741,8.337763,9.800818
1004.035156,10.216291,8.740028,13.053906,9.107558
1004.039062,5.571717,3.954641,6.494090,8.559263
1004.042969,4.800891,5.933421,5.760005,0.261649
1004.046875,7.907057,3.199604,1.382093,1.014239
1004.050781,-6.238357,-1.764466,-5.090287,1.188454
1004.054688,-1.060490,-6.375746,3.008093,-2.612808
1004.058594,-3.932752,-2.906991,1.858794,-9.519856
1004.062500,1.564637,-8.156125,-10.367834,-6.171023
1004.066406,-7.429662,-13.296152,-11.953210,-13.250738
1004.070312,-9.726594,-1.422645,-3.966957,-6.389311
1004.074219,-8.732016,-8.586072,-7.904151,-12.378337
1004.078125,-7.863585,-16.331850,-5.970386,-11.984618
1004.082031,-8.102969,-11.451274,-14.217131,-3.478320
1004.085938,-11.845846,-3.874925,-6.514906,-4.584330
1004.089844,-5.939346,-2.754355,-0.653658,-3.738584
1004.093750,-12.697197,0.672130,-4.128427,-0.605952
1004.097656,-3.879171,0.378706,2.914050,-0.612836
1004.101562,-1.618372,2.103598,-0.373167,-0.445615
1004.105469,-0.385833,5.652590,6.694448,-0.700154
1004.109375,11.103252,5.079722,7.480697,7.139518
1004.113281,9.143406,5.567888,9.108019,8.629339
1004.117188,10.881178,10.156029,3.541858,4.067268
1004.121094,11.196004,8.798427,8.786233,12.221204
1004.125000,10.510369,11.568215,12.196429,13.081660
1004.128906,11.511063,9.033661,9.127989,7.821377
1004.132812,8.856091,16.294937,8.251986,1.633111
1004.136719,6.083225,8.346855,13.476074,4.223154
1004.140625,6.260076,11.197534,4.267658,14.296798
1004.144531,3.702169,5.895471,1.140226,3.136046
1004.148438,1.540831,-2.182959,-3.467026,1.261649
1004.152344,-9.081088,1.205353,3.718049,3.853364
1004.156250,-2.788554,-8.068773,-4.822081,5.001229
1004.160156,-9.696617,-13.167855,-6.591851,-12.339911
1004.164062,-14.005234,-10.111936,-12.974597,0.131482
1004.167969,-4.290022,-13.673871,-10.255322,-11.987763
1004.171875,-9.433564,-10.629230,-10.658896,-9.807820
1004.175781,-12.751195,-11.241296,-12.212845,-6.880735
1004.179688,-14.964363,0.924831,-3.635845,1.561114
1004.183594,-6.043346,-7.537412,-4.135174,-14.960197
1004.187500,-9.414151,-7.511232,-3.725245,-6.717515
1004.191406,-1.424710,-5.424120,-4.035155,-2.477497
1004.195312,-5.758667,-5.089309,-1.297627,-4.729332
1004.199219,-0.435881,4.964459,-7.295615,2.501248
1004.203125,8.532349,-4.620536,-1.201453,10.352439
1004.207031,3.301245,7.662330,12.034981,2.073327
1004.210938,-1.454207,11.069623,7.864923,8.125348
1004.214844,5.997457,14.641122,7.196166,7.340699
1004.218750,-0.493549,10.266395,4.872192,4.801060
1004.222656,7.800868,16.657130,11.391916,7.815430
1004.226562,5.761056,8.568449,10.742607,12.329118
1004.230469,7.080639,10.759666,13.102208,16.224581
1004.234375,15.205340,14.063913,10.736147,8.213234
1004.238281,5.798905,1.117067,9.589821,1.254673
1004.242188,3.130493,8.938468,-2.336931,2.310694
1004.246094,3.269178,4.871828,0.910955,0.210588
1004.250000,-2.656859,-1.878418,-1.576279,-1.473500
1004.253906,0.420181,5.415006,-2.972462,-6.119501
1004.257812,-7.056853,-9.502703,-6.588577,-5.359682
1004.261719,-1.566213,-5.781091,0.264681,-10.781661
1004.265625,-8.394193,-10.482748,-6.517078,-5.134401
1004.269531,-9.744615,-11.026599,-13.907668,-11.306360
1004.273438,-11.506354,-2.816317,-15.973918,-6.876356
1004.277344,-8.684017,-13.377647,-5.377173,-11.439624
1004.281250,-11.895929,-6.806094,-5.085340,-12.834761
1004.285156,-8.985455,-10.437731,-2.660363,-4.865096
1004.289062,-2.203180,-7.568010,-7.334913,-8.710107
1004.292969,-6.534993,-2.665843,-7.505828,-1.535329
1004.296875,-6.932865,-10.887270,0.260297,-3.074650
1004.300781,6.251464,-0.852506,4.249284,-5.382956
1004.304688,6.548366,-1.153068,-1.871796,0.406117
1004.308594,-3.294831,4.219082,6.776607,-0.083718
1004.312500,4.437419,5.488455,9.084435,2.471135
1004.316406,9.854580,3.785666,13.521021,9.364320
1004.320312,11.721434,16.636092,9.990488,11.062267
1004.324219,8.497614,8.006139,6.806730,12.912641
1004.328125,9.424272,14.898820,6.946161,10.437614
1004.332031,2.207847,10.604538,6.490533,3.580905
1004.335938,3.942544,11.713701,7.982714,11.304813
1004.339844,3.322509,4.132615,9.747189,5.089915
1004.343750,3.771359,-3.569280,9.587395,1.758604
1004.347656,-3.295986,-0.297017,4.012159,-1.399492
1004.351562,-3.453012,-3.247318,-4.371256,-4.750235
1004.355469,-5.905045,0.396885,2.830904,-3.090223
1004.359375,-7.936129,-2.880995,-3.922153,-2.101682
1004.363281,-7.866887,-5.708477,-10.305715,-2.019642
1004.367188,-11.353741,-6.532223,-3.049379,-9.678031
1004.371094,-3.333271,-7.228388,-8.973205,-8.958857
1004.375000,-13.915202,-11.882387,-9.573525,-6.007007
1004.378906,-2.233437,-3.365449,-5.705741,-12.505208
1004.382812,-5.481537,-5.464166,-11.922457,-6.283680
1004.386719,-9.328283,-6.432529,-4.623939,-3.123510
1004.390625,-7.632274,-2.661932,-5.689330,-9.938721
1004.394531,-3.491560,1.763612,-2.798585,-2.896496
1004.398438,2.260854,1.315615,-5.938296,5.155717
1004.402344,-2.881297,-3.524213,3.463093,2.467339
1004.406250,0.352134,9.729956,7.100502,-0.972816
1004.410156,-0.905466,7.046740,10.931558,6.000545
1004.414062,8.308418,13.341369,5.893003,8.807137
1004.417969,7.952842,12.337699,7.329787,7.978222
1004.421875,6.560846,13.177609,8.803383,7.182778
1004.425781,4.364055,3.698727,10.372727,13.819722
1004.429688,8.104989,13.329520,7.338662,11.515341
1004.433594,7.623274,10.004073,8.758063,7.423883
1004.437500,4.922016,8.394055,6.569195,3.909278
1004.441406,3.907152,4.922804,9.369963,4.498941
1004.445312,-5.437501,2.013235,-0.096483,1.598656
1004.449219,-2.055512,-0.492026,-2.392309,-1.242404
1004.453125,-1.394722,-1.760523,-1.097776,-3.297087
1004.457031,-11.260401,-1.999549,-5.273569,-3.530313
1004.460938,-5.952166,-7.227744,-3.655029,-4.144900
1004.464844,-6.099655,-4.573984,-10.704211,-13.790451
1004.468750,-4.752334,-6.842423,-8.954723,-16.223435
1004.472656,-7.636495,-15.346584,-9.820368,-16.563803
1004.476562,-10.164135,-8.202193,-8.828851,-11.661118
1004.480469,-10.015281,-8.161189,-13.395637,-10.884917
1004.484375,-6.832829,-6.035834,-12.966650,-10.362560
1004.488281,-10.634393,-1.839442,-5.630716,-7.834437
1004.492188,-0.706286,-10.317114,-3.498374,2.920525
1004.496094,-2.725729,0.320489,-2.888863,1.707368
1004.500000,-3.921288,-4.145215,-2.407679,0.964392
1004.503906,3.701715,-3.510012,5.734501,-2.721460
1004.507812,9.249316,-0.908291,8.081852,0.205131
1004.511719,5.287637,8.759665,3.350830,6.473652
1004.515625,4.352318,5.791330,3.812212,9.363312
1004.519531,7.805548,0.051301,11.509300,7.429398
1004.523438,8.145299,8.485048,13.496788,12.459375
1004.527344,14.942813,6.610543,14.560684,8.314525
1004.531250,15.186638,5.935684,6.249146,14.162446
1004.535156,2.654123,12.272133,8.511552,5.844218
1004.539062,3.334697,5.548375,7.535353,3.464545
1004.542969,0.883021,0.609252,5.183179,10.046426
1004.546875,5.190170,2.194515,5.195489,5.638461
1004.550781,-1.238952,2.895083,-5.909299,-0.578193
1004.554688,5.046113,-2.734613,-1.985467,-11.048121
1004.558594,-6.217800,3.377789,-5.605398,-2.201263
1004.562500,-3.602372,-8.260818,-8.697389,-8.259388
1004.566406,-11.978849,-13.213567,-8.022101,-7.127462
1004.570312,-10.466445,-8.594052,-11.713386,-11.761118
1004.574219,-6.323705,-12.763922,-12.874446,-5.428892
1004.578125,-6.921557,-11.557562,-8.286251,-10.207873
1004.582031,-3.224364,-7.851799,-2.150421,-7.991004
1004.585938,-13.605038,-7.097015,-4.769815,-15.307606
1004.589844,-11.740585,-4.165089,-8.528325,-8.922860
1004.593750,-2.987019,2.245019,-11.177736,-0.267193
1004.597656,-0.658917,-1.005764,-8.889639,-1.935489
1004.601562,-2.314828,-1.565546,1.108965,2.837113
1004.605469,13.625784,-2.011417,-1.505739,-1.213557
1004.609375,8.941084,8.019022,1.617071,5.557233
1004.613281,0.889437,12.624111,11.215570,10.519621
1004.617188,12.760248,9.137684,3.526245,6.655740
1004.621094,7.417420,13.254513,12.229649,16.452998
1004.625000,6.562823,8.550646,16.757734,11.524825
1004.628906,12.545906,13.063541,8.043167,9.696810
1004.632812,13.161223,15.721527,14.748723,15.275568
1004.636719,6.092236,9.710554,0.035065,10.931862
1004.640625,10.563180,7.053397,7.632646,7.114492
1004.644531,-0.457434,7.432273,-1.001863,7.843263
1004.648438,-2.142714,5.147321,0.335801,-3.363858
1004.652344,-3.082708,4.082700,-7.186834,0.079000
1004.656250,-3.360246,-4.052792,-8.269439,-1.388103
1004.660156,-2.716247,-8.367898,-6.860008,0.510213
1004.664062,-8.787052,-14.508505,-14.115421,-8.629036
1004.667969,-13.299350,-11.289055,-8.290463,-10.541018
1004.671875,-13.791983,-11.676685,-8.179631,-9.682059
1004.675781,-14.327531,-8.936849,-12.926040,-15.747977
1004.679688,-13.190860,-6.773204,-11.206827,-2.962316
1004.683594,0.623707,-8.215300,-4.812516,-10.000044
1004.687500,-3.876296,-15.040922,-0.125185,-12.276494
1004.691406,-0.501789,-2.427573,-3.154758,0.151711
1004.695312,-7.178516,-5.571149,2.406900,-8.052692
1004.699219,-3.415163,-3.723591,5.212241,1.907144
1004.703125,-1.459577,1.677293,2.639516,-0.067857
1004.707031,0.183837,-3.423644,2.219055,4.523026
1004.710938,1.155037,13.326748,5.456514,1.216736
1004.714844,9.222711,6.956449,0.234179,10.763332
1004.718750,7.767907,9.656554,13.431205,10.187927
1004.722656,8.092869,12.688723,13.816154,11.567099
1004.726562,10.998361,1.988314,7.750387,9.872087
1004.730469,7.656850,7.629679,6.311923,13.370327
1004.734375,11.844303,4.191935,7.402409,9.181474
1004.738281,-0.489623,2.899239,7.576066,6.734179
1004.742188,14.049134,4.597413,4.103517,4.480159
1004.746094,3.294526,-3.532843,7.980964,-3.329269
1004.750000,-1.858098,-2.941032,0.912190,-2.155816
1004.753906,2.011480,-6.186847,7.285988,-2.007950
1004.757812,-3.228154,-5.625060,-2.468232,-0.142414
1004.761719,-10.341054,-5.127847,-4.576116,-11.226983
1004.765625,-8.159464,-4.853088,-5.811777,-14.207187
1004.769531,-8.117903,-13.194199,-13.451827,-4.115273
1004.773438,-17.336041,-1.651945,-9.354825,-11.728071
1004.777344,-13.888552,-14.462720,-7.370359,-13.459105
1004.781250,-5.223800,-11.333814,-10.796208,4.124649
1004.785156,-13.205180,-4.355674,-2.398444,-9.865023
1004.789062,-4.714157,-13.773647,-5.721171,-3.647855
1004.792969,-5.026743,1.966984,-0.302522,-11.532425
1004.796875,-3.423561,-6.727849,-2.225221,-9.189055
1004.800781,-4.919459,-1.227566,-4.012249,1.550887
1004.804688,8.382079,-0.381588,5.573013,-4.139453
1004.808594,5.814456,3.280335,5.680530,0.738274
1004.812500,6.071123,11.905560,4.308140,1.006986
1004.816406,11.047560,6.584806,5.694623,8.174491
1004.820312,12.866158,12.876254,7.081967,14.274116
1004.824219,8.360635,17.278837,14.894198,8.108743
1004.828125,4.646390,7.140533,11.144911,13.612069
1004.832031,-0.550003,7.992028,9.654943,13.360032
1004.835938,12.948749,9.978325,0.484580,8.327397
1004.839844,0.510711,3.619133,6.005511,11.875855
1004.843750,0.692016,3.124583,9.960350,5.883223
1004.847656,0.569351,6.935102,-3.402484,-4.158789
1004.851562,-5.935293,-2.226857,-0.915806,3.182487
1004.855469,7.513376,-6.105302,2.138551,-2.546478
1004.859375,-6.364596,-9.773054,-7.491508,-5.363029
1004.863281,-4.567086,-7.867781,-10.616831,-5.533852
1004.867188,-5.544724,-18.419122,-10.755248,-12.013875
1004.871094,-6.076176,-10.473403,-9.009914,-9.241846
1004.875000,-5.773747,-13.409206,-7.242160,-11.124321
1004.878906,-13.618800,-4.480534,-9.401721,-5.225459
1004.882812,-6.129799,-2.469921,-9.947728,-4.231589
1004.886719,-6.449350,-6.096798,-5.640204,-10.160665
1004.890625,-4.305069,-5.326253,-0.123005,-4.623850
1004.894531,1.270155,-8.307703,-4.431721,3.914945
1004.898438,-3.394113,-2.313585,-1.587081,1.290709
1004.902344,-11.388723,7.842753,1.027657,1.502456
1004.906250,-1.640565,9.049776,9.020720,-3.830838
1004.910156,5.308476,14.418779,10.068110,3.021860
1004.914062,9.146891,4.400449,10.672479,7.490064
1004.917969,6.900449,8.621124,13.882463,7.135509
1004.921875,10.055561,11.914533,7.098872,15.935768
1004.925781,10.704116,12.626950,18.620668,5.288342
1004.929688,7.864483,11.812909,7.858293,3.490712
1004.933594,3.596686,7.911567,10.448448,8.102161
1004.937500,2.719579,3.699931,9.147573,10.310523
1004.941406,6.096903,0.292213,12.781405,4.746869
1004.945312,10.439986,5.892208,-2.360682,5.184886
1004.949219,4.707248,-0.168122,-1.427087,5.552086
1004.953125,6.023328,-6.337326,-0.897016,-0.096829
1004.957031,-7.251920,-6.500060,-2.788894,-1.300593
1004.960938,-3.196778,-5.530583,-15.319904,-10.444373
1004.964844,-8.285090,-11.330276,-11.007943,-7.743225
1004.968750,-8.222572,-2.888856,-2.615918,-7.582055
1004.972656,-9.067264,-12.332972,-10.915809,-11.265929
1004.976562,-14.496505,-17.090417,-6.035066,-9.764393
1004.980469,-13.978776,-11.120327,-8.358431,-9.540359
1004.984375,-1.953347,-14.471832,-11.575357,-10.011180
1004.988281,-8.906539,-7.598981,-0.942718,2.471801
1004.992188,-0.071934,-6.383529,-1.910162,-6.793927
1004.996094,1.753792,-0.147594,-2.826379,5.600734
1005.000000,-0.403398,5.962706,2.223600,5.995029
1005.003906,4.836645,2.274559,5.320176,5.627116
1005.007812,10.664472,4.762170,6.812718,14.572376
1005.011719,7.722883,10.482218,7.022292,10.345664
1005.015625,10.330712,10.143066,5.618274,9.510145
1005.019531,7.999927,15.207036,15.890161,7.238576
1005.023438,12.738655,14.798912,8.455683,10.089052
1005.027344,13.199944,14.568596,7.758444,8.108286
1005.031250,8.337250,-1.272541,5.742660,9.195296
1005.035156,14.576966,4.483253,2.774590,8.415079
1005.039062,1.585608,4.057809,5.121243,0.568237
1005.042969,9.765873,3.954003,7.117649,2.505706
1005.046875,8.440633,-0.908964,1.525545,4.704565
1005.050781,-2.643936,1.026632,-1.442196,7.359273
1005.054688,1.657025,-7.660374,-10.642969,-1.017290
1005.058594,-0.772307,-2.724241,3.060336,-3.292693
1005.062500,-10.246467,-8.940441,-5.872376,-3.813156
1005.066406,-8.849146,-1.091135,-7.209166,-7.141907
1005.070312,-9.449488,-14.665371,-14.015767,-14.630234
1005.074219,-3.816015,-12.515921,-3.564820,-11.341510
1005.078125,-0.399304,-19.351521,-13.656860,-8.500576
1005.082031,-9.896290,-17.507278,-6.963032,-9.089313
1005.085938,-6.315299,-7.045996,-9.600433,-6.140635
1005.089844,-9.745099,-3.479928,-7.360596,-4.240173
1005.093750,3.233204,-8.550829,-3.630336,-3.963137
1005.097656,-5.191455,-0.248133,-4.882082,-0.104785
1005.101562,-2.885628,-7.703387,0.068060,4.434383
1005.105469,4.105148,5.352612,3.708429,3.132760
1005.109375,4.489757,0.958565,0.037225,4.052636
1005.113281,15.768066,6.093758,-1.538055,8.255610
1005.117188,6.154033,16.902615,19.739004,14.780718
1005.121094,6.789713,3.723831,12.308709,11.157552
1005.125000,13.011889,6.237896,9.267566,10.167338
1005.128906,12.185192,15.545111,12.465494,12.147266
1005.132812,14.825570,6.454764,1.072413,7.396359
1005.136719,1.911724,12.347303,9.981543,4.846025
1005.140625,0.442798,1.504096,5.147533,2.296304
1005.144531,4.179173,6.116193,2.311634,-5.943418
1005.148438,4.048127,2.222269,1.787856,-2.118649
1005.152344,3.105106,-8.515598,-1.934561,-11.193768
1005.156250,-7.724541,-7.394449,-0.260909,3.778985
1005.160156,-5.652431,-8.868605,-8.878384,0.958992
1005.164062,-4.266063,-7.015560,-9.584188,-10.549786
1005.167969,-8.114572,-12.187190,-20.997337,-14.882128
1005.171875,-6.375601,-10.499516,-10.294821,-12.636807
1005.175781,-9.825792,-9.845871,-10.660863,-2.963285
1005.179688,-13.346116,-14.206127,-8.162207,-3.819240
1005.183594,-13.080450,-9.803262,-7.755314,-5.370436
1005.187500,-6.804037,-7.615616,-12.877773,-15.249972
1005.191406,-9.904777,-0.293704,-4.637415,-5.560524
1005.195312,-4.864496,-5.026580,-6.103147,-5.771502
1005.199219,0.534783,4.740359,-2.996994,3.672903
1005.203125,2.559103,8.580801,0.375693,5.217748
1005.207031,1.428216,2.253549,10.158886,11.009418
1005.210938,9.800474,7.707525,15.666229,10.778872
1005.214844,9.656147,9.286151,7.723473,7.083063
1005.218750,16.830887,14.018141,13.179909,7.053404
1005.222656,8.615893,5.417291,9.425753,14.660346
1005.226562,12.505040,11.690927,7.162681,5.527228
1005.230469,16.549555,9.912995,9.825689,8.367972
1005.234375,9.175658,6.173310,10.174244,11.116253
1005.238281,7.274175,2.286497,6.849209,5.902200
1005.242188,-0.049948,1.317304,2.904087,4.862187
1005.246094,1.017986,3.919051,1.234272,2.141547
1005.250000,3.145596,9.212628,10.604494,8.647146
1005.253906,-2.910067,7.828938,1.316241,-2.716764
1005.257812,-3.454143,-5.456621,-10.138464,-4.393450
1005.261719,-7.015639,-15.247242,-5.461965,-9.325666
1005.265625,-6.954699,-4.531058,-2.644134,-1.958414
1005.269531,-7.150906,-8.920958,-9.563488,-15.822800
1005.273438,-13.931107,-11.439099,-6.420181,-13.002927
1005.277344,-10.985652,-17.859786,-9.438417,-4.346967
1005.281250,-8.288900,-7.506517,-6.311244,-9.893757
1005.285156,-13.169021,-14.265211,-3.805416,-0.259308
1005.289062,-3.456746,-2.876076,-5.518893,-7.085198
1005.292969,-10.934254,1.033446,-0.344585,-5.687267
1005.296875,1.812478,2.309051,-1.266405,-1.545072
1005.300781,0.746947,2.281622,4.179543,-5.620282
1005.304688,-0.924351,5.561294,-1.351956,-8.344477
1005.308594,2.472283,3.889533,4.090699,8.910462
1005.312500,4.444687,8.789712,4.722616,5.550038
1005.316406,9.794382,12.724849,11.026875,8.558666
1005.320312,5.666220,10.725645,7.150569,3.234757
1005.324219,9.921761,12.526948,13.755928,7.359477
1005.328125,23.700263,5.566325,6.193541,6.752449
1005.332031,11.691795,4.645902,14.270562,6.392341
1005.335938,-2.312623,12.761387,4.030273,10.167142
1005.339844,7.958228,8.205953,9.273412,7.670747
1005.343750,4.897335,1.402550,11.497354,7.406925
1005.347656,5.902653,2.495606,-0.856357,5.788312
1005.351562,2.136224,0.779611,2.263140,0.639090
1005.355469,-6.731604,-10.184082,-3.073776,2.058588
1005.359375,-4.300405,-2.355346,-2.397634,-5.301997
1005.363281,-8.575906,-10.465610,-4.577797,-7.040582
1005.367188,-2.662935,-8.443893,-12.682027,-10.296005
1005.371094,-15.520190,-11.349625,-15.092267,-13.629573
1005.375000,-10.573900,-6.717553,-11.763638,-8.922463
1005.378906,-13.028773,-4.209247,-9.086223,-11.545583
1005.382812,-17.130656,-16.860799,-12.304956,-7.217298
1005.386719,-13.755293,-7.917207,-2.973880,-11.233335
1005.390625,-5.189541,-4.793412,-13.328849,1.410626
1005.394531,-6.386212,-3.688063,1.653099,-5.660637
1005.398438,-4.069571,0.318792,-0.205253,-2.279823
1005.402344,0.059749,8.240078,-1.558373,5.694801
1005.406250,3.054878,7.582151,10.887583,2.067912
1005.410156,6.746947,5.437681,7.187093,7.766045
1005.414062,9.040858,12.462375,3.909338,10.633859
1005.417969,12.621418,11.674282,6.437665,6.226843
1005.421875,10.115060,14.328517,8.100149,4.131597
1005.425781,9.835119,11.611342,7.085404,3.987279
1005.429688,8.631788,9.909236,7.462048,19.737517
1005.433594,9.085495,0.346268,12.429177,9.746344
1005.437500,4.697123,8.115702,6.613699,7.482737
1005.441406,2.196447,2.003202,1.215631,7.259146
1005.445312,-3.609140,2.913328,10.286687,-0.081961
1005.449219,-6.597040,1.829070,-2.052921,-5.042087
1005.453125,-2.917706,-6.467366,1.420438,-8.693357
1005.457031,-7.697807,-2.983681,-4.726211,-8.119198
1005.460938,-8.779384,-10.631722,-10.785241,-9.113348
1005.464844,-6.736861,-10.684094,-11.707244,-10.918202
1005.468750,-12.034160,-12.115779,-6.950518,-6.500063
1005.472656,-2.862394,-7.439732,-2.989633,-14.979617
1005.476562,-10.426084,-5.356167,-5.636002,-6.309373
1005.480469,-7.916847,-7.729440,-7.802473,-4.007602
1005.484375,-14.571307,-6.965390,-7.228090,-8.453148
1005.488281,-1.602383,-5.866613,-8.089497,-9.568870
1005.492188,-0.384247,-4.721365,-1.751090,-7.638259
1005.496094,-7.430065,-7.715064,-0.058425,-3.969529
1005.500000,2.413837,-0.459088,-1.387304,0.912845
1005.503906,-1.847880,5.918997,4.977263,9.965867
1005.507812,2.708988,6.821332,14.459676,14.008441
1005.511719,2.860061,3.747224,10.166768,10.632084
1005.515625,3.516076,6.644110,3.439772,2.200566
1005.519531,8.988738,8.277607,8.862466,0.130655
1005.523438,10.270064,10.406063,13.416057,7.753898
1005.527344,18.074923,6.640732,14.162933,21.654971
1005.531250,5.445790,8.171929,8.542903,7.679606
1005.535156,9.698665,9.785858,4.766698,5.830166
1005.539062,10.193980,12.036337,11.405816,8.670787
1005.542969,8.305119,3.459390,2.435809,1.448305
1005.546875,-4.268625,7.239431,1.902175,10.781706
1005.550781,-7.938051,6.100414,-0.679475,1.570307
1005.554688,-7.091774,-1.010985,-0.073750,-10.180067
1005.558594,-2.737646,-2.091098,-8.923520,-6.631123
1005.562500,-1.611855,-2.629533,-8.881556,-5.288001
1005.566406,-7.640457,-10.109557,-8.264678,-6.732951
1005.570312,-9.715365,-9.381754,-12.652287,-3.318653
1005.574219,1.295131,-10.226902,-14.825019,-8.683807
1005.578125,-11.277874,-13.948624,-6.054532,-8.160643
1005.582031,-6.826788,-9.747642,-9.669223,-8.614231
1005.585938,-7.170094,-12.906689,-9.711606,-11.929818
1005.589844,-13.651872,-13.357092,-10.190997,2.518173
1005.593750,-4.490249,-17.330376,0.177317,-3.314636
1005.597656,-2.603719,-4.622111,-1.900235,0.059895
1005.601562,2.619353,0.296848,2.068547,-1.463200
1005.605469,0.612790,4.120147,1.947635,2.710594
1005.609375,2.545121,2.271473,8.045001,2.333803
1005.613281,3.520126,11.489848,9.599675,6.247454
1005.617188,5.667686,8.934293,10.289676,9.760236
1005.621094,8.769035,4.870300,12.375615,10.690474
1005.625000,15.934092,8.241277,14.777313,13.471273
1005.628906,9.903852,17.525592,5.944831,3.004457
1005.632812,7.808791,8.348075,7.404790,10.278118
1005.636719,5.651634,0.716582,10.937124,11.303299
1005.640625,8.290776,3.568275,11.052959,1.222283
1005.644531,1.098105,-0.391366,10.198961,13.934647
1005.648438,-1.666422,-0.282001,-3.468153,6.072739
1005.652344,-11.251460,0.279778,2.716610,-6.126590
1005.656250,-2.055582,-8.381110,-0.338989,-5.932943
1005.660156,6.656248,-8.806760,2.108640,-9.623179
1005.664062,-9.367822,-9.370407,-9.590948,-1.567460
1005.667969,-8.049624,-6.339835,-11.168858,-6.860741
1005.671875,-7.454184,-17.626187,-2.382165,-9.425831
1005.675781,-4.210554,-9.163729,-12.381170,-8.699120
1005.679688,-8.920447,-18.439279,-0.522808,-6.076186
1005.683594,-14.120926,-4.043518,-9.365031,-7.358715
1005.687500,-3.055927,-10.443142,-2.013314,-10.331766
1005.691406,-7.266935,-8.694216,-1.504808,-0.027017
1005.695312,2.863907,6.050987,1.364162,2.882659
1005.699219,-3.284236,-5.764395,4.288309,-1.349848
1005.703125,3.565572,0.237297,-0.229170,1.851293
1005.707031,1.237503,1.033355,-1.501500,8.675731
1005.710938,1.293885,6.709912,3.186095,12.700453
1005.714844,9.811952,12.700302,9.952669,9.570365
1005.718750,13.623902,8.507205,5.689609,11.588299
1005.722656,10.696545,8.813346,9.662083,13.174942
1005.726562,8.641897,10.797715,15.512426,8.166626
1005.730469,6.139545,6.658790,14.470123,11.706588
1005.734375,11.401093,5.870147,12.057483,7.005242
1005.738281,10.174362,7.458577,4.997952,9.426181
1005.742188,6.093128,6.997091,3.181297,5.062897
1005.746094,-1.516859,1.959204,3.292149,6.960216
1005.750000,-3.231484,-1.964817,2.987921,-1.264106
1005.753906,-0.399837,-3.137880,-4.459212,-6.558002
1005.757812,-3.043289,-8.913361,-0.130273,0.830692
1005.761719,0.520302,-3.802008,-5.862637,-7.201137
1005.765625,-5.955362,-11.752349,-6.533655,-13.042282
1005.769531,-5.308911,-0.899748,-8.631252,-7.480677
1005.773438,-9.446321,-9.670103,-8.565940,-12.404877
1005.777344,-10.040115,-11.669176,-10.954836,-7.918258
1005.781250,-15.285847,-9.227721,-7.519942,-13.634678
1005.785156,-2.650985,-4.034794,-4.771138,-11.103778
1005.789062,-5.332822,-10.985553,-2.372182,-4.389864
1005.792969,-8.533415,-7.407768,5.624602,-3.875118
1005.796875,4.852351,-1.979529,-2.837739,-0.562400
1005.800781,-8.271102,4.959642,-7.995435,-1.739380
1005.804688,2.046324,4.665650,0.105746,6.724002
1005.808594,2.148513,9.600627,9.100213,7.576593
1005.812500,1.041276,12.284162,6.498521,0.511555
1005.816406,7.310245,8.287981,7.449190,4.782567
1005.820312,9.368983,9.420818,5.237268,11.439669
1005.824219,4.068106,13.683328,8.342856,7.615509
1005.828125,10.685909,7.653622,16.717565,10.957543
1005.832031,7.180978,12.141041,11.781704,7.538433
1005.835938,13.240062,13.311334,2.504030,0.899810
1005.839844,1.705485,9.123501,5.792458,3.844673
1005.843750,-0.135833,4.478062,2.259404,3.578149
1005.847656,4.210582,1.063464,-5.881722,2.877643
1005.851562,3.088845,-3.668561,-0.407224,-1.907034
1005.855469,-12.901960,-4.509641,-7.281324,-10.944635
1005.859375,-6.356216,-9.950560,-6.471256,0.190839
1005.863281,-9.707657,0.519403,-9.299165,0.996576
1005.867188,-3.223186,-16.384015,-8.511617,-4.211931
1005.871094,-4.513309,-16.641695,-2.224214,-6.856483
1005.875000,-11.319787,-9.034209,-10.059959,-3.961439
1005.878906,-8.403822,-11.544768,-8.225715,-18.278162
1005.882812,-9.470270,-4.847096,-5.587298,-10.078182
1005.886719,-4.793400,-1.304476,-8.652330,-13.686498
1005.890625,-5.553313,-5.973566,-9.568553,-1.432654
1005.894531,-1.097983,-16.463077,-3.328258,-5.751714
1005.898438,2.742665,-0.877272,-4.328371,-7.221765
1005.902344,3.265018,-3.832918,2.797512,0.013721
1005.906250,4.666941,1.006314,1.651859,4.391590
1005.910156,1.590509,9.851329,8.315067,6.485284
1005.914062,4.529995,17.048825,6.322460,7.014714
1005.917969,16.119282,-1.066049,5.714281,5.662318
1005.921875,10.109084,9.303898,12.552370,18.866832
1005.925781,0.794090,7.470220,4.954279,6.366858
1005.929688,5.527060,10.515491,14.756371,10.088137
1005.933594,11.521776,8.664726,4.441343,3.638418
1005.937500,6.814759,11.024173,1.569726,11.104369
1005.941406,4.339962,3.716428,4.011315,9.553378
1005.945312,4.828953,5.891366,0.691337,0.721690
1005.949219,-5.491675,5.456658,-4.366162,-1.587673
1005.953125,-0.389051,-2.580521,-0.168109,-5.585577
1005.957031,-12.391872,-6.136011,-5.484058,2.173370
1005.960938,-3.652219,-4.447566,-6.350296,-5.075225
1005.964844,-14.205195,-6.248660,-8.216473,-6.848920
1005.968750,-14.727786,-13.779455,-9.010282,-6.645802
1005.972656,-8.981175,-14.458495,-8.061282,-12.454153
1005.976562,-12.633427,-4.854064,-15.886672,-7.510895
1005.980469,-5.346060,-6.080996,-11.103598,-10.889075
1005.984375,-0.432080,-8.523526,-12.400529,-6.004751
1005.988281,-3.297663,-6.864110,-3.058637,-11.178602
1005.992188,-3.549537,1.852197,-6.145550,-7.335973
1005.996094,-5.355402,-4.073260,-0.322912,1.186110
1006.000000,1.476773,4.478900,2.250293,2.535994
1006.003906,4.670456,5.575347,-2.846151,4.698638
1006.007812,0.425949,3.062271,2.395914,4.835205
1006.011719,-0.068012,5.350127,3.460519,12.945630
1006.015625,1.850120,8.906181,-0.291281,2.446933
1006.019531,7.472616,11.441126,10.442772,6.205379
1006.023438,12.375889,6.208757,2.698588,4.146294
1006.027344,4.523365,2.486251,2.451611,14.306563
1006.031250,12.040830,1.948168,8.468287,4.665263
1006.035156,9.435695,6.319515,9.913456,8.069380
1006.039062,9.261493,0.219496,4.590555,1.685048
1006.042969,-1.949218,9.191620,-0.867200,2.723153
1006.046875,-2.838429,-0.936202,5.827000,5.207537
1006.050781,-0.401793,-3.998446,-1.724018,-0.639935
1006.054688,-4.563076,-3.682851,-2.732456,-0.754915
1006.058594,-6.415383,-13.634939,4.171884,-6.033018
1006.062500,-5.074670,-8.532569,-12.881190,-7.633691
1006.066406,-5.042477,-10.649604,-11.467027,-3.597811
1006.070312,-4.670326,-11.370374,-6.570652,-9.054850
1006.074219,-4.051207,-13.111386,-5.845071,-11.971584
1006.078125,-8.419694,-10.374388,-1.094441,-10.815101
1006.082031,-10.309105,-8.234183,-1.475626,-9.061595
1006.085938,-8.154274,-6.281885,-11.632659,-13.319041
1006.089844,-2.310696,-3.993548,-5.090944,-1.413165
1006.093750,-4.863729,-1.572152,2.229891,-3.095885
1006.097656,1.446873,3.355361,-6.699364,0.476431
1006.101562,4.271581,3.997133,3.624559,4.600099
1006.105469,5.086820,1.642104,3.927929,-2.853619
1006.109375,1.207613,4.986682,-0.096287,3.183163
1006.113281,5.195719,7.211371,0.770293,0.500076
1006.117188,5.232685,1.336145,8.682069,9.176358
1006.121094,12.178065,11.050462,11.464079,6.122156
1006.125000,10.434114,5.760379,10.504446,10.397764
1006.128906,13.816678,6.631248,10.839109,17.025954
1006.132812,5.923971,14.853230,1.300902,2.831353
1006.136719,13.520601,8.526092,0.835891,8.735566
1006.140625,4.565207,1.124672,4.677356,4.884159
1006.144531,1.940592,-1.997465,1.917774,5.865022
1006.148438,1.652179,-1.145632,3.323345,3.504069
1006.152344,2.093792,-0.252115,-4.194454,-1.682943
1006.156250,1.721372,-7.302786,-2.363077,-4.364127
1006.160156,-11.009421,-15.983310,-7.560078,-10.050558
1006.164062,-7.088729,-9.520840,-3.583428,-13.676638
1006.167969,-14.014249,-11.794722,-9.252141,-11.957877
1006.171875,-10.981197,-11.116383,-12.796618,-9.758881
1006.175781,-18.631372,-15.270659,-15.186907,-4.182091
1006.179688,-11.925901,-8.034140,-6.377857,-7.771986
1006.183594,-7.108474,-9.908776,-5.885625,-5.667294
1006.187500,2.519254,-5.694833,-6.009278,-4.022375
1006.191406,-10.295305,-6.624228,-6.574325,-7.392805
1006.195312,-13.356392,-2.096176,0.311005,2.345041
1006.199219,2.957538,-6.281844,-5.587427,-3.724879
1006.203125,5.447370,-1.493429,0.877770,6.989329
1006.207031,5.879269,-5.069442,2.790556,-0.040873
1006.210938,13.487784,3.400220,10.485063,1.775359
1006.214844,8.842322,11.198337,5.852941,9.021586
1006.218750,9.623674,9.291881,7.671411,11.888808
1006.222656,9.032747,9.417571,10.264044,9.267687
1006.226562,9.413977,5.516521,2.116681,3.854297
1006.230469,7.996637,14.524084,6.756153,12.887637
1006.234375,0.133753,5.609390,13.281979,6.965403
1006.238281,3.133162,11.241951,9.794332,-1.025210
1006.242188,4.394609,10.308665,-4.512893,-4.261868
1006.246094,1.021028,-2.315284,8.181332,-2.201780
1006.250000,-3.709753,-8.183278,0.759150,-3.950677
1006.253906,-3.034472,-4.437784,-6.091315,2.717798
1006.257812,-1.704931,-6.419141,-6.388565,-9.554535
1006.261719,-5.354272,-7.258245,0.259736,-7.331156
1006.265625,-12.079651,-2.071124,-9.820043,-11.932335
1006.269531,-10.988763,-6.217551,-15.738996,-8.957886
1006.273438,-20.212183,-6.561842,-11.612915,-11.420438
1006.277344,-6.159493,-13.591443,-12.768096,-2.838359
1006.281250,-7.953054,-10.776648,-10.405331,-8.700961
1006.285156,-9.495900,-14.538109,-1.828006,3.464578
1006.289062,-7.572997,-6.877115,-15.714609,-3.497785
1006.292969,-1.586729,2.808448,-8.133380,-8.141057
1006.296875,-1.093451,4.770715,3.283051,-1.126302
1006.300781,5.387535,1.171310,3.587754,-5.344099
1006.304688,5.995225,6.035591,7.233687,0.157672
1006.308594,0.519362,1.403304,11.089471,5.431103
1006.312500,8.530799,6.997024,4.412312,9.187512
1006.316406,10.752394,5.812916,11.734602,7.578030
1006.320312,8.060477,3.151051,10.840592,8.267902
1006.324219,1.453398,8.966870,2.005146,11.134662
1006.328125,5.462091,4.517820,15.711668,8.920363
1006.332031,1.685105,5.687061,8.297582,15.835901
1006.335938,10.356313,12.658734,8.397884,6.028072
1006.339844,4.822237,6.334545,4.211767,8.597058
1006.343750,5.444537,5.153544,1.824897,-2.224887
1006.347656,2.667952,1.168770,4.150205,0.566486
1006.351562,-6.213905,4.699325,6.695662,4.561877
1006.355469,-1.383010,-0.896538,0.348861,-8.078233
1006.359375,-2.249113,-8.172754,-10.925956,-7.276648
1006.363281,-8.982552,-3.064736,-5.376124,-12.678653
1006.367188,-8.875082,-11.496301,-4.035537,-12.811130
1006.371094,-8.299423,-5.800623,-4.667174,-17.653310
1006.375000,-13.052424,-6.323689,-10.521636,-15.241722
1006.378906,-1.629540,-12.308410,-7.405313,-16.601232
1006.382812,-0.857715,-8.439528,-9.752688,-8.667364
1006.386719,-5.754089,-11.556753,-9.363516,-8.023844
1006.390625,-3.897603,-10.094291,-4.248977,-5.812603
1006.394531,5.893913,-6.133756,-2.153765,1.052593
1006.398438,0.344692,-5.468928,-6.501703,-5.881969
1006.402344,2.758048,6.572819,-0.987802,5.811893
1006.406250,-0.331286,1.778923,6.204051,3.039924
1006.410156,5.575561,10.975860,6.637246,4.002114
1006.414062,-0.335137,5.020630,6.233438,10.904988
1006.417969,6.984342,14.147458,9.038832,7.982253
1006.421875,10.982809,8.305516,10.299745,8.824114
1006.425781,13.349346,12.653944,12.027660,7.055654
1006.429688,10.666945,6.190765,9.760562,18.616500
1006.433594,9.496001,16.627886,2.968367,10.055485
1006.437500,4.891739,5.216378,2.461635,1.543401
1006.441406,1.222400,7.342150,3.489039,8.231443
1006.445312,1.006173,4.021696,-4.811226,6.936225
1006.449219,2.612509,4.050157,1.654740,4.648449
1006.453125,-0.349353,-3.086383,4.343599,-3.820712
1006.457031,-2.898136,-2.899846,-8.781948,-5.507025
1006.460938,-3.124783,-4.935541,-9.228529,-15.164667
1006.464844,-16.669309,-5.943695,-1.214719,-11.232435
1006.468750,-5.909333,-17.405751,-10.412798,-9.018032
1006.472656,-8.558680,-6.016892,-12.930425,-3.221528
1006.476562,-5.236968,-4.011382,-5.162616,-0.551207
1006.480469,-11.549614,-7.466472,-3.526045,-12.316275
1006.484375,-6.898661,-10.645279,-8.639616,-10.344840
1006.488281,-11.086051,-10.920505,-13.964931,-7.471498
1006.492188,-4.859061,0.398924,1.353069,-3.205317
1006.496094,-5.977790,3.671879,-3.705581,-0.930472
1006.500000,5.728056,3.569752,-5.237681,-3.436896
1006.503906,3.348999,1.484823,-8.347765,3.415401
1006.507812,4.517920,4.493841,-1.114470,4.903833
1006.511719,10.507965,4.035866,3.076919,11.646960
1006.515625,7.479762,10.690446,2.280158,8.583468
1006.519531,11.302992,6.392537,5.356244,2.029679
1006.523438,9.727705,11.351735,12.087155,11.685540
1006.527344,10.121172,5.425117,9.603847,8.093468
1006.531250,15.616420,10.818785,12.648778,9.156439
1006.535156,18.771920,5.944919,3.675834,4.618561
1006.539062,7.156217,-3.068248,7.309595,-2.717618
1006.542969,-0.968622,2.554472,14.964560,6.974589
1006.546875,2.008661,12.417767,7.025398,-0.037666
1006.550781,-5.458567,-4.443039,0.218751,4.219031
1006.554688,-3.624043,2.098385,-3.809417,5.095592
1006.558594,0.478948,-6.586967,-2.135598,-1.098055
1006.562500,-0.134419,-13.756286,-5.995826,-9.757799
1006.566406,-9.095848,-10.530149,-2.513710,-10.622249
1006.570312,-7.887812,-5.930797,-3.626977,-16.569648
1006.574219,-9.387166,-6.343919,-12.940055,-9.542055
1006.578125,-7.259705,-11.565116,-15.080154,1.776365
1006.582031,-15.344018,-6.356225,-11.648754,-12.842313
1006.585938,-3.846077,-11.580834,-12.314532,-11.615605
1006.589844,-7.569708,-3.153122,-6.531131,-11.977447
1006.593750,0.196204,-7.324716,-1.592574,-4.701367
1006.597656,2.430684,-0.003378,-2.219713,7.806769
1006.601562,-3.790651,6.138202,2.380185,-5.240507
1006.605469,-2.925356,7.197174,2.630615,9.266778
1006.609375,3.079421,11.491578,7.933695,1.400941
1006.613281,6.982479,1.524662,2.440207,6.556124
1006.617188,14.261936,8.855093,8.474530,7.183219
1006.621094,5.701965,4.216410,11.375377,18.227348
1006.625000,14.089142,-0.659332,9.304043,11.641430
1006.628906,7.096990,9.465467,10.705177,6.954914
1006.632812,8.527636,6.734176,-3.439738,10.605392
1006.636719,9.392894,13.135042,-3.505386,13.758629
1006.640625,3.977102,4.062618,11.295706,6.822239
1006.644531,2.787046,8.910472,10.999860,-0.988083
1006.648438,0.637044,1.895550,-1.515479,6.117442
1006.652344,0.511654,-3.291202,-7.222494,-3.637865
1006.656250,-11.175884,0.490555,-2.336280,1.770340
1006.660156,-11.065983,-4.161201,-6.503819,-4.722660
1006.664062,-8.610952,-0.700937,-9.680766,-10.169779
1006.667969,-11.721010,-12.735721,-6.159507,-3.192628
1006.671875,-11.346125,-10.895145,-7.555370,-9.263104
1006.675781,-9.528535,-11.120136,-11.442899,-12.524557
1006.679688,-2.907463,-8.470682,-6.888333,-6.497723
1006.683594,-6.363914,-9.319196,-2.104267,-5.865632
1006.687500,-6.748378,1.116014,-1.479554,-8.180107
1006.691406,-0.964068,-8.278215,-7.400835,-10.941312
1006.695312,-2.747045,-3.932684,-4.823704,-5.227604
1006.699219,2.187614,8.096233,-3.327008,-5.468136
1006.703125,2.669503,-0.768656,-5.871475,0.802912
1006.707031,8.772667,5.743924,3.034743,4.695653
1006.710938,5.124516,11.704939,9.507165,4.802312
1006.714844,6.640052,8.078627,4.714090,4.640657
1006.718750,9.222000,3.990060,3.620455,2.659959
1006.722656,15.065005,11.424847,14.941920,4.897745
1006.726562,11.990231,6.278155,17.935173,11.277480
1006.730469,11.611291,6.204875,4.820051,11.092251
1006.734375,4.186622,13.679925,6.337290,13.112300
1006.738281,11.263322,7.387144,8.699813,5.742621
1006.742188,8.960156,-1.429538,10.115425,1.984042
1006.746094,12.901195,4.965648,3.882487,4.238838
1006.750000,5.587964,1.559170,8.004591,-6.945893
1006.753906,0.653344,-3.394786,1.163732,-1.293437
1006.757812,2.177153,-4.691401,-2.358723,-3.270697
1006.761719,-0.590877,-8.854786,-16.393359,-13.066049
1006.765625,-5.320753,-1.757391,-3.916660,-12.764873
1006.769531,-12.230120,-6.465406,-11.641451,-9.011561
1006.773438,-3.878703,-9.227410,-11.701357,-10.413478
1006.777344,-15.262723,-5.798894,-14.069910,-13.242813
1006.781250,-3.837821,-16.207504,-7.098805,-10.222534
1006.785156,-4.929737,-10.743795,-3.371818,-10.623424
1006.789062,-3.795260,-7.854992,-10.326541,-15.574445
1006.792969,-10.704812,-3.217449,0.183576,-2.164023
1006.796875,-4.683367,-10.204565,-1.731510,4.436433
1006.800781,0.031130,-1.516888,0.402252,0.338336
1006.804688,-1.580650,-0.291256,5.574064,1.038769
1006.808594,9.139029,-1.425240,7.106311,5.756477
1006.812500,2.645245,5.896399,7.679144,7.886277
1006.816406,10.061026,10.452396,4.417872,6.590182
1006.820312,13.764332,15.386245,6.975370,11.657248
1006.824219,5.446181,5.132054,5.041701,11.536473
1006.828125,12.992947,6.775628,6.237562,5.244731
1006.832031,15.694054,11.208726,3.342692,14.294817
1006.835938,10.327514,10.414928,7.047527,5.114264
1006.839844,5.213743,6.265553,2.873026,6.468535
1006.843750,10.459565,2.142821,2.566844,-1.324568
1006.847656,-2.113915,2.046419,-8.077289,7.791958
1006.851562,-5.321171,1.676527,0.902848,3.407583
1006.855469,-3.564390,-4.034509,-4.696731,-3.441763
1006.859375,-9.810371,-1.425719,-2.073532,-2.528501
1006.863281,-4.523247,-3.038833,-8.268494,-1.506240
1006.867188,-5.299902,-4.803482,-11.388881,-17.586653
1006.871094,-11.643387,-14.806036,-8.193817,-9.767189
1006.875000,-18.285706,-10.758724,-17.399282,-14.099291
1006.878906,-19.725077,-12.758320,-17.471398,-8.729705
1006.882812,-8.114340,-4.491512,-15.436114,-11.205823
1006.886719,-11.660743,-3.696057,-11.383334,-4.615987
1006.890625,-8.324564,-3.703487,-3.816404,-4.647114
1006.894531,-9.592127,0.133070,-3.715375,-4.923327
1006.898438,-3.549169,-9.815804,-6.566202,1.860015
1006.902344,-0.497819,5.159227,6.478479,5.026916
1006.906250,0.905230,3.845647,9.130220,4.586624
1006.910156,8.119948,9.305239,8.605978,6.650092
1006.914062,9.034343,5.677658,12.005575,2.599937
1006.917969,11.870267,10.140157,12.215518,5.406719
1006.921875,12.219421,8.077435,5.783680,10.466386
1006.925781,15.277947,16.779175,13.252940,1.713867
1006.929688,10.995783,14.211386,8.785392,10.822763
1006.933594,5.497324,11.095216,13.328255,5.039786
1006.937500,5.138803,8.085810,4.501142,9.113630
1006.941406,1.313083,0.702220,2.093779,-1.757587
1006.945312,7.270603,1.704025,4.568107,3.244025
1006.949219,4.937972,-2.814092,1.486644,-3.368840
1006.953125,-6.149084,-0.683176,-5.234320,4.992366
1006.957031,-3.053925,-10.291054,-8.097627,-5.125457
1006.960938,-5.849368,-8.647160,-9.410965,-7.294154
1006.964844,-7.647306,-9.848607,-7.286647,-13.370027
1006.968750,-14.949331,-8.701003,-8.484011,-7.758135
1006.972656,-8.466874,-12.679338,-6.594808,-4.819749
1006.976562,-9.399637,-10.271453,-9.607191,-6.798391
1006.980469,-7.536127,-13.483150,-5.414453,-8.047212
1006.984375,-8.239878,-6.652671,-8.601518,-4.761599
1006.988281,-7.528396,-13.409995,-4.252071,-1.217634
1006.992188,-7.085221,-6.006397,0.670171,-5.681127
1006.996094,-9.259610,-5.230831,-2.538602,-1.066334
1007.000000,7.369181,2.132194,5.698738,-5.190850
1007.003906,2.627172,-1.688711,8.703257,0.775256
1007.007812,10.059271,5.625580,5.288976,6.755245
1007.011719,7.911025,-2.575234,4.063531,6.101469
1007.015625,9.381930,4.987216,8.778494,10.184632
1007.019531,8.372850,6.437952,10.710986,9.329573
1007.023438,7.699550,9.292338,8.542396,4.400653
1007.027344,4.927768,12.457421,9.121354,13.246217
1007.031250,13.147573,16.394524,7.027086,7.302805
1007.035156,8.255097,10.903768,8.255991,11.236925
1007.039062,4.736964,9.611170,6.424491,22.037048
1007.042969,-3.209165,8.989665,9.583498,4.436240
1007.046875,0.848204,3.564139,-6.725900,4.668047
1007.050781,-4.077729,-0.123652,0.033308,9.132418
1007.054688,-3.469338,-2.954270,-2.479503,0.225025
1007.058594,-5.165176,-0.499234,-8.329713,-5.305414
1007.062500,-7.797380,-2.278088,-0.623868,-8.154020
1007.066406,-9.510373,-11.673103,-4.982485,-10.875916
1007.070312,-5.385652,-11.882402,-2.905722,-8.044299
1007.074219,-12.155402,-13.052312,-7.786146,-6.700002
1007.078125,-7.673776,-2.831063,-7.420026,-12.537843
1007.082031,-10.198782,-8.362227,-10.382924,-10.387526
1007.085938,-7.249232,-15.859393,-8.672078,-11.932781
1007.089844,-2.747649,-9.849342,-4.496450,-8.660577
1007.093750,-9.743524,3.760423,-9.989635,-6.384751
1007.097656,-2.996456,-4.522690,-5.689096,-0.693102
1007.101562,9.121175,3.454602,-6.234213,3.514855
1007.105469,-1.140281,-1.266570,6.810937,7.338930
1007.109375,8.564624,12.616596,-1.537049,4.990071
1007.113281,7.636244,6.493997,8.299072,7.040159
1007.117188,7.108627,13.099486,11.733459,11.351559
1007.121094,2.743720,5.602719,9.475223,11.513053
1007.125000,7.758023,11.038445,19.354001,6.866360
1007.128906,14.388079,8.513993,14.805130,15.899908
1007.132812,8.124943,7.816421,11.115847,7.389552
1007.136719,13.044934,6.721276,6.614786,5.390498
1007.140625,5.235127,10.429519,5.641340,11.284037
1007.144531,-3.318287,5.247142,2.490708,-1.153164
1007.148438,-2.204344,-0.101543,0.152439,4.892704
1007.152344,2.537541,-4.464144,-10.584972,-0.522176
1007.156250,4.053687,-7.841033,-2.450530,-10.330389
1007.160156,-9.024468,-8.622452,-10.651904,-4.552454
1007.164062,-6.895234,-6.593337,0.475852,-5.666425
1007.167969,-11.285485,-10.340641,-10.654361,-14.064798
1007.171875,-9.070299,-18.071801,-6.141906,-11.607088
1007.175781,-12.763633,-11.419230,-18.172457,-13.748059
1007.179688,-13.142964,-11.477861,-10.965727,-6.184557
1007.183594,-10.596002,-1.646931,-5.531243,-9.994304
1007.187500,-5.653635,-4.903820,-2.369090,-5.995244
1007.191406,-14.144399,3.200238,-6.592814,-5.767083
1007.195312,1.822274,-4.094387,-0.873843,-6.016815
1007.199219,0.923126,-2.116955,-1.776092,-2.271426
1007.203125,3.516455,-4.951127,1.889040,4.264411
1007.207031,12.362664,3.201070,6.930166,2.067717
1007.210938,7.402932,5.220293,0.674673,10.440067
1007.214844,-3.268280,15.150996,2.645013,6.012065
1007.218750,7.785604,2.348647,-2.054056,12.067540
1007.222656,6.210814,19.861187,7.634410,11.590854
1007.226562,9.642385,7.704142,16.049412,1.298310
1007.230469,13.829221,11.505171,6.273113,12.350642
1007.234375,10.816785,6.363424,1.886186,15.923186
1007.238281,9.448947,7.969624,9.708267,3.892374
1007.242188,-0.683277,0.047331,5.284712,5.406192
1007.246094,7.096635,1.394944,6.731782,3.285353
1007.250000,-4.349845,-1.463098,3.214274,-0.826911
1007.253906,-0.196345,-6.095385,-2.437205,2.066657
1007.257812,-1.460083,-9.613472,1.984520,-2.552481
1007.261719,-1.742085,-7.159848,-10.573923,-2.558620
1007.265625,-5.221551,-5.201997,-1.971047,-8.946124
1007.269531,-9.321359,-3.998419,-7.877922,-16.878766
1007.273438,-13.184343,-7.109138,-9.226585,-6.940753
1007.277344,-16.924842,-10.003094,-4.539494,-13.017789
1007.281250,-8.345405,-9.310664,-1.706264,-8.235430
1007.285156,-6.468142,-6.782416,-10.291028,-3.296578
1007.289062,-1.294718,-9.749137,-7.362680,-0.113926
1007.292969,3.739309,-0.490728,0.784349,-1.138729
1007.296875,-8.506703,4.390588,1.511077,5.606457
1007.300781,-9.479292,-2.321102,1.875515,-3.164043
1007.304688,-5.789016,7.785294,2.430114,5.606317
1007.308594,9.051124,4.343185,15.302293,4.167101
1007.312500,9.404281,10.222506,7.392529,8.168363
1007.316406,12.867862,4.513307,9.954881,6.012372
1007.320312,1.145923,15.901630,9.630256,12.627615
1007.324219,4.648238,7.926912,13.741490,5.641762
1007.328125,7.760826,13.014542,7.874190,12.196231
1007.332031,8.176357,12.488312,7.763309,15.141170
1007.335938,8.393717,5.593739,7.327125,10.468495
1007.339844,11.693941,4.099247,8.613763,4.720291
1007.343750,7.334330,2.680861,5.384208,-0.497084
1007.347656,-1.229084,9.114003,0.195997,2.753483
1007.351562,3.409008,-1.379644,-4.438771,-6.246977
1007.355469,-1.833372,-6.462940,1.077685,-5.208326
1007.359375,-2.393162,-7.742456,-0.835350,-1.870255
1007.363281,-8.394751,-4.844101,-5.463081,-16.733643
1007.367188,-12.392274,-15.271875,-7.279192,-11.643803
1007.371094,-8.512447,-5.377312,-8.838155,-15.008829
1007.375000,-9.575127,-12.318556,2.237237,-10.364382
1007.378906,-0.438228,-4.985191,-7.604867,-10.169314
1007.382812,-8.632896,-13.713289,-16.638384,-5.865383
1007.386719,-6.021391,-7.243374,-6.710904,-5.913642
1007.390625,0.184540,-1.744640,-10.143485,-1.947065
1007.394531,-0.293084,-1.685366,-3.742913,6.161086
1007.398438,2.976446,1.663808,-1.512035,6.987480
1007.402344,1.979808,4.841601,0.569105,6.477825
1007.406250,10.191373,1.902982,6.186035,-2.331535
1007.410156,4.309413,7.562210,14.433391,5.903396
1007.414062,4.719021,7.195491,4.808203,6.672265
1007.417969,7.592835,10.155823,11.042924,0.815259
1007.421875,6.270601,15.381515,8.260251,5.085751
1007.425781,10.519828,13.507702,6.387081,6.176139
1007.429688,5.960216,9.176711,14.023179,13.575157
1007.433594,3.817571,15.492473,7.276371,16.030775
1007.437500,4.022429,0.027644,11.983727,4.828135
1007.441406,3.950237,-0.208098,5.640831,4.734830
1007.445312,8.137796,0.385989,5.126772,2.541772
1007.449219,9.978757,3.144030,-3.280980,7.397103
1007.453125,-3.389943,-1.442513,-0.971079,-6.178054
1007.457031,-3.179087,-6.073233,-6.561863,-0.700667
1007.460938,-4.838349,-3.702185,-8.327094,-11.436352
1007.464844,-14.788368,-2.898972,-11.102186,-10.543239
1007.468750,-15.496503,-9.167328,-5.992242,-12.429104
1007.472656,-4.892223,-16.481085,-12.803858,-5.386229
1007.476562,-6.527748,-5.416572,-15.386305,-10.232330
1007.480469,-8.615965,-16.132137,-12.183393,-5.026048
1007.484375,-4.894056,-3.758938,-12.362755,-16.102028
1007.488281,-11.433945,-10.112109,-7.596701,0.007617
1007.492188,-5.757369,-4.162254,-0.741360,-5.431278
1007.496094,-3.607796,-2.710135,-2.424139,-10.338814
1007.500000,0.263861,-1.811896,-1.351166,-2.907510
1007.503906,4.584915,1.979131,2.178578,2.818448
1007.507812,7.445160,8.445031,-0.093160,-0.134154
1007.511719,8.932952,8.265964,7.493059,5.104432
1007.515625,7.671359,12.559326,1.487421,9.089047
1007.519531,12.217970,4.626235,5.491438,12.022652
1007.523438,8.875572,12.211837,-0.528337,11.019816
1007.527344,11.302747,10.929845,12.943336,5.399551
1007.531250,8.072888,8.585527,5.927507,14.692164
1007.535156,10.936834,6.583900,6.980017,1.173950
1007.539062,6.595322,8.616075,6.415403,6.515978
1007.542969,2.828878,6.391053,-4.377891,-5.446986
1007.546875,-2.335484,-7.801421,9.385696,6.537752
1007.550781,0.759410,0.303553,-3.616855,8.805977
1007.554688,1.935327,0.665740,-2.511017,-1.616395
1007.558594,0.405199,-5.014752,-9.047106,2.029948
1007.562500,-9.382551,-9.648929,-6.362211,-11.041527
1007.566406,-0.484517,-0.308004,-7.178438,-7.773534
1007.570312,-10.695785,-3.704390,-10.726318,-2.836662
1007.574219,-10.800811,-4.233275,-17.783536,-8.857925
1007.578125,-17.256141,-13.171484,-7.500790,-11.457781
1007.582031,-10.945840,-11.697429,-5.382250,-6.844632
1007.585938,-6.609122,-6.790732,-13.872335,-8.809085
1007.589844,-1.945460,-6.778653,-0.547303,-6.812945
1007.593750,-8.693446,-1.678713,-7.252637,-3.106078
1007.597656,-0.198271,2.652395,1.356926,-6.814628
1007.601562,7.157227,0.140765,-1.412628,6.682448
1007.605469,0.269283,1.990366,-2.833965,2.168726
1007.609375,1.955860,5.896687,3.277747,5.773598
1007.613281,7.213845,3.134319,4.311635,0.669203
1007.617188,6.538446,6.185996,12.109919,12.758742
1007.621094,11.461667,10.819011,16.428542,13.366973
1007.625000,7.766101,5.202873,9.592346,13.471111
1007.628906,10.991746,3.042611,8.325373,7.414245
1007.632812,5.284422,6.553370,12.797212,11.182726
1007.636719,6.776113,6.739212,15.950373,7.421909
1007.640625,6.318919,6.874442,3.503893,7.703137
1007.644531,4.199530,6.111563,5.645074,13.210058
1007.648438,5.553571,8.074068,3.312663,-3.570219
1007.652344,-7.640027,-0.537101,2.828840,-6.684593
1007.656250,-9.148589,3.488063,1.578195,-4.048175
1007.660156,-4.430601,0.268322,-12.967711,-4.449248
1007.664062,-7.977343,0.769215,-12.099324,-16.025830
1007.667969,-6.135353,-15.949715,-9.363369,-6.073181
1007.671875,-2.186466,-14.261827,-15.007657,-8.437956
1007.675781,-16.094253,-10.223604,-10.602362,-9.050675
1007.679688,-12.160046,-5.963053,-9.485157,-4.826647
1007.683594,-12.235463,-7.980952,-8.112200,-5.351688
1007.687500,-6.530688,-11.037519,-1.095154,-14.592552
1007.691406,-1.957439,-7.628979,-2.146068,-4.437459
1007.695312,0.649489,-4.911732,-9.095335,-5.246477
1007.699219,-3.003827,5.985415,-3.032425,-0.677834
1007.703125,7.842217,8.750159,5.084847,2.690090
1007.707031,7.674327,9.605571,-4.076275,7.066657
1007.710938,0.128909,-0.908761,1.690060,9.862232
1007.714844,7.265968,9.783725,4.386668,4.414896
1007.718750,12.245684,11.794399,14.295567,10.842099
1007.722656,10.631191,8.492270,15.862052,7.398970
1007.726562,13.963631,15.412582,5.781933,13.810644
1007.730469,9.245215,7.858757,9.980896,9.802105
1007.734375,9.148565,6.981333,3.271783,8.710206
1007.738281,2.942528,15.315302,3.768730,9.539953
1007.742188,4.275874,4.366233,-2.255564,2.479257
1007.746094,8.384785,3.058194,2.786042,-0.971155
1007.750000,3.095478,-3.465491,0.096956,7.516226
1007.753906,-10.213161,2.168457,2.402719,-3.829346
1007.757812,-6.528250,-6.338048,-12.328828,-9.021931
1007.761719,-9.268675,-3.628597,-9.797975,-7.479433
1007.765625,-13.327316,-6.141575,-9.605608,-4.752747
1007.769531,-7.047922,-13.315408,-10.619952,-10.160252
1007.773438,-10.404978,-13.543570,-4.775347,-9.133308
1007.777344,-13.504765,-14.900444,-8.828534,-14.701692
1007.781250,-7.220040,-9.742414,-5.986898,-10.820082
1007.785156,-1.176974,-1.792271,-7.126490,-12.669411
1007.789062,2.037830,-9.354901,-7.306265,-9.644475
1007.792969,-12.259796,-5.160094,-9.245291,-1.171621
1007.796875,-3.664171,7.824407,-2.479247,5.900881
1007.800781,0.786075,5.055785,2.560844,1.135974
1007.804688,3.948626,2.308947,-1.496465,3.650566
1007.808594,2.615778,2.528355,0.625421,-1.533203
1007.812500,5.391847,17.744490,7.773493,6.801590
1007.816406,4.154159,2.740525,6.938842,7.145622
1007.820312,16.515495,10.603974,5.962171,18.687527
1007.824219,-0.857678,14.878211,10.037278,11.372068
1007.828125,11.994937,12.595717,7.294323,7.837633
1007.832031,10.426960,11.316673,5.491737,6.108186
1007.835938,6.188718,14.453693,11.440245,13.927222
1007.839844,1.901150,7.893651,6.589885,10.133703
1007.843750,-2.967530,8.592114,6.810388,4.330699
1007.847656,-0.904393,4.387745,-1.177121,-0.329871
1007.851562,-2.195731,-2.463455,-0.565542,-8.761372
1007.855469,0.364880,-0.064926,1.185647,-3.127035
1007.859375,-3.691238,-12.406368,-3.353087,-4.186684
1007.863281,-10.639868,-1.016692,-13.141126,-19.395544
1007.867188,-8.015711,-9.426744,-11.691937,-8.775469
1007.871094,-5.213042,-8.702624,-8.044145,-12.368445
1007.875000,-11.553414,-3.485153,-3.950988,-5.879067
1007.878906,-9.892301,-8.497204,-13.408106,-9.508253
1007.882812,-7.142273,-5.153717,-8.167127,-12.027125
1007.886719,-0.733349,-3.254065,-4.138024,-4.979273
1007.890625,-9.706314,-3.836444,1.017238,-1.712990
1007.894531,-9.690803,-4.373898,-5.073768,-0.358869
1007.898438,4.945432,-10.112584,-5.234125,1.320119
1007.902344,0.717905,8.714934,9.307091,0.919756
1007.906250,4.393929,-0.483014,-4.686367,13.225986
1007.910156,3.000888,2.665260,12.052928,10.936212
1007.914062,6.888032,5.646697,2.747103,9.264091
1007.917969,9.965856,4.654423,5.654745,5.235391
1007.921875,4.348358,8.301018,16.160014,9.561086
1007.925781,18.321514,6.140806,4.127662,6.617977
1007.929688,7.225805,-0.587815,9.886034,7.554617
1007.933594,11.509538,3.251271,5.983170,3.035226
1007.937500,5.653160,2.499328,7.233951,7.682408
1007.941406,2.735771,-0.281806,4.865645,3.572318
1007.945312,2.216275,1.778093,4.297321,1.032459
1007.949219,-2.441981,4.764512,-4.449776,5.171075
1007.953125,-4.529333,-3.705069,-5.810288,-1.756698
1007.957031,-8.552314,-9.730678,2.250907,0.423019
1007.960938,-4.641262,-3.963475,-16.615064,-4.346150
1007.964844,-7.704731,-10.469599,-6.742494,-8.108512
1007.968750,-8.657806,-8.828767,-16.129272,-12.915739
1007.972656,-21.181814,-10.028940,-7.769387,-14.272384
1007.976562,-8.985446,-12.483883,-5.059259,-6.548280
1007.980469,-9.318975,3.810979,-9.616364,-8.588934
1007.984375,-10.593819,-10.697212,-6.242117,-6.309726
1007.988281,-2.063673,-0.672737,-10.468315,-9.829610
1007.992188,-4.418159,-6.364085,-6.156783,-5.551838
1007.996094,-4.662491,-4.145744,0.546553,-3.791964
1008.000000,1.990270,3.851853,3.210777,-3.721840
1008.003906,-0.167863,-6.675245,-3.778727,-3.861966
1008.007812,2.739208,9.456043,3.431238,0.809388
1008.011719,8.575043,11.701694,13.243683,12.123185
1008.015625,8.057807,14.170416,12.862722,12.488050
1008.019531,11.826845,8.812877,11.572635,11.403638
1008.023438,5.957797,14.161353,5.776053,15.914701
1008.027344,0.391834,7.389317,8.112924,9.001369
1008.031250,16.364999,18.064610,11.473765,8.877839
1008.035156,9.614191,5.448034,11.016755,2.348210
1008.039062,8.441578,5.289784,12.773791,2.645942
1008.042969,3.570925,0.936121,4.910593,4.797087
1008.046875,2.545111,1.959795,7.096099,4.191454
1008.050781,0.813107,-5.123045,2.347643,-7.583980
1008.054688,4.721921,-7.138154,5.592823,-1.072639
1008.058594,-8.186900,-4.729177,-4.173253,-5.598856
1008.062500,-8.988379,-3.255671,-8.252077,-7.350072
1008.066406,-10.284816,-10.810571,-8.867327,-13.882456
1008.070312,-10.914190,-10.335287,-4.056754,-8.750383
1008.074219,-13.986456,-2.246699,-9.992639,-9.552129
1008.078125,-13.846237,-17.038459,-3.260813,-13.585359
1008.082031,-14.233338,-4.565169,-11.228717,-6.045899
1008.085938,-3.316421,-4.365845,2.077206,-6.578492
1008.089844,-2.950726,-9.389236,-4.092364,-4.798828
1008.093750,-4.621009,-9.095719,2.538592,-3.561200
1008.097656,-8.623868,-1.511776,-1.466178,-6.126833
1008.101562,0.191198,-3.386149,-3.437029,-7.251692
1008.105469,-1.229305,2.235970,0.849050,6.639854
1008.109375,9.535812,2.895369,6.916975,0.960399
1008.113281,5.193722,5.564202,3.977171,3.056467
1008.117188,7.743469,14.632053,8.447589,12.454081
1008.121094,4.910868,4.162139,10.812499,3.033599
1008.125000,10.429179,8.427215,6.308666,11.021123
1008.128906,7.608743,17.115830,13.115509,6.390043
1008.132812,3.769671,3.907972,7.582175,4.020192
1008.136719,3.815766,-1.393964,10.395487,11.412783
1008.140625,-1.123654,3.904006,1.719857,6.113063
1008.144531,-2.611197,8.889736,0.534304,-2.631717
1008.148438,-0.672847,4.507996,-3.580439,0.604685
1008.152344,1.540062,1.903700,-5.248054,-2.106875
1008.156250,2.021364,-2.874374,1.660814,-1.796875
1008.160156,-8.588122,-3.374760,-9.968189,-7.411659
1008.164062,-6.874791,-8.087609,-9.238077,-10.907161
1008.167969,-10.068059,-11.801905,-7.383529,-7.820456
1008.171875,-10.425811,-12.991763,-5.182760,-9.815928
1008.175781,-10.593767,-17.829450,-7.486828,-6.365464
1008.179688,-14.722293,-7.014325,-8.037422,-10.477050
1008.183594,-9.995259,-9.765642,-8.190785,-5.538312
1008.187500,-6.068970,-6.665819,-4.945913,-8.338891
1008.191406,-4.956443,-6.795306,1.693144,-7.082286
1008.195312,-4.520048,-1.394599,-7.450421,-2.370496
1008.199219,1.242291,2.192623,-0.875088,-0.147608
1008.203125,2.260112,1.257896,9.665803,0.334619
1008.207031,-0.965766,1.975437,2.230001,7.534170
1008.210938,3.371458,3.281778,6.376132,7.609231
1008.214844,7.916721,12.703167,4.561601,5.892000
1008.218750,13.310083,12.056146,11.225800,15.715211
1008.222656,10.856429,8.927793,6.295569,20.785172
1008.226562,4.156391,9.259077,14.229465,13.062613
1008.230469,10.776180,9.414393,4.233131,4.188763
1008.234375,5.251929,3.079567,7.036853,9.376289
1008.238281,5.987408,10.577262,9.958566,13.520563
1008.242188,0.899343,9.784805,-1.851618,0.920969
1008.246094,10.169075,-1.017551,7.261884,3.529712
1008.250000,3.115368,1.664196,0.831742,-4.513297
1008.253906,-1.319166,-4.796273,-1.833813,-5.004969
1008.257812,1.359911,-10.118596,-3.144488,-1.137911
1008.261719,-5.000357,-5.085150,-7.116977,-4.177398
1008.265625,-12.991661,-7.888242,-15.142102,-6.079681
1008.269531,-7.607381,-21.449389,-12.711720,-10.448582
1008.273438,-18.139401,-9.038116,-5.539941,-10.515816
1008.277344,-8.322081,-0.195341,-7.288661,-10.802342
1008.281250,-6.943792,-4.232287,-12.682444,-11.130155
1008.285156,-7.398126,-13.960648,-8.125377,-11.110287
1008.289062,-9.512135,-10.647537,-1.949061,-4.244812
1008.292969,-7.397557,-8.449841,-3.953052,-5.701898
1008.296875,-10.511156,-5.897112,1.014931,1.421872
1008.300781,1.394819,-0.167037,-0.161367,4.219389
1008.304688,6.244036,1.337023,-4.598888,2.241755
1008.308594,7.209643,-0.082870,7.502154,4.804065
1008.312500,10.063751,1.039425,10.511846,4.489311
1008.316406,6.710743,5.218548,8.295738,13.084118
1008.320312,2.303194,10.823991,8.956179,7.465822
1008.324219,10.462854,14.910617,12.571681,2.658764
1008.328125,12.541167,17.311663,8.433529,7.976103
1008.332031,10.028252,3.821195,5.513492,18.222517
1008.335938,15.366138,2.920500,18.738859,10.222537
1008.339844,0.266328,4.401168,10.828098,6.601717
1008.343750,2.280114,5.808260,2.564936,3.896007
1008.347656,3.612692,5.572017,-3.647706,6.710438
1008.351562,2.300351,-5.883881,2.872309,-3.291033
1008.355469,-6.731814,-6.693728,-11.300774,-0.661581
1008.359375,-0.364224,0.781891,-15.217464,-11.846550
1008.363281,-3.480006,-0.395480,-2.582312,-4.117245
1008.367188,-11.409044,-21.420085,-11.013974,-12.761621
1008.371094,-8.052333,-6.104641,-10.672723,-8.841031
1008.375000,-11.329791,-8.261117,-12.330706,-11.665141
1008.378906,-8.450554,-15.117756,-12.498823,-9.998586
1008.382812,-10.418564,-10.205638,-6.416492,-9.587875
1008.386719,-5.974834,-3.991858,-7.745850,-12.495513
1008.390625,-4.708930,-5.754662,0.287227,-10.406184
1008.394531,-1.284338,-1.714125,-7.236942,2.959240
1008.398438,1.210802,-4.194664,0.573239,-0.468697
1008.402344,2.252965,3.261523,-3.454249,2.475216
1008.406250,2.168941,9.816124,5.744122,-0.907359
1008.410156,8.096120,6.017715,6.115235,7.961298
1008.414062,5.504559,5.912798,17.053135,9.696140
1008.417969,13.859875,3.964530,11.906616,6.387126
1008.421875,7.513527,10.125652,5.886698,4.293119
1008.425781,11.305608,3.764110,11.153599,18.938277
1008.429688,13.829396,13.694222,8.931713,15.623919
1008.433594,2.487077,7.048562,7.741326,10.281281
1008.437500,10.158554,6.114913,2.393013,4.775520
1008.441406,10.145955,8.694018,11.324751,2.589883
1008.445312,3.620663,2.036730,-1.028270,6.766553
1008.449219,-0.698032,-6.590210,1.499761,-3.893827
1008.453125,-5.246361,0.396239,-1.312504,-2.384578
1008.457031,-6.304367,-0.499615,-2.325053,-12.296013
1008.460938,-4.661673,-6.944570,-7.618087,-4.509835
1008.464844,-6.572870,-1.870632,-8.999434,-6.119496
1008.468750,-15.146567,-15.952894,-4.589615,-5.401180
1008.472656,-9.680316,-18.327993,-17.546961,-14.282545
1008.476562,0.459011,-9.480324,-13.763640,-16.259832
1008.480469,-5.309918,-17.441285,-9.355353,-11.357424
1008.484375,-12.751593,-8.108521,-10.451513,-2.965577
1008.488281,-4.899756,-5.895702,-14.730468,0.846512
1008.492188,-1.624119,-5.830581,-3.401684,-9.136453
1008.496094,-3.833039,-4.765756,2.849265,-2.713705
1008.500000,4.272503,1.249869,1.722834,-6.404295
1008.503906,1.845090,9.192491,4.433391,2.177551
1008.507812,6.967457,2.294476,10.569714,14.733463
1008.511719,2.934055,7.781508,7.257029,10.405751
1008.515625,7.921303,2.606830,10.140004,10.507271
1008.519531,13.749422,9.148903,10.261834,10.860862
1008.523438,14.132321,16.444598,9.291960,11.775214
1008.527344,17.498406,5.717140,15.141764,17.336609
1008.531250,10.417358,14.041157,17.563080,5.986059
1008.535156,3.154530,3.182517,5.614503,9.385317
1008.539062,4.326499,7.110956,5.398648,3.658470
1008.542969,8.576840,2.797792,4.135536,11.269771
1008.546875,8.111350,-0.175713,9.567170,-0.460802
1008.550781,1.911645,4.186824,4.997161,0.215833
1008.554688,-7.933575,-5.814009,-1.591584,-6.203628
1008.558594,-8.793151,1.746202,-5.951647,-1.715925
1008.562500,-14.139443,-0.990294,-1.106375,-14.708436
1008.566406,-8.121934,-4.008048,-11.328656,-3.893755
1008.570312,-8.120166,-11.601986,-5.923038,-11.334007
1008.574219,-12.357517,-4.132109,-7.526254,-9.717826
1008.578125,-9.577677,-7.521068,-12.332209,-11.985391
1008.582031,-9.443027,-8.792342,-17.845587,-13.862004
1008.585938,-6.924016,-7.152764,-4.707180,-8.064357
1008.589844,-4.720670,-1.952691,3.440017,-7.251467
1008.593750,-1.452845,-5.787624,-4.151706,-4.513972
1008.597656,2.882285,4.937441,0.953522,-2.137752
1008.601562,7.811393,1.966074,-4.013622,-5.324439
1008.605469,0.168320,8.186345,6.063267,0.287545
1008.609375,5.044240,5.603782,1.042484,11.532011
1008.613281,6.409714,2.874173,6.746310,10.635053
1008.617188,10.558756,5.162482,9.523376,2.314294
1008.621094,11.412197,6.775328,11.607269,11.618685
1008.625000,11.043331,12.367038,8.635146,15.327038
1008.628906,9.961664,15.158392,3.671551,10.878232
1008.632812,-0.227283,4.982035,12.974622,8.809326
1008.636719,14.379670,12.171805,0.914696,8.066514
1008.640625,5.279325,6.518974,3.303149,2.388666
1008.644531,4.225352,12.131639,5.630545,-13.081461
1008.648438,-2.223287,1.507175,10.462617,2.642657
1008.652344,-3.871065,-2.573419,-9.313504,-1.072923
1008.656250,2.632507,-6.977909,-0.977339,-4.010953
1008.660156,-7.504318,-1.048873,-8.092432,-6.865196
1008.664062,-7.880137,-3.333921,-3.176763,-8.020641
1008.667969,-5.208650,-4.518469,-6.633101,-9.166216
1008.671875,-10.366468,-3.160266,-7.301272,-10.647991
1008.675781,-10.488401,-9.042415,-11.235207,-8.733644
1008.679688,-5.809963,-7.234735,-10.830864,-14.312169
1008.683594,-14.829304,-3.885751,-4.016403,-4.559670
1008.687500,-7.219666,-1.281123,-13.765660,-1.465463
1008.691406,5.675391,-12.408062,-4.067161,-3.545223
1008.695312,-5.166349,-8.852450,-5.185551,8.125445
1008.699219,-4.970784,-4.868857,-6.067445,-4.148256
1008.703125,-0.245277,0.360898,6.623761,0.808500
1008.707031,3.452944,2.053445,0.135659,4.933294
1008.710938,7.545564,3.510525,4.882031,7.876479
1008.714844,6.471245,7.726591,5.335694,11.135438
1008.718750,15.516596,5.445416,2.752081,9.615165
1008.722656,4.088183,7.650841,11.069035,9.275436
1008.726562,10.003571,17.148721,6.995948,14.417487
1008.730469,8.215958,10.280163,8.800580,20.320908
1008.734375,7.704085,10.175268,4.928555,4.888716
1008.738281,3.806104,8.781941,6.131702,7.768324
1008.742188,5.194312,3.150846,4.878153,1.353806
1008.746094,5.481126,1.496783,-0.139222,-0.350206
1008.750000,5.511106,2.529750,4.737967,-1.545848
1008.753906,0.319797,-2.388432,-5.774285,8.287621
1008.757812,-3.530592,-5.698782,-3.129325,-1.638846
1008.761719,-1.273879,-4.627878,-0.405237,-2.749930
1008.765625,-11.861877,-1.305135,-11.671787,-3.786889
1008.769531,-7.139441,-11.081785,-12.240507,-11.673452
1008.773438,-22.596359,-2.398828,-12.135353,-6.322934
1008.777344,-14.506702,-11.423895,-14.204104,-10.321126
1008.781250,-11.639485,-7.399442,-13.899263,-10.941736
1008.785156,-9.908944,-7.303221,-9.347460,-6.915076
1008.789062,-10.538624,-7.202012,-13.962641,-9.033385
1008.792969,-4.727397,-1.558998,-3.645966,-4.996106
1008.796875,-0.307776,2.413045,1.140896,1.841555
1008.800781,2.720746,-5.126634,-0.022841,-4.827376
1008.804688,5.802944,1.842554,1.590066,2.594411
1008.808594,9.512715,0.790181,2.123687,11.726656
1008.812500,6.193885,4.599003,8.710580,1.378245
1008.816406,0.780551,9.828639,6.176755,4.236302
1008.820312,11.488987,6.139521,7.673309,10.819721
1008.824219,14.199206,13.793880,8.004003,9.862707
1008.828125,3.483851,14.474886,5.416627,7.293871
1008.832031,12.368265,8.609908,13.449157,8.073257
1008.835938,6.498403,9.580281,10.899012,8.627790
1008.839844,10.693977,4.346114,5.850456,0.305597
1008.843750,4.888161,5.958428,11.566668,0.944106
1008.847656,0.452093,1.171581,10.217321,2.118303
1008.851562,-0.825624,-5.530509,-7.037136,-0.808507
1008.855469,-2.967801,-0.214894,-4.699912,-5.448137
1008.859375,-0.035982,-2.190741,-3.537470,-1.453440
1008.863281,-6.794452,-4.420565,-7.775508,-9.586823
1008.867188,-10.010142,-5.339837,-10.275345,-8.695742
1008.871094,-5.587234,-11.667103,-23.856369,-15.669424
1008.875000,-12.008528,-9.528814,-5.262059,-9.255222
1008.878906,-16.806075,-13.071298,-11.299320,-10.653202
1008.882812,-10.147959,-13.254821,-14.606036,-12.425004
1008.886719,-5.237354,0.403582,-13.659466,-10.345807
1008.890625,-5.244993,-7.218139,-3.689505,-2.412570
1008.894531,-5.632534,-2.763147,2.082979,3.509751
1008.898438,-0.313905,-0.781321,-5.644636,-0.306621
1008.902344,5.837777,8.261743,1.322018,-0.871681
1008.906250,5.757153,4.279833,4.746272,2.180557
1008.910156,2.479523,9.105755,6.131823,-0.951716
1008.914062,7.811759,8.733471,8.055337,1.133264
1008.917969,11.876225,-2.968900,4.328784,11.490501
1008.921875,12.883430,8.257103,13.077790,11.282304
1008.925781,9.199008,6.943573,6.520991,9.916452
1008.929688,12.036166,4.233979,15.180321,11.247147
1008.933594,6.099386,4.549246,4.893545,7.281247
1008.937500,2.160670,8.317316,10.145187,8.764555
1008.941406,10.504111,3.422080,5.242886,2.768749
1008.945312,3.849381,10.575810,5.957352,0.298130
1008.949219,-0.407545,4.285980,8.809380,4.367213
1008.953125,-0.649040,2.633697,0.446703,6.721074
1008.957031,-7.392603,0.050373,-3.817674,-12.050155
1008.960938,-1.785267,-4.207396,-4.995957,-8.080110
1008.964844,-4.858114,-9.222654,-7.099912,-11.754977
1008.968750,-12.601926,1.446539,-7.455034,-5.123850
1008.972656,-12.971623,-9.112024,-12.949170,-8.824919
1008.976562,-13.328348,-9.254808,-11.913915,-12.286278
1008.980469,-11.350999,-6.517140,-10.607535,-11.362251
1008.984375,-8.848724,-2.803945,-11.025125,-13.969321
1008.988281,-4.541308,-6.535464,-7.608772,-2.972241
1008.992188,-7.061019,-3.822883,-1.912313,-1.327306
1008.996094,3.031077,2.505292,-10.528884,3.010569
1009.000000,-4.595225,2.792536,3.165473,1.277164
1009.003906,-1.045935,-1.733526,6.839443,-2.399706
1009.007812,5.860814,4.608319,6.097656,-0.876748
1009.011719,10.695906,6.631423,5.922958,7.217765
1009.015625,9.379805,9.777743,7.451110,4.838055
1009.019531,8.144110,6.720828,9.104795,9.075403
1009.023438,12.497587,13.148236,10.935395,11.802676
1009.027344,8.603023,8.572073,12.125599,7.674475
1009.031250,13.055552,11.246689,9.570303,12.144723
1009.035156,11.820001,7.389551,3.995804,12.689031
1009.039062,9.287822,0.425880,3.049415,3.719419
1009.042969,2.376000,2.477335,4.903804,6.119418
1009.046875,3.225688,-0.820696,4.694544,6.560371
1009.050781,-2.357648,5.698797,1.950969,-5.155505
1009.054688,-5.044989,-4.611971,-6.899551,1.912498
1009.058594,-2.892546,0.728977,-4.427674,-7.517232
1009.062500,-7.604642,-6.966103,-4.876864,-13.413332
1009.066406,-8.258530,-9.601669,-13.680643,-6.379184
1009.070312,-14.598168,-9.189133,-10.416613,3.339400
1009.074219,-12.431127,-13.658054,-5.188510,-2.143788
1009.078125,-8.375919,-7.887021,-11.171985,-9.485263
1009.082031,-11.674788,-2.544586,-3.912966,-12.696617
1009.085938,-11.573476,-9.706540,-7.038190,-4.201301
1009.089844,-5.236174,-4.145919,-2.707552,-7.170833
1009.093750,-14.420097,-6.500621,-6.558560,12.227837
1009.097656,2.386370,-1.232692,-2.203412,-4.334145
1009.101562,1.547923,-1.389481,3.694664,-3.513776
1009.105469,7.711719,14.348141,-1.621469,4.277455
1009.109375,10.969279,3.400715,2.039456,-0.978046
1009.113281,5.414889,6.771442,3.257984,1.308667
1009.117188,2.886512,14.986461,2.417478,12.491709
1009.121094,12.642317,7.479159,11.177992,4.053254
1009.125000,3.277376,11.687695,8.519176,13.978406
1009.128906,12.260608,11.075882,13.009720,10.312094
1009.132812,5.889741,10.557040,7.382112,14.679285
1009.136719,12.325485,6.440617,8.514284,4.566064
1009.140625,12.947424,4.874263,0.521881,9.027088
1009.144531,0.749208,6.133125,5.744895,-0.218132
1009.148438,-8.422872,3.637706,6.643449,-5.853753
1009.152344,-0.192260,0.762328,5.033884,-0.482359
1009.156250,4.189065,2.339860,-6.544008,-6.067699
1009.160156,-7.413753,-4.037004,-5.462391,-4.776183
1009.164062,-9.450214,-13.163137,-4.717160,-6.367096
1009.167969,-3.650521,-2.816393,-9.243140,-12.182160
1009.171875,-11.117536,-10.715500,-16.056842,-12.412749
1009.175781,-5.757065,-9.381522,-13.518080,-15.147383
1009.179688,-16.541769,-11.705211,-13.043905,-13.015100
1009.183594,-1.886758,-9.966698,-15.660644,-11.003245
1009.187500,-2.012392,-2.423293,-1.763730,-5.424938
1009.191406,-4.488477,3.030072,-5.918296,-4.916908
