timestamp,TP9,AF7,AF8,TP10
1000.000000,-2.043755,-3.882864,-4.828933,2.794842
1000.003906,5.368357,-0.766058,-6.647619,0.477259
1000.007812,4.773233,6.861294,2.996442,-1.065706
1000.011719,6.526674,4.590392,4.437048,1.757269
1000.015625,12.184831,8.407945,5.813581,7.590247
1000.019531,6.817080,3.998878,9.538232,10.469475
1000.023438,20.338654,14.162797,9.218002,11.723310
1000.027344,14.106098,6.591213,11.792062,9.224998
1000.031250,11.958372,5.876965,9.391597,11.118331
1000.035156,10.764283,4.005628,16.129022,-0.561622
1000.039062,4.580638,1.564835,-0.663058,6.467966
1000.042969,13.924621,-0.119151,9.707147,-1.446051
1000.046875,-6.807139,-2.309292,-2.760307,-0.853565
1000.050781,-3.774397,-3.464410,8.553708,1.206007
1000.054688,-3.398099,-0.044213,0.506301,4.001986
1000.058594,-0.797963,-6.852742,-9.577589,-3.231211
1000.062500,-15.898873,-10.832576,-4.675140,-8.501351
1000.066406,-4.341799,-9.195192,-6.643425,-8.580198
1000.070312,-5.655205,-10.831060,-5.896051,-10.168725
1000.074219,-11.273020,-17.740824,-6.821326,-14.162945
1000.078125,-12.300192,-7.798872,-7.999709,-18.266066
1000.082031,-17.715954,-13.119081,-7.419223,-6.881836
1000.085938,-8.715524,-7.848198,-2.074876,-10.430220
1000.089844,-14.592381,-7.192019,-7.321818,-8.621047
1000.093750,-1.015540,-5.108728,-5.338433,-14.518623
1000.097656,4.236963,-9.270669,-0.255075,-2.988666
1000.101562,0.659356,3.567005,-2.553950,7.017831
1000.105469,-4.108811,-0.033664,4.858104,-0.725334
1000.109375,7.341853,5.358743,2.786015,8.912051
1000.113281,2.776315,11.336608,0.939013,4.421841
1000.117188,10.152716,7.761705,8.225206,12.993394
1000.121094,11.815563,9.458914,9.288478,5.325967
1000.125000,16.579905,13.771531,11.824140,8.957321
1000.128906,7.792896,9.671304,9.027384,8.284111
1000.132812,6.040684,13.274324,9.775296,7.858440
1000.136719,9.780719,10.817810,0.668215,8.121086
1000.140625,3.343140,-1.785172,2.529262,4.710122
1000.144531,-0.765334,1.715874,3.377273,0.427777
1000.148438,-2.713361,4.222317,3.458464,-3.620595
1000.152344,5.523403,7.088584,6.285590,-5.941875
1000.156250,-3.388577,-9.485820,-0.634414,-7.499641
1000.160156,-4.504778,-11.070059,-4.317210,-2.600512
1000.164062,-11.974418,-5.105380,-6.151429,-8.805035
1000.167969,-12.581246,-5.428511,-6.264054,-13.540752
1000.171875,-6.412924,-9.167487,-10.100170,-5.793263
1000.175781,-8.960233,-5.924658,-15.874439,-9.328413
1000.179688,-7.268746,-11.896434,-13.179125,-9.372925
1000.183594,-8.087444,-8.092230,-12.649182,-9.672625
1000.187500,-2.175181,-1.461251,-3.568041,-3.269895
1000.191406,0.301161,-6.002768,-12.510837,-3.701387
1000.195312,0.466711,-12.749146,-1.286944,-10.509751
1000.199219,-7.177818,1.183680,-1.790943,-0.908822
1000.203125,1.382396,-0.454529,-0.535628,1.357598
1000.207031,0.443255,7.818010,2.782371,-0.703133
1000.210938,4.615688,8.389442,6.382869,5.606846
1000.214844,10.337241,5.393543,9.717036,12.851127
1000.218750,6.767534,16.394539,11.747285,7.303139
1000.222656,7.828604,9.817123,12.870948,6.186582
1000.226562,6.123904,9.389505,6.401997,8.867440
1000.230469,14.684808,3.277012,6.759398,16.489167
1000.234375,1.706619,16.081625,5.808211,7.185713
1000.238281,4.056443,6.848675,7.763609,11.071754
1000.242188,4.188712,5.973783,5.991847,11.586142
1000.246094,2.952361,5.604199,2.976822,5.055291
1000.250000,-4.135047,-5.349203,-2.216044,-0.129446
1000.253906,3.736692,-3.461191,-2.961606,-3.153112
1000.257812,-7.096139,-9.001851,-2.977112,-2.829997
1000.261719,-6.159959,-10.396712,-4.758929,-7.802555
1000.265625,-4.593153,-9.029239,-3.141458,-11.412222
1000.269531,-3.467893,-7.469880,-6.364135,1.801025
1000.273438,-3.117384,-11.409530,-7.898792,-6.786218
1000.277344,-11.592711,-8.347766,-8.559967,-12.390225
1000.281250,-14.220018,-9.383546,-9.978014,-12.172488
1000.285156,-4.597135,-13.258607,-9.653610,-15.733149
1000.289062,-8.591716,1.198190,-14.942757,-4.024214
1000.292969,-7.425356,-9.581675,-3.546525,-4.862484
1000.296875,-2.341390,-4.904354,-4.832490,-0.714639
1000.300781,1.658615,3.075465,0.573647,2.924792
1000.304688,-4.984208,6.697882,4.720646,4.554623
1000.308594,-0.154346,9.968985,4.816451,1.735341
1000.312500,9.187807,4.663148,4.194007,4.897977
1000.316406,8.406795,4.166866,4.845923,9.106252
1000.320312,7.528919,6.549452,21.484135,11.073245
1000.324219,6.739367,14.267408,11.020668,1.520881
1000.328125,13.000402,6.060429,14.638626,9.396896
1000.332031,15.211451,12.643378,12.895833,12.040226
1000.335938,9.882323,5.053832,14.137966,3.079468
1000.339844,-4.253541,5.964079,4.624871,11.208432
1000.343750,5.887075,5.226413,3.138445,8.476999
1000.347656,2.292203,1.485689,2.988591,-3.750937
1000.351562,5.510711,1.248991,2.557985,0.861621
1000.355469,1.356460,-7.727291,-2.498429,-4.306736
1000.359375,-7.391257,-7.842551,-10.901794,-8.602034
1000.363281,-10.182281,-7.983922,-1.764087,-7.817949
1000.367188,-5.115720,-6.211228,-11.436647,-10.964174
1000.371094,-13.452332,-9.014475,-14.806483,-12.452345
1000.375000,-11.493406,-8.020427,-12.454325,-15.578572
1000.378906,-12.360016,-7.179487,-10.359137,-10.373481
1000.382812,-6.244710,-7.135622,-11.051094,-12.548170
1000.386719,-6.423613,-8.616945,-12.948616,-11.480442
1000.390625,-7.051984,-9.699886,-0.484752,-3.489849
1000.394531,-5.171838,-7.194618,2.279600,-5.823612
1000.398438,-3.101464,-0.634223,0.890866,4.084522
1000.402344,1.977530,3.544272,-0.668840,-2.254225
1000.406250,8.567224,5.533357,0.475454,6.736290
1000.410156,-0.971725,4.598626,11.693830,7.419797
1000.414062,15.897115,5.072904,6.620467,7.794879
1000.417969,10.294016,5.829259,14.295072,10.730511
1000.421875,7.351639,11.952038,14.158412,6.015690
1000.425781,10.406181,16.582499,7.806696,10.321567
1000.429688,11.194468,12.305853,7.884810,9.215604
1000.433594,13.755100,7.102898,14.667741,9.942922
1000.437500,5.165085,1.047822,11.843710,0.877950
1000.441406,1.913991,14.530954,12.604406,7.903874
1000.445312,-3.195171,3.215090,-2.862866,12.485893
1000.449219,0.248328,3.708389,-3.765288,5.141979
1000.453125,-1.954405,-5.063641,-5.086496,2.250752
1000.457031,-2.871817,-6.303165,-1.905744,-10.662721
1000.460938,1.228217,-13.732098,-2.208262,0.916716
1000.464844,-9.262840,-7.122174,-9.756623,-13.525371
1000.468750,-7.576582,-8.688723,-16.385839,-12.017444
1000.472656,-7.581703,-4.792864,-2.828214,-3.485996
1000.476562,-5.567148,-14.043061,-13.914163,-14.111329
1000.480469,-10.378649,-5.932356,-6.570570,-11.419769
1000.484375,-5.283343,-22.675906,-7.394535,-2.686464
1000.488281,-2.291297,-0.266931,-9.504122,-4.997911
1000.492188,-4.488109,-3.300006,-1.542286,-7.449526
1000.496094,-0.195490,-3.491329,-3.393766,-4.859251
1000.500000,-0.620093,-0.961698,3.467550,-3.567327
1000.503906,-4.702378,9.005081,-1.597343,5.285395
1000.507812,3.619366,8.357380,1.582223,0.664391
1000.511719,10.880178,6.465111,3.877918,5.094559
1000.515625,4.211697,9.677176,16.762894,12.599293
1000.519531,7.206129,10.928139,13.164092,5.288181
1000.523438,9.256863,5.936529,8.565340,10.681351
1000.527344,6.429285,11.885443,8.243108,13.203620
1000.531250,11.405455,9.800626,4.248053,12.877949
1000.535156,7.906794,10.179329,8.880827,14.030780
1000.539062,7.229501,4.194902,7.886794,1.761993
1000.542969,1.269659,-2.081454,0.458814,13.162266
1000.546875,5.356097,2.113027,0.794147,-7.280708
1000.550781,1.689484,4.057180,8.820239,-3.415173
1000.554688,-1.492097,-7.823926,-6.973544,-3.235969
1000.558594,-4.370494,2.779209,-11.480324,-1.726583
1000.562500,-5.705711,-6.336607,-11.654014,-8.378282
1000.566406,-9.156508,-5.543054,-13.441232,-8.347252
1000.570312,-3.856826,-13.553673,-13.864648,-7.748816
1000.574219,-9.718447,-10.805168,-15.231040,-11.476966
1000.578125,-15.702020,-7.564019,-8.900338,-9.950289
1000.582031,-5.021914,-11.622393,-4.698770,-0.101023
1000.585938,-8.444755,-7.001715,-5.486281,-6.187891
1000.589844,-10.834097,-4.635969,-0.134594,-4.881347
1000.593750,-9.162160,-2.842575,-7.757046,-2.040199
1000.597656,-0.935558,-0.281098,-3.499910,-0.492874
1000.601562,8.407517,-4.212378,-0.483861,4.377422
1000.605469,-3.805398,-3.231759,3.964599,8.226413
1000.609375,8.171502,10.670271,6.639994,10.938249
1000.613281,11.290693,-0.547711,7.480796,8.059578
1000.617188,16.633863,7.567215,2.060476,3.770346
1000.621094,9.144330,10.028150,11.285440,8.987326
1000.625000,8.426304,8.698584,2.355654,10.514158
1000.628906,11.209874,8.134728,2.697494,18.977684
1000.632812,7.649015,10.045170,11.272632,8.090663
1000.636719,14.030123,11.200561,1.721353,13.842593
1000.640625,1.037482,6.786439,3.549414,12.637015
1000.644531,3.325669,6.765010,5.299292,1.913881
1000.648438,-0.622632,-4.616782,-3.650201,2.087775
1000.652344,-6.451779,-1.605053,-0.073518,-0.920899
1000.656250,0.011857,-3.276635,2.227974,-14.515417
1000.660156,-9.874603,-1.206928,0.067567,-8.488815
1000.664062,-10.576268,-12.598060,-3.815689,-7.052947
1000.667969,-12.434635,-12.642903,-8.476340,-8.401414
1000.671875,-15.697644,-9.426006,-7.435880,-7.578441
1000.675781,-15.287169,-11.814596,-8.191459,-6.628019
1000.679688,-10.635258,-8.306637,-6.317086,-4.995203
1000.683594,-10.081901,1.252354,-12.116975,-3.279043
1000.687500,-7.668509,-8.267283,-6.067870,-4.542637
1000.691406,-2.300648,-6.863330,-1.222269,-10.823480
1000.695312,-1.284184,-0.223995,-0.685609,-4.675658
1000.699219,-1.809482,-2.013332,2.098203,-1.698635
1000.703125,-10.359867,3.219119,5.668470,7.121875
1000.707031,3.264119,5.570215,6.032803,6.582453
1000.710938,8.854861,4.530111,5.233925,7.772541
1000.714844,5.445458,8.297821,17.181151,10.894508
1000.718750,7.583587,7.745901,11.032253,6.005907
1000.722656,16.398087,16.112448,15.635876,7.335027
1000.726562,9.358460,7.562137,8.463413,5.634342
1000.730469,10.255354,8.052782,6.604394,7.346066
1000.734375,14.026981,-0.595560,6.818822,16.079953
1000.738281,10.114247,6.740723,6.231513,8.927168
1000.742188,4.665393,8.277109,11.582286,4.434418
1000.746094,3.432422,3.165878,4.814662,2.317844
1000.750000,-3.291430,6.437136,3.801500,-1.569794
1000.753906,1.598960,-5.752111,-2.140164,-1.949860
1000.757812,0.707511,-10.879806,-5.543219,-4.542124
1000.761719,-2.851833,-6.267658,0.146475,-10.022083
1000.765625,-11.596265,-9.529243,-12.828510,-2.609118
1000.769531,-13.569553,-9.574200,-3.417178,-8.754831
1000.773438,-6.908311,-12.032285,-6.299550,-9.538663
1000.777344,-9.326836,-7.264094,-9.538483,-7.553092
1000.781250,-12.433969,-7.093486,-3.053235,-7.924696
1000.785156,-4.479689,-12.222563,-1.067383,-8.897724
1000.789062,-4.033751,-1.802145,-7.064615,0.407705
1000.792969,-1.236868,-6.061134,-4.969581,-5.566560
1000.796875,-6.503354,-8.624653,-0.967745,2.657553
1000.800781,-2.839987,7.997837,0.164955,4.122439
1000.804688,0.304274,-4.207732,1.932088,3.611787
1000.808594,8.778993,3.853367,8.336417,5.802367
1000.812500,8.887661,2.292553,6.731367,13.086952
1000.816406,8.049640,10.531603,1.829650,8.661010
1000.820312,8.982231,19.581651,8.407101,7.234483
1000.824219,8.974334,9.374645,3.867217,11.019342
1000.828125,-1.837103,8.127467,8.814833,15.724159
1000.832031,3.340880,16.768035,5.591572,8.278748
1000.835938,6.753707,5.180337,4.858616,10.171113
1000.839844,2.784324,3.139394,13.417175,4.586707
1000.843750,6.894134,5.665293,5.797296,4.008707
1000.847656,0.624140,-4.407986,3.808221,1.491086
1000.851562,5.404302,-1.021929,2.191614,1.909424
1000.855469,-3.587845,-8.224294,-6.612262,-0.841338
1000.859375,-2.061325,-4.503533,-8.445856,-3.373506
1000.863281,-2.611506,-12.015851,-6.125106,-6.742965
1000.867188,-7.674350,-8.103411,-2.405629,-8.911905
1000.871094,-10.593042,-7.591767,-12.663257,-4.153001
1000.875000,-17.741362,-12.801901,-8.621022,-10.303843
1000.878906,-13.518124,-0.006821,-8.136836,-12.444829
1000.882812,0.005517,-15.007342,-2.595258,-7.634986
1000.886719,-7.183459,-11.955469,-9.429435,-9.553763
1000.890625,-8.479820,-8.355343,-0.332798,-7.262758
1000.894531,-0.010683,0.834624,-5.065619,-2.959273
1000.898438,-4.427357,-0.960727,-1.937359,2.125512
1000.902344,10.843450,1.350788,8.816152,1.592193
1000.906250,5.421142,-8.658918,5.060515,6.637893
1000.910156,3.104907,5.459389,3.786362,1.036397
1000.914062,9.918148,4.061815,8.603919,8.708728
1000.917969,12.863283,7.730854,3.846596,14.964013
1000.921875,11.900958,10.672581,14.235249,9.015487
1000.925781,7.277087,9.502571,7.359656,13.945639
1000.929688,2.934486,6.556183,4.886020,12.800379
1000.933594,1.043096,9.642482,5.178999,11.745467
1000.937500,10.100044,7.205313,2.766513,6.616677
1000.941406,6.168314,4.269275,6.722858,6.844040
1000.945312,2.016078,4.353826,3.263366,-0.683624
1000.949219,6.517691,9.351322,-3.551249,2.781312
1000.953125,-4.101826,1.228436,-1.844418,-9.770159
1000.957031,-10.104779,1.520818,-3.512438,-2.500522
1000.960938,-7.840773,-3.969854,-6.523045,-5.421679
1000.964844,-6.246294,-9.279082,-10.751035,-8.168113
1000.968750,-5.810376,-12.968487,-5.797748,0.041992
1000.972656,-14.320389,-2.809009,-10.237708,-7.448876
1000.976562,-14.947527,-11.908731,-8.476163,-9.849989
1000.980469,-4.608030,-17.626171,-9.291162,-11.351492
1000.984375,-5.036595,-8.386353,-2.797081,-5.003575
1000.988281,-8.305255,-6.932898,-1.065919,-2.101274
1000.992188,-7.139371,-5.208505,-2.292659,-0.398819
1000.996094,-0.262971,4.826346,0.255712,0.022473
1001.000000,5.661630,3.493939,2.601183,11.851644
1001.003906,5.285480,8.834978,7.729181,4.888280
1001.007812,4.705931,3.620728,3.000407,-2.144987
1001.011719,4.798145,7.239068,11.742425,8.345117
1001.015625,7.160207,12.202298,6.039253,2.831953
1001.019531,8.339005,11.133581,13.958907,11.791256
1001.023438,11.373748,5.906560,8.975297,5.264370
1001.027344,9.087520,4.140331,10.575748,8.551924
1001.031250,13.041822,8.580586,12.579259,16.382621
1001.035156,14.665342,9.107138,8.097580,5.928210
1001.039062,8.610263,12.713817,9.358610,6.293679
1001.042969,-0.499046,-0.673781,12.808898,6.220483
1001.046875,-2.023498,1.018995,4.774970,-0.612561
1001.050781,-1.192120,-1.288225,-5.679773,-4.962448
1001.054688,-4.518955,-6.303508,-10.208758,5.324308
1001.058594,-2.543163,-7.328915,1.017358,2.194725
1001.062500,-9.199856,-6.127530,-4.205330,-6.939979
1001.066406,-10.765519,-11.028047,-11.533226,-9.432197
1001.070312,-11.602465,-6.128069,-12.089524,-9.240227
1001.074219,-6.134822,-11.393593,-14.969666,-8.409742
1001.078125,-5.335771,-5.731963,-3.852943,-14.302430
1001.082031,-8.595969,-14.707953,-6.460368,-11.218863
1001.085938,0.781522,-3.203695,-1.898969,-2.924960
1001.089844,-3.413433,-12.527284,-3.010927,-3.818004
1001.093750,-5.349673,-8.547662,-2.471654,0.374969
1001.097656,-3.002834,-0.694578,-2.156321,0.888708
1001.101562,4.447661,3.719143,5.465194,-7.040303
1001.105469,7.126125,-3.614496,3.956002,1.158617
1001.109375,9.094980,5.196615,6.889516,4.394453
1001.113281,13.463052,10.695099,10.279769,9.005208
1001.117188,4.552275,4.619580,7.583802,6.135977
1001.121094,6.023827,16.271079,15.960670,12.768911
1001.125000,5.745271,17.020065,4.949887,3.537590
1001.128906,10.214129,9.570812,9.279412,15.356629
1001.132812,7.445626,9.293586,8.605288,0.376638
1001.136719,1.512446,8.313639,10.064479,10.191088
1001.140625,4.972335,7.254361,8.991499,-6.502233
1001.144531,1.411708,-7.951243,6.907211,3.511326
1001.148438,-0.933659,4.593843,2.460107,5.778506
1001.152344,-3.349590,-8.856067,-5.452876,7.779312
1001.156250,-15.943120,-9.505391,3.004264,0.769823
1001.160156,-2.833951,-8.828526,-7.863116,-3.227698
1001.164062,-4.278449,-6.741811,-4.904761,-13.228007
1001.167969,-1.048441,-9.374605,-8.756229,-13.624988
1001.171875,-11.340385,-4.296497,-12.517011,-16.017632
1001.175781,-8.049598,-14.180092,-10.716048,-0.456938
1001.179688,-17.779958,-3.057761,-6.866329,-5.320662
1001.183594,-10.772480,-2.148981,-7.639679,-13.623989
1001.187500,-5.964971,-12.034269,-11.102361,-8.063828
1001.191406,-5.239422,-3.034790,-1.985137,-2.624637
1001.195312,9.419865,-3.614640,-0.168561,-7.165505
1001.199219,-3.755359,-5.409853,-2.220787,3.356380
1001.203125,-2.775640,-1.477578,10.750480,3.322849
1001.207031,2.347376,0.580096,8.094657,-0.623670
1001.210938,7.071632,11.362758,6.900501,7.381971
1001.214844,9.396762,12.030480,-0.715304,10.066325
1001.218750,6.627571,5.091824,11.652783,5.136547
1001.222656,10.265266,12.510807,10.203519,8.471168
1001.226562,9.076103,8.790723,9.596805,14.236899
1001.230469,8.850915,3.827238,9.068617,13.196802
1001.234375,12.309045,8.318266,1.662029,12.151048
1001.238281,8.930103,5.602083,9.285760,6.209610
1001.242188,-1.580088,6.657264,7.245837,2.407880
1001.246094,-4.921173,3.838661,5.088732,7.828098
1001.250000,7.454050,-6.233444,3.684609,5.394442
1001.253906,-2.845953,-3.786097,-0.665903,-4.398250
1001.257812,-5.179365,-7.601506,-10.217012,-5.523777
1001.261719,-8.938432,-3.453736,-10.044464,-13.010135
1001.265625,-13.888835,-9.485483,-8.612683,-8.061179
1001.269531,-9.214154,-12.748657,-9.375226,-13.407627
1001.273438,-17.482981,-20.921703,-4.794089,-11.068140
1001.277344,-11.631998,-11.875973,-12.534071,-11.109066
1001.281250,-0.405693,-6.929587,-8.870931,-11.901099
1001.285156,-7.010847,-8.043132,-7.030810,-4.846112
1001.289062,-3.926215,-5.127898,-14.622926,-7.007463
1001.292969,-0.873777,-2.305691,2.092831,-8.102300
1001.296875,1.835627,-2.402948,-4.061805,-6.900430
1001.300781,-5.949850,-4.749078,4.074264,1.527928
1001.304688,1.981621,2.962741,1.726516,5.438359
1001.308594,4.603699,10.431451,7.043330,7.467306
1001.312500,8.204468,1.474964,1.028821,10.777033
1001.316406,9.071639,5.677715,2.786212,11.827629
1001.320312,6.604540,11.150945,10.537551,11.550811
1001.324219,13.181649,7.775419,12.425509,5.646259
1001.328125,7.058078,2.603941,15.928008,11.190428
1001.332031,8.192014,10.746250,3.011869,3.789027
1001.335938,6.943062,9.375226,10.667375,9.230420
1001.339844,-0.213447,8.992711,7.369412,8.007309
1001.343750,8.058127,4.389818,-1.017138,1.121936
1001.347656,5.037085,5.479219,4.232222,8.931766
1001.351562,-4.725191,-2.348646,3.453802,-0.767021
1001.355469,-1.013579,-8.169628,1.630777,0.960967
1001.359375,-7.226347,2.977628,-9.022742,-7.687202
1001.363281,-1.377882,-14.942696,-5.345288,-12.026242
1001.367188,-10.726897,-6.420743,-8.182646,-9.274299
1001.371094,-16.724641,-13.870494,-10.606038,-9.565379
1001.375000,-12.484935,-15.036481,-13.911461,-11.152181
1001.378906,-12.123032,-9.149487,-9.099820,-14.211413
1001.382812,-6.206133,-6.628793,-3.813362,-4.494607
1001.386719,-3.724765,-0.797934,-6.250311,-12.326615
1001.390625,-6.283976,3.083339,-2.416579,0.879991
1001.394531,2.639560,0.018684,-9.901612,-3.303971
1001.398438,-10.841752,-4.511015,1.999840,-6.045798
1001.402344,4.944124,0.337817,5.147688,-4.060189
1001.406250,6.448114,-1.780420,7.223829,10.747892
1001.410156,10.308804,4.796349,-1.478751,4.564162
1001.414062,10.785069,4.779191,14.485670,-0.502056
1001.417969,2.740149,9.890489,5.332513,2.935240
1001.421875,6.873979,15.901790,6.750719,7.388861
1001.425781,4.030333,6.846155,9.793181,11.545077
1001.429688,11.348280,9.713232,11.368791,11.060059
1001.433594,7.063279,4.190341,7.003260,13.194872
1001.437500,4.439262,1.629539,5.348087,4.122298
1001.441406,9.872841,4.587039,8.815018,8.571276
1001.445312,3.779059,-5.335616,2.351636,-2.491093
1001.449219,-5.249374,1.291743,-6.395945,-5.990906
1001.453125,-0.135405,-7.922253,-2.143096,-0.188120
1001.457031,-1.148466,-2.110975,-2.875905,-0.939565
1001.460938,-7.277681,-3.267294,-0.752735,-4.303859
1001.464844,-9.620272,-4.293829,-6.010238,-6.027347
1001.468750,-2.068316,-9.304823,-11.665329,-6.913888
1001.472656,-4.887796,-1.450031,-5.014606,-10.843539
1001.476562,-9.564177,-12.392183,-12.942680,-10.878126
1001.480469,-12.154439,-16.726486,-9.250803,-12.711921
1001.484375,-9.290679,-3.907282,-7.810863,-11.028819
1001.488281,-11.832423,-6.600254,-5.800594,-2.037764
1001.492188,-4.917181,-8.414846,-4.794094,-11.366135
1001.496094,1.996672,-2.511135,-3.305968,-2.031972
1001.500000,-1.712346,2.990642,-1.380566,4.521456
1001.503906,2.444294,6.967614,1.546689,-0.110677
1001.507812,8.210096,13.142343,9.206755,9.768500
1001.511719,8.208496,3.266487,8.739520,6.460676
1001.515625,-0.665938,6.457371,11.411915,6.739654
1001.519531,9.198765,11.239943,8.138032,12.543988
1001.523438,12.102469,12.706054,9.126958,1.991316
1001.527344,10.438634,6.070360,16.887684,8.091117
1001.531250,2.107562,2.092093,7.091900,4.543892
1001.535156,2.506535,8.681851,12.945687,6.928711
1001.539062,5.704470,2.357847,11.093830,-1.161339
1001.542969,3.226478,-0.286381,3.399088,3.497564
1001.546875,3.118510,11.720620,9.118636,13.393714
1001.550781,0.445730,-1.627710,-0.108938,-6.562802
1001.554688,-3.298791,-10.718125,-1.500494,-3.196511
1001.558594,-3.143914,-3.452683,-4.417749,-9.155436
1001.562500,-4.018020,-1.518470,-6.898854,-2.575810
1001.566406,-4.938742,-9.916194,-9.342221,-6.122809
1001.570312,-12.226245,-7.014311,-10.387939,-13.254476
1001.574219,-11.594059,-9.788447,-12.143964,-11.912337
1001.578125,-7.109324,-14.170503,-17.000409,-10.260658
1001.582031,-17.565614,-10.775991,-8.757381,-11.329642
1001.585938,-8.869990,-5.448816,-9.155394,-11.712203
1001.589844,-6.305645,-7.098108,-0.839748,-3.386498
1001.593750,-2.921396,3.720852,-3.692141,0.550571
1001.597656,5.330755,-4.323700,1.268286,-3.370441
1001.601562,-6.364145,7.628117,2.459732,0.041930
1001.605469,4.045672,-0.988999,2.870831,-2.426527
1001.609375,3.522892,-0.999879,2.612368,9.780327
1001.613281,3.368003,7.412173,7.513898,4.119184
1001.617188,10.498202,9.900760,5.271309,11.684267
1001.621094,9.201701,9.028938,8.523294,15.816406
1001.625000,14.726017,8.706834,9.035830,13.393621
1001.628906,9.638009,11.505332,9.800714,13.849483
1001.632812,16.388583,8.108515,9.967354,11.822143
1001.636719,6.199131,10.693533,3.803280,3.138320
1001.640625,11.282237,5.936692,5.889443,9.218079
1001.644531,-0.988740,0.572579,8.281892,1.344226
1001.648438,1.905633,-1.047335,-0.597450,3.031579
1001.652344,-2.436502,-0.686065,0.758332,3.312808
1001.656250,1.486440,-1.044113,-2.724813,-2.605048
1001.660156,-7.608768,-4.876874,-2.127501,-9.215982
1001.664062,-11.230699,-6.563720,-7.669145,-6.703645
1001.667969,-10.117222,-8.521556,-9.852226,-5.023027
1001.671875,-2.744002,-4.387933,-7.584472,-13.219811
1001.675781,-13.241239,-20.346083,-4.257183,-10.179986
1001.679688,-12.360856,-6.108558,-13.763242,-3.816341
1001.683594,-10.185082,-3.557811,-17.146792,-7.876636
1001.687500,-6.476817,-3.998785,-8.302326,-1.346488
1001.691406,-0.329074,-3.389102,-5.319783,-5.189776
1001.695312,-2.781428,3.278729,-2.640997,3.206133
1001.699219,-1.389358,1.907860,-3.888921,-0.454262
1001.703125,4.975298,2.349306,-0.752703,10.484467
1001.707031,5.800595,2.969901,2.897819,3.005700
1001.710938,8.351646,7.845494,7.759037,5.572196
1001.714844,9.047770,13.000407,8.459522,8.123467
1001.718750,6.010829,9.722565,11.418725,9.775949
1001.722656,8.892674,11.588599,10.168072,13.438586
1001.726562,8.618544,10.265471,10.436514,11.127092
1001.730469,17.033330,8.357086,4.539249,7.793063
1001.734375,5.453574,18.269246,16.886853,11.358389
1001.738281,5.392373,2.808568,6.521031,5.388581
1001.742188,4.362247,9.118499,10.163044,7.063477
1001.746094,-3.745982,1.569653,-4.541125,-2.335055
1001.750000,0.889542,-6.928344,1.055290,6.070105
1001.753906,1.928026,5.434885,-6.793278,0.689053
1001.757812,-3.153157,-13.600359,-8.545419,-4.774573
1001.761719,-10.304864,-8.442818,-2.514784,-6.984639
1001.765625,-11.098383,-5.963772,-6.392973,-7.381083
1001.769531,-8.461469,-15.329331,-15.098359,-17.805077
1001.773438,-9.397277,-4.504269,-13.814767,-8.621982
1001.777344,-18.834532,-2.967831,-7.226578,-14.232149
1001.781250,-9.216215,-13.797357,-12.812293,-4.824360
1001.785156,-5.640558,-17.567649,-10.165472,-6.957414
1001.789062,-9.917571,-6.573376,-9.275970,-5.801666
1001.792969,-2.366534,-3.784998,-3.339149,-4.976863
1001.796875,-2.256693,-5.306704,0.494586,5.400493
1001.800781,2.550012,-0.921187,-0.404860,6.182426
1001.804688,6.752923,4.842093,-1.296476,6.572632
1001.808594,3.392019,-0.195650,5.259053,2.209773
1001.812500,5.220238,1.384041,8.352068,4.670017
1001.816406,9.402314,4.815879,9.349973,17.604436
1001.820312,10.676945,12.337022,6.302776,3.768139
1001.824219,10.418449,7.205861,9.879123,9.203305
1001.828125,0.321750,6.207286,11.219778,9.769162
1001.832031,10.252424,7.384745,6.165056,1.933923
1001.835938,7.123317,10.149792,13.287117,3.647954
1001.839844,10.436328,8.503252,8.255611,-2.793974
1001.843750,5.272190,-4.717760,4.325860,7.518541
1001.847656,15.717496,3.692848,-4.884467,7.355918
1001.851562,1.891405,-6.671611,3.736811,-0.292135
1001.855469,-2.901449,0.988037,-0.760226,-3.990071
1001.859375,-1.956072,-1.253521,-1.014466,-6.438960
1001.863281,-7.787429,-9.461837,-10.283550,-2.631201
1001.867188,-9.055627,-10.152362,-5.105394,-11.321511
1001.871094,-17.157272,-14.785719,-10.133336,-6.707088
1001.875000,-12.900875,-11.434699,-6.838121,-3.856081
1001.878906,-13.351341,-7.273288,-8.966699,-8.016634
1001.882812,-11.594976,-8.068890,-11.523911,-15.592123
1001.886719,-6.017321,-8.770223,-9.067474,-8.817392
1001.890625,-9.899558,-11.087194,-9.499407,-8.055713
1001.894531,-5.569753,-8.310991,2.053969,0.850161
1001.898438,-5.129581,1.504186,-0.129098,-3.231350
1001.902344,-2.602684,-8.905123,-4.522056,-3.222149
1001.906250,4.847689,1.783949,0.189513,7.484216
1001.910156,4.472401,4.404683,3.307492,4.152280
1001.914062,12.511423,2.004715,10.186093,2.844506
1001.917969,10.548989,-2.335358,13.755030,10.026082
1001.921875,7.983855,5.293700,17.967459,12.846813
1001.925781,11.033846,13.566337,11.563891,11.375167
1001.929688,11.642291,10.477101,11.420214,4.196766
1001.933594,-0.397746,4.009272,5.772220,2.738400
1001.937500,7.669579,4.043539,2.304364,2.771634
1001.941406,7.296001,4.136486,6.539666,3.812366
1001.945312,5.197780,7.153122,0.522833,-3.173249
1001.949219,2.595860,1.569729,12.700836,6.348252
1001.953125,-0.203172,2.232442,-2.807053,-3.495099
1001.957031,-4.740046,0.549451,-4.560673,-0.713728
1001.960938,-9.476077,-12.825829,-2.591926,-11.426055
1001.964844,-8.509111,-10.986933,-15.844210,-8.603133
1001.968750,-11.660553,-13.878882,-7.296874,-7.375630
1001.972656,-11.445445,-7.208634,-8.454560,-9.219071
1001.976562,-15.853953,-10.820129,-9.022653,-7.808624
1001.980469,-0.368785,-8.791902,-10.987780,-21.440051
1001.984375,-8.931172,-11.673047,0.789117,-9.431784
1001.988281,-1.053069,-11.987772,-11.348163,-3.666015
1001.992188,-6.755491,-3.683223,-3.309194,-5.875953
1001.996094,-6.585751,-5.667323,1.225974,-11.541628
1002.000000,2.726384,-3.654070,-1.287234,-2.300589
1002.003906,1.147113,-3.597915,-4.237491,0.682868
1002.007812,5.006918,5.011811,2.831486,5.170360
1002.011719,13.414207,3.715379,6.430355,8.018954
1002.015625,9.177865,8.547708,15.240460,5.771889
1002.019531,6.369996,8.938272,12.476589,9.040368
1002.023438,17.110948,8.824100,13.852347,12.145638
1002.027344,1.752528,4.847533,10.099838,10.026681
1002.031250,4.807181,-5.359375,3.039472,9.671118
1002.035156,11.409882,1.893151,2.736095,17.376039
1002.039062,7.797464,7.579644,8.476658,4.024758
1002.042969,-1.326403,8.078262,6.684923,7.455699
1002.046875,4.022882,-0.481744,1.635589,6.636056
1002.050781,-4.895239,-0.223489,-2.421003,-4.503382
1002.054688,-2.357506,-3.306929,-3.540000,-2.291745
1002.058594,-0.850451,-7.551113,-1.688903,-9.472642
1002.062500,-1.328115,-8.013937,-2.361444,-1.855629
1002.066406,0.801102,-11.759719,-9.295435,-14.699885
1002.070312,-8.061518,-10.369814,-14.755403,-9.386519
1002.074219,-11.036239,-4.820269,-5.842143,-3.771080
1002.078125,-13.888695,-10.571820,-7.501716,-6.173270
1002.082031,-6.534912,-7.324949,-20.538562,-9.715699
1002.085938,-11.178188,-11.538912,-1.770196,-12.493066
1002.089844,-11.018796,-11.133990,-4.348082,0.351823
1002.093750,-0.795717,-5.525113,-6.332166,-5.970338
1002.097656,-11.915876,-7.075609,-2.685371,1.662835
1002.101562,4.750076,1.890057,3.366710,2.302763
1002.105469,8.737891,3.570503,2.560338,1.745590
1002.109375,1.948361,7.142981,6.318834,9.439018
1002.113281,4.330076,8.892982,6.046519,10.234949
1002.117188,11.046721,5.161415,1.144538,13.772529
1002.121094,7.464573,8.509640,9.918791,11.689415
1002.125000,6.999893,12.303879,8.215005,6.455444
1002.128906,13.723953,7.197099,12.226184,8.650606
1002.132812,11.450756,7.607804,8.420597,8.961015
1002.136719,3.414372,11.829049,11.267030,7.696284
1002.140625,16.025454,-1.832450,11.181063,5.787054
1002.144531,2.812921,-2.142045,10.874838,8.337380
1002.148438,3.598480,1.439042,-0.175693,1.824148
1002.152344,-0.257333,-2.451745,-1.344936,-4.074804
1002.156250,-4.660823,-3.345989,-0.797190,4.673254
1002.160156,-14.233429,-7.814391,-7.681548,-4.475049
1002.164062,-6.649609,3.479162,-9.732157,-8.300979
1002.167969,-4.183049,-8.673858,-6.205557,-5.844001
1002.171875,-6.611216,-8.897067,-16.998293,-6.969616
1002.175781,-13.972062,-10.970454,-11.142694,-15.034148
1002.179688,-3.600776,-2.804768,-2.876050,-11.363258
1002.183594,-7.845206,-3.459230,-9.408408,-8.928017
1002.187500,-7.367977,-6.567818,-8.060526,-13.079444
1002.191406,-4.464960,-5.892700,-3.293962,-6.272918
1002.195312,-10.871963,-2.965194,-5.806491,-4.258396
1002.199219,-0.076548,-2.863178,-7.469731,3.279571
1002.203125,4.928822,-0.591998,1.269457,-3.153368
1002.207031,5.704300,0.469711,-4.116316,7.692582
1002.210938,12.098333,5.872454,3.780020,7.873277
1002.214844,3.952658,10.996388,10.523125,4.285212
1002.218750,4.855950,13.925486,12.454019,10.934625
1002.222656,5.004936,4.943863,12.172832,10.106011
1002.226562,12.706838,7.554705,6.243763,16.992549
1002.230469,7.175511,9.715543,7.261347,12.617292
1002.234375,8.712021,9.454023,8.600019,9.327121
1002.238281,9.497862,1.227375,6.631547,9.811680
1002.242188,12.374379,10.957647,13.594786,7.005797
1002.246094,-6.782243,2.586171,-0.571889,3.770608
1002.250000,-2.374534,-4.144478,-0.368000,9.447348
1002.253906,-3.761770,-4.614290,-1.144972,-4.740170
1002.257812,3.417815,-4.361898,-6.025738,-3.548115
1002.261719,-9.769749,-13.507307,-3.163125,-4.523073
1002.265625,-8.579230,-1.961882,-9.485093,-11.282591
1002.269531,-7.057907,-3.715079,-6.807946,-7.914804
1002.273438,-14.346040,-6.516834,-4.713051,-19.085631
1002.277344,-10.082258,-13.126456,-4.055240,-11.691228
1002.281250,-20.666012,-14.847004,-4.294301,-12.517661
1002.285156,-5.444778,-7.236147,-7.423049,-9.515679
1002.289062,-7.643742,-7.732173,-8.193119,-3.800348
1002.292969,5.923136,-6.880791,-2.039445,-4.683389
1002.296875,-1.656929,4.279385,-6.714048,-2.597192
1002.300781,0.081814,-1.333614,3.424191,5.376225
1002.304688,1.579672,-3.861038,9.322852,6.431597
1002.308594,8.905244,-4.294340,5.417638,10.597732
1002.312500,15.328946,11.846422,4.416972,5.080275
1002.316406,6.668444,14.998471,9.742290,11.553292
1002.320312,7.917285,9.969066,10.070423,4.126649
1002.324219,5.417588,11.953513,11.099776,11.239725
1002.328125,10.983253,13.429908,9.359913,14.491166
1002.332031,8.889227,2.829313,17.761300,1.917062
1002.335938,13.719106,8.445876,12.678980,2.853086
1002.339844,4.982534,3.192421,0.642901,3.465127
1002.343750,9.607176,3.681940,3.111750,0.499931
1002.347656,5.252845,-1.729385,-0.626516,4.545481
1002.351562,3.340830,4.202100,-2.626504,1.631393
1002.355469,-7.357251,3.925589,-2.341258,2.189060
1002.359375,-3.862725,-3.283671,-5.009608,-8.090499
1002.363281,-3.784474,-8.189012,-3.139566,-10.453444
1002.367188,-10.983722,-12.883490,-9.918261,-14.540242
1002.371094,-7.220474,-10.593623,-17.523639,0.376204
1002.375000,-11.928381,-4.225615,-1.913381,-16.719835
1002.378906,-6.104598,-7.882900,-2.768961,-9.655357
1002.382812,-9.674618,-8.419044,-8.034965,-7.502956
1002.386719,-3.513813,-9.653432,-7.030620,-6.726930
1002.390625,-8.462966,-13.300594,-4.881033,-3.789582
1002.394531,-8.669045,-6.406308,-1.794626,-1.967495
1002.398438,-2.716255,0.082381,0.674528,-1.354664
1002.402344,-2.533326,2.471982,-2.214299,4.052072
1002.406250,0.682804,5.467302,6.051054,2.270755
1002.410156,5.302200,0.932510,3.085157,6.171119
1002.414062,6.715782,4.146959,4.630722,5.377414
1002.417969,9.263047,15.955214,3.885188,11.468709
1002.421875,10.072266,15.263597,10.923462,21.830841
1002.425781,10.071509,7.512823,8.313717,13.205197
1002.429688,8.525243,10.664309,12.305169,6.495708
1002.433594,12.548974,10.525754,10.010228,7.163441
1002.437500,9.910753,6.486256,10.149758,2.399316
1002.441406,5.400006,6.831247,7.335655,-0.537679
1002.445312,-3.224922,9.770317,5.467093,-4.031470
1002.449219,-0.245929,-3.426552,0.793642,-4.766533
1002.453125,-1.395830,-3.665583,-9.881928,-4.070125
1002.457031,3.806488,3.226542,-10.360854,-1.988711
1002.460938,-11.540731,-0.633561,-6.309842,-8.111729
1002.464844,-6.315208,-11.617722,-2.375840,-5.499905
1002.468750,-5.181932,-12.386673,-8.077516,-14.565300
1002.472656,-10.491935,-8.098959,-10.409173,-17.356097
1002.476562,-12.659538,-14.051638,-7.802361,-12.892611
1002.480469,-10.322467,-9.360269,-12.397119,-11.011218
1002.484375,-7.691488,-0.247917,-7.817055,-13.408253
1002.488281,-7.027517,-8.118802,-14.967276,-5.315336
1002.492188,-2.801834,-5.380552,-4.751203,-7.432736
1002.496094,-0.952605,-0.107322,-6.253691,-3.460636
1002.500000,0.845792,-0.781072,-1.868273,-0.678493
1002.503906,11.046767,0.145518,7.690179,-2.471171
1002.507812,9.714396,8.515391,12.860888,4.827226
1002.511719,11.730641,8.241023,2.778446,4.185942
1002.515625,5.373606,0.522218,13.248621,12.719519
1002.519531,11.332655,10.107974,-3.373807,8.940256
1002.523438,12.813552,10.104278,9.728536,13.181385
1002.527344,11.425142,8.563013,8.900760,8.659534
1002.531250,6.464598,14.005662,15.084109,10.291385
1002.535156,7.864431,7.687519,5.052754,12.633180
1002.539062,6.499865,3.156541,2.673540,11.869686
1002.542969,6.867550,-0.166707,0.731560,9.141281
1002.546875,3.285076,2.589996,10.479628,3.492493
1002.550781,2.117576,8.521676,7.281757,-0.521965
1002.554688,-0.932046,-4.189420,-2.461893,-6.116551
1002.558594,-6.487840,-3.041354,-11.398814,-9.397425
1002.562500,-5.309050,1.273305,-8.420783,-8.948258
1002.566406,-4.224589,-9.943673,-13.937189,-7.877205
1002.570312,-9.053506,-8.909391,-11.008033,-8.478533
1002.574219,-15.132094,-16.255645,-14.819359,-10.358897
1002.578125,-15.378275,-0.021500,-5.185946,-9.611901
1002.582031,-5.054576,-8.074291,-11.910886,-10.600356
1002.585938,-8.185181,-2.668122,-6.454501,0.290203
1002.589844,-4.752652,-9.260026,-2.763921,-7.399960
1002.593750,-2.970877,-6.672817,-3.960176,-6.363470
1002.597656,4.067369,1.072706,-1.756719,-0.034719
1002.601562,1.871882,-4.554485,3.998344,-1.579464
1002.605469,-0.445492,1.901563,2.771716,4.154747
1002.609375,1.813484,10.371211,7.113586,7.176415
1002.613281,-0.268589,4.752863,0.527985,6.395916
1002.617188,0.711861,6.190887,7.404503,9.705458
1002.621094,8.846681,10.226736,13.375575,6.023824
1002.625000,10.043542,14.568778,15.534617,8.392740
1002.628906,3.100382,5.615555,11.702081,7.530184
1002.632812,12.390178,14.195866,0.157962,14.003805
1002.636719,-3.241504,6.815810,5.950227,5.047696
1002.640625,7.644719,5.104546,3.733520,7.333231
1002.644531,7.569862,10.772218,12.177611,8.469783
1002.648438,-3.775687,4.609883,-8.200043,-0.979778
1002.652344,-0.228321,-0.074185,4.246435,-3.218702
1002.656250,-13.915585,-6.926260,-5.604030,1.601303
1002.660156,-8.331166,-6.789004,-5.093513,-7.948293
1002.664062,-9.537293,-9.444162,-7.014476,-9.693819
1002.667969,-14.466541,-4.302343,-10.347834,-15.008337
1002.671875,-10.476277,-9.071395,-8.447046,-11.117331
1002.675781,-13.534580,-13.227404,-14.056713,-14.682876
1002.679688,-13.221709,-5.744469,-7.763564,-10.285511
1002.683594,-3.579670,-4.675512,-13.195564,-11.091954
1002.687500,-6.980115,-17.605689,-8.062441,-5.618640
1002.691406,-8.177942,-0.281546,-1.220018,-12.448503
1002.695312,-3.619044,3.214370,3.404968,-9.324328
1002.699219,-1.936596,-1.218041,-1.577766,-1.672045
1002.703125,8.422774,-0.117675,6.956958,-1.304400
1002.707031,1.838924,6.021384,-0.034818,-3.436692
1002.710938,5.368580,12.123875,-2.960496,11.110189
1002.714844,7.859563,8.197491,8.497650,8.560131
1002.718750,11.575489,7.987425,13.385062,12.157072
1002.722656,10.260101,7.902833,12.307363,9.234772
1002.726562,10.333678,14.320734,14.479442,8.988961
1002.730469,6.509841,11.463398,2.241369,7.118706
1002.734375,0.555411,2.228918,9.496066,8.199067
1002.738281,10.550849,2.789234,7.630152,7.715198
1002.742188,9.631085,5.049356,7.276874,3.339475
1002.746094,6.443726,1.736618,2.908607,7.045847
1002.750000,2.728550,-1.884250,3.173423,-2.395377
1002.753906,0.893580,-1.045725,2.761057,-6.590865
1002.757812,-0.533263,-2.243138,-1.339227,-2.459149
1002.761719,0.825605,-4.504419,-3.537161,-4.689130
1002.765625,-3.027708,-3.377911,-6.506617,-14.399728
1002.769531,-8.192699,-7.170091,-12.320287,-9.878350
1002.773438,-6.781040,-16.550382,-10.655486,-10.586600
1002.777344,-15.151536,-6.862676,-16.926885,-7.381583
1002.781250,-11.822423,-7.907179,-6.167404,-14.620134
1002.785156,-21.839476,-5.727387,-2.909163,-4.457160
1002.789062,-9.079465,-7.828339,-3.909175,-7.413075
1002.792969,1.804033,-1.572692,-6.741845,-0.345090
1002.796875,-2.443607,-11.286772,-4.403285,-9.084451
1002.800781,-0.706144,-1.195579,0.975913,-0.413482
1002.804688,10.015857,5.285536,5.550090,-1.585917
1002.808594,4.876437,7.513288,7.095458,0.342549
1002.812500,8.737491,12.563872,2.249251,4.269914
1002.816406,0.099547,3.140613,7.400617,11.947582
1002.820312,11.715347,12.930218,15.327810,10.723317
1002.824219,17.278291,6.841602,7.632363,-0.672409
1002.828125,12.249195,13.620501,13.487744,8.172131
1002.832031,15.659043,10.965923,14.640708,5.042539
1002.835938,4.518633,11.435285,5.961829,11.740200
1002.839844,6.589757,2.755276,2.656419,4.026055
1002.843750,2.193506,4.330573,4.227273,5.395401
1002.847656,0.718851,1.477404,-0.851979,1.492426
1002.851562,2.910764,-4.745934,0.547349,-0.429966
1002.855469,-0.621894,-6.648320,-10.741505,1.991685
1002.859375,-7.624816,-9.176613,-2.831673,-4.923619
1002.863281,-15.955477,-4.660949,-14.453443,-11.018231
1002.867188,-11.293969,-9.702868,-10.851914,-10.105615
1002.871094,-19.246857,-9.707301,-9.271634,-12.332750
1002.875000,-15.307508,-13.114065,-21.604497,-23.433866
1002.878906,-5.601248,-15.711545,-4.491928,-12.664278
1002.882812,-13.402993,-6.699943,-9.891566,-10.481633
1002.886719,-8.673420,-5.622847,-0.180049,-9.614393
1002.890625,-9.118713,-8.572155,-1.983894,-6.229520
1002.894531,-7.651866,-4.877364,-6.809738,-6.744136
1002.898438,13.675819,-3.217297,2.527445,-0.294958
1002.902344,1.151089,1.915201,6.119323,-0.925164
1002.906250,1.622126,2.741478,1.817067,3.114290
1002.910156,1.575399,1.730556,8.201347,8.388429
1002.914062,6.641324,11.365939,6.647897,3.942360
1002.917969,9.478903,10.643066,16.663215,6.974316
1002.921875,8.671183,16.588960,16.884931,8.819750
1002.925781,10.567006,1.178721,8.059533,10.903133
1002.929688,6.162717,7.997353,7.741263,17.590320
1002.933594,4.105888,10.024765,7.539452,10.220059
1002.937500,11.564975,11.844962,8.204023,7.694383
1002.941406,-4.720159,9.815441,10.917786,-0.502520
1002.945312,2.810713,0.398164,0.052585,1.681647
1002.949219,-1.692833,3.672964,4.596475,2.491398
1002.953125,-0.519565,-3.692760,-4.757832,2.991727
1002.957031,-13.526307,-5.265567,-7.505352,-8.300743
1002.960938,-3.382219,-6.838927,-10.204301,-5.856068
1002.964844,-0.878269,-10.608349,-10.305349,-11.647098
1002.968750,-10.416256,-2.823628,-17.253689,-9.882505
1002.972656,-5.094646,-9.430815,-10.999810,-5.346117
1002.976562,-10.888192,-10.396728,-7.880741,-4.858994
1002.980469,-4.909123,-6.498010,-10.665419,-8.901121
1002.984375,-8.411830,-13.098244,-11.211949,-5.911766
1002.988281,-12.603366,-7.104553,-11.048416,-8.015476
1002.992188,2.300617,-6.501646,-9.364317,-4.029034
1002.996094,1.319172,-1.291333,-3.621147,-1.510823
1003.000000,0.370831,-6.553095,-9.285882,-1.662343
1003.003906,4.235159,7.111865,1.885213,-2.038551
1003.007812,11.031683,10.613846,10.972793,1.407637
1003.011719,7.530717,9.085451,1.998894,18.191392
1003.015625,5.928196,5.870004,3.361772,4.711615
1003.019531,10.108666,3.374542,5.075365,10.023739
1003.023438,11.398189,-1.115941,14.487542,5.537749
1003.027344,10.534407,3.778151,5.335175,1.417027
1003.031250,15.324743,7.810938,15.620392,12.650054
1003.035156,5.970677,9.261903,11.036272,7.066253
1003.039062,6.339303,6.171752,10.754828,4.993130
1003.042969,-0.753988,-0.985419,-3.412435,13.170890
1003.046875,1.587618,4.548702,6.580523,2.668499
1003.050781,-4.862596,1.175568,0.821103,4.944892
1003.054688,-6.341985,-1.344540,3.766748,-0.691253
1003.058594,3.194636,-5.103283,-6.423690,-8.834935
1003.062500,-8.469682,-9.086117,0.451376,-5.261860
1003.066406,-11.811060,-11.037631,-5.020985,-12.800229
1003.070312,-8.280536,-7.202695,-7.925467,-9.923713
1003.074219,-16.558614,-5.750258,-11.338397,-15.071325
1003.078125,-13.428252,-12.235977,-10.818441,-11.119085
1003.082031,-10.893356,-7.354010,-13.225654,-6.815728
1003.085938,-12.237315,-13.781501,-9.338629,-3.314142
1003.089844,-1.965740,-0.223634,-3.856272,-5.954778
1003.093750,-10.000485,-1.385411,-1.006716,-4.413956
1003.097656,4.379179,1.986934,-3.821437,-1.860744
1003.101562,6.055079,0.503382,3.056720,3.559910
1003.105469,10.608735,2.701534,6.618772,4.853479
1003.109375,7.145151,0.598229,5.383856,0.044072
1003.113281,9.304922,9.606086,8.558389,8.412973
1003.117188,10.380840,12.689138,5.575028,9.931927
1003.121094,12.055019,15.389443,6.590986,11.641187
1003.125000,15.925907,12.468878,12.261488,9.402041
1003.128906,15.478714,7.685193,12.816111,10.297699
1003.132812,3.802340,14.764193,5.538006,11.348452
1003.136719,4.315483,-0.236079,11.137402,10.249636
1003.140625,0.116991,10.120647,0.561565,4.179139
1003.144531,2.585529,7.914688,6.355442,2.076805
1003.148438,-0.002364,11.946610,-2.866870,-4.701947
1003.152344,-2.670740,-1.904260,-1.823646,-3.274799
1003.156250,1.763508,-4.373536,0.794652,2.596312
1003.160156,-6.426373,-5.433744,-6.611231,-0.647808
1003.164062,-4.915034,-10.096930,-7.224766,-6.123746
1003.167969,-8.357920,-3.903991,-11.270295,-12.331133
1003.171875,-9.475507,-10.465746,-10.983646,-4.652264
1003.175781,-9.007304,-5.727658,-12.617556,-5.537355
1003.179688,-4.533224,-8.003079,-10.100436,-3.490092
1003.183594,-15.369462,-16.460463,-2.510737,-15.987657
1003.187500,-0.697182,-10.533727,-3.445144,-5.780213
1003.191406,1.290103,-0.385323,-5.022914,-9.986672
1003.195312,-4.461754,-5.083478,-1.336416,-6.721850
1003.199219,-0.713199,-3.466114,-7.296444,-2.687194
1003.203125,-7.344436,6.463612,3.256029,-2.072183
1003.207031,10.274174,14.319954,2.287854,3.096697
1003.210938,7.822381,6.570028,7.006839,3.516605
1003.214844,15.915004,8.703349,13.420660,8.864370
1003.218750,9.145650,3.723650,5.677695,13.419470
1003.222656,12.717801,12.375355,11.623796,4.787775
1003.226562,9.702876,9.910426,11.212845,13.979198
1003.230469,12.679737,14.377720,9.176612,11.108138
1003.234375,5.479247,10.207894,12.664651,15.497459
1003.238281,6.697570,7.500195,13.734340,5.423225
1003.242188,7.390747,1.829500,4.679396,8.602679
1003.246094,1.467152,6.281976,6.331934,2.627631
1003.250000,6.286821,4.117450,-4.031658,0.892227
1003.253906,-3.696201,2.871784,4.202513,1.716536
1003.257812,-7.449863,-5.379089,-3.214043,-8.172917
1003.261719,-13.445507,-0.835690,-3.390824,-8.027362
1003.265625,-2.779803,-10.318799,-13.122299,0.761937
1003.269531,-11.435658,-17.351662,-5.131864,-7.476253
1003.273438,-14.080169,-7.604124,-8.168359,-9.938948
1003.277344,-9.563848,-14.062507,-6.180028,-6.816253
1003.281250,-7.073645,-5.190465,-10.202853,-9.823309
1003.285156,-12.766939,-3.221866,-0.479683,-9.141263
1003.289062,-11.299452,-3.787206,-9.715759,-7.853775
1003.292969,0.050421,2.130328,-3.822720,1.165523
1003.296875,-1.527548,2.991834,-7.484972,-8.304683
1003.300781,4.785293,2.031656,-0.801777,-4.651706
1003.304688,5.109888,6.376240,5.279244,4.970794
1003.308594,7.177674,5.722853,4.886121,5.945355
1003.312500,3.621110,5.544009,5.574883,5.572837
1003.316406,5.257380,4.496503,8.443619,14.199852
1003.320312,15.399866,5.559422,11.564545,13.698821
1003.324219,5.112787,7.300715,2.434407,12.830810
1003.328125,8.231441,1.484461,9.640546,9.672709
1003.332031,14.633778,16.292020,10.652920,14.205931
1003.335938,5.175226,6.979754,9.258229,8.025509
1003.339844,7.505405,17.563098,6.255861,8.312175
1003.343750,2.421736,1.064311,-1.031083,1.359291
1003.347656,-1.699673,0.484164,-3.623121,-2.158436
1003.351562,-4.667849,-6.591578,-5.706748,1.170954
1003.355469,-4.539992,4.366215,-3.676393,-0.960533
1003.359375,-2.067072,-7.309427,-7.131537,-8.454455
1003.363281,-2.365649,-7.149816,-15.077381,-8.486442
1003.367188,-9.651927,-11.478160,-6.035168,-12.994587
1003.371094,-13.336086,-11.439406,-9.761210,-5.581772
1003.375000,-11.686863,-13.905372,-8.435942,-11.337876
1003.378906,-5.438202,-7.856718,-8.767003,-8.521119
1003.382812,-14.579606,-14.322424,-7.827157,-11.731905
1003.386719,-10.069713,-15.315783,-4.349820,1.113610
1003.390625,0.655038,-3.321159,1.597666,-2.867697
1003.394531,-6.687802,-0.625056,1.087167,-3.060539
1003.398438,-9.778657,-4.223589,-4.727858,-10.599328
1003.402344,4.899115,-3.247038,-4.608036,-0.300677
1003.406250,2.765943,3.909713,1.817403,6.852605
1003.410156,5.847651,9.366821,8.551341,8.862559
1003.414062,6.095535,5.166335,14.480790,11.051520
1003.417969,8.417041,7.874842,2.898111,11.330708
1003.421875,8.226584,3.950818,10.019634,5.323359
1003.425781,5.138959,12.189576,5.991764,6.996166
1003.429688,13.125195,8.607829,10.134422,10.250577
1003.433594,7.671358,10.700521,2.473762,14.170520
1003.437500,11.408711,13.047520,6.001543,7.861979
1003.441406,9.623628,7.774198,1.746690,2.233476
1003.445312,6.241422,5.932626,-4.053049,13.011432
1003.449219,7.541457,0.558931,-3.771306,7.322379
1003.453125,-5.765410,0.537899,4.313650,-9.531447
1003.457031,-1.883655,1.118350,-0.482794,-6.294605
1003.460938,-1.075728,-4.095858,-8.052303,-6.065496
1003.464844,-2.054679,-5.963016,-8.729575,-10.303255
1003.468750,-6.434405,-9.447455,-12.195588,-2.244783
1003.472656,-12.442534,-8.744316,-9.607603,-11.935235
1003.476562,-2.420040,-4.065629,-11.362859,-9.477115
1003.480469,-10.143008,-12.360601,-6.731556,-8.425696
1003.484375,-8.716169,-5.437059,-10.516618,-12.540571
1003.488281,-5.969362,-6.693742,-10.773484,0.409184
1003.492188,0.922478,-4.819848,-6.086062,-12.284300
1003.496094,-0.039344,-8.046844,-0.658391,-1.917759
1003.500000,-2.199168,4.064823,-0.402592,-1.463211
1003.503906,7.419417,3.396805,-1.206136,-0.724562
1003.507812,-0.782848,7.995872,7.067109,6.380538
1003.511719,10.759874,3.321547,12.590743,10.528901
1003.515625,13.154881,8.485214,14.957546,5.715497
1003.519531,12.254996,16.046051,7.189448,11.208159
1003.523438,13.124597,13.336473,9.577553,13.253185
1003.527344,14.205509,7.894896,9.712423,6.989433
1003.531250,7.759282,9.698913,13.347336,16.335854
1003.535156,9.361605,9.796278,8.513019,6.836942
1003.539062,7.747544,0.836897,5.421694,2.234179
1003.542969,0.840320,6.404375,2.714244,-0.767004
1003.546875,3.517452,-5.383310,2.481407,3.079993
1003.550781,1.958599,-3.838786,3.779091,2.640804
1003.554688,1.180860,6.292015,-2.788078,-0.712144
1003.558594,-6.069341,-6.443359,-7.900323,-4.699867
1003.562500,-4.213569,-6.710234,-6.650300,-7.322825
1003.566406,-14.364631,-9.396204,-9.873739,-8.886237
1003.570312,-9.528668,-7.250862,-13.480275,-12.818331
1003.574219,-11.541507,-11.286058,-14.994518,-14.725634
1003.578125,-7.297139,-10.699129,-13.966339,-8.118141
1003.582031,-12.902110,-10.487553,-8.336844,-12.980651
1003.585938,-12.574478,-11.011650,-13.730624,-3.721254
1003.589844,-1.635460,-11.500897,-9.153611,-6.869522
1003.593750,-9.099753,-2.192022,-6.500752,-9.599646
1003.597656,-0.914408,-1.669178,-4.323629,1.927004
1003.601562,-3.439659,-2.955937,-1.906378,3.228741
1003.605469,1.078770,3.182364,8.969436,7.035756
1003.609375,3.355751,10.533070,7.758206,9.486846
1003.613281,2.980619,6.325095,2.762092,6.352387
1003.617188,9.249215,1.877123,9.421315,16.922492
1003.621094,8.956952,9.369185,12.807486,9.722902
1003.625000,9.411791,5.688518,5.115042,14.724471
1003.628906,12.779862,15.084852,-1.910756,7.851803
1003.632812,6.424404,3.802928,13.037537,14.914314
1003.636719,10.445583,8.812481,5.091324,7.568255
1003.640625,12.578958,0.276554,3.047300,8.666770
1003.644531,3.198099,2.207357,6.559620,2.369171
1003.648438,-0.011861,-1.118549,0.980245,0.795827
1003.652344,5.444203,1.387285,-7.180645,1.551183
1003.656250,-7.118547,2.030398,-5.871234,2.416760
1003.660156,-0.515604,-2.044435,-4.223866,-5.803370
1003.664062,-6.140105,-5.681243,-4.495089,-14.129668
1003.667969,-10.619886,-18.216403,-8.317016,-10.723946
1003.671875,-9.371063,-6.903102,-16.903929,-10.641448
1003.675781,-8.399841,-3.688672,-20.880140,-9.044835
1003.679688,-2.924793,-3.211351,-4.684558,-4.766157
1003.683594,-8.455171,-14.870382,-5.997563,-1.759692
1003.687500,-11.032105,-2.485398,-3.932404,-1.635983
1003.691406,-2.465099,-3.870471,-4.666649,-9.667553
1003.695312,-3.393438,-2.938158,-0.635100,0.825428
1003.699219,1.820229,-5.259433,-0.577434,-4.720556
1003.703125,2.741367,-0.642105,1.811288,4.414143
1003.707031,4.698243,4.659982,7.124547,11.964405
1003.710938,7.722172,0.183551,6.107316,11.730727
1003.714844,3.827144,14.203189,11.360610,1.603953
1003.718750,14.208885,4.616412,8.533574,6.279413
1003.722656,13.078528,8.894516,8.885748,9.820173
1003.726562,11.834724,12.260877,14.666378,5.223672
1003.730469,5.754273,8.321057,10.929109,10.502236
1003.734375,10.401423,16.375087,4.258153,8.724906
1003.738281,9.869397,1.298029,7.904522,7.170133
1003.742188,3.705572,6.377258,-1.129928,7.817602
1003.746094,-5.178979,3.150182,4.108718,2.399870
1003.750000,0.900302,2.357489,1.364937,5.335778
1003.753906,-5.866433,-4.092057,-6.926266,-3.748750
1003.757812,-0.423890,0.692552,-5.280682,-7.074100
1003.761719,-8.592081,-4.405473,-7.970945,-3.720112
1003.765625,-14.267719,-12.065260,-15.149661,-3.500122
1003.769531,-4.371149,-0.490588,-5.869597,-12.614871
1003.773438,-17.670927,-3.182497,-2.068944,-4.819718
1003.777344,-2.787083,-12.403423,-8.198275,-4.752609
1003.781250,-9.734123,-5.011137,-3.410253,-5.251590
1003.785156,-6.889396,-13.088948,-11.673667,-8.037055
1003.789062,0.091004,-8.217445,-2.557157,1.360023
1003.792969,-3.194307,-0.747893,-2.717201,3.883535
1003.796875,-3.862610,-2.333872,-5.234744,-1.525814
1003.800781,-0.030773,-0.927776,-2.662056,-3.539302
1003.804688,3.514752,12.079447,-8.577577,5.688711
1003.808594,8.874735,7.716116,-0.268361,10.451136
1003.812500,8.242132,6.687253,9.123553,5.057110
1003.816406,7.653742,2.913115,10.474580,5.368949
1003.820312,9.225292,9.210071,10.598270,10.985133
1003.824219,12.176690,7.378883,9.109074,8.916175
1003.828125,5.973774,15.157961,10.403693,6.940962
1003.832031,12.971281,12.762639,6.088758,10.543963
1003.835938,7.150672,3.763567,12.684958,4.734312
1003.839844,7.005510,5.350667,10.716334,-0.601053
1003.843750,1.477515,0.646301,-3.402113,0.902047
1003.847656,-1.118003,0.413890,4.632779,0.036714
1003.851562,-0.868402,0.671098,8.375219,-2.933826
1003.855469,-6.583084,-4.750624,-5.175087,-5.036883
1003.859375,-3.076725,-8.831725,-5.678829,-9.126883
1003.863281,-13.863694,-9.070229,-10.615957,-13.007592
1003.867188,-11.221718,-6.682188,-8.100693,-11.619600
1003.871094,-12.474968,-10.822332,-6.932914,-7.827557
1003.875000,-6.017210,-10.749539,-8.122707,-15.327305
1003.878906,-4.510785,-6.933926,-11.456895,-11.239561
1003.882812,-11.291871,-5.273360,-10.176871,-4.915648
1003.886719,-10.013037,-5.427190,-6.573683,-0.218209
1003.890625,-5.899133,-4.175011,-5.426760,-8.567454
1003.894531,-8.457290,-4.517285,-4.558343,-3.360698
1003.898438,-2.931394,-2.346642,1.651525,-2.521204
1003.902344,-1.568479,2.038641,6.132273,5.600798
1003.906250,3.624811,5.503606,2.599703,6.810576
1003.910156,3.673334,3.475415,3.883743,5.915222
1003.914062,9.887270,14.014728,5.893790,7.958178
1003.917969,4.214594,7.506930,10.107379,13.730831
1003.921875,16.000342,12.365179,7.882491,14.143235
1003.925781,13.035306,19.515427,17.420357,8.387809
1003.929688,5.575698,12.441893,4.620222,4.510247
1003.933594,12.818540,16.789628,8.886647,21.778699
1003.937500,10.559368,4.393598,4.736244,8.292714
1003.941406,2.679374,-0.927292,6.003505,8.309017
1003.945312,3.399193,-1.457344,5.815797,-1.169126
1003.949219,1.714279,0.320039,6.013891,-4.353559
1003.953125,-2.622830,-4.551394,-2.042113,-2.447914
1003.957031,-1.641459,-13.071689,-2.278271,-10.655828
1003.960938,-5.499427,-9.068883,-3.060145,-7.279441
1003.964844,-3.037511,-7.106712,-15.493744,-10.837239
1003.968750,-9.536129,-11.084963,-14.454183,-12.965064
1003.972656,-7.502700,-12.300039,-7.540488,-7.423003
1003.976562,-8.804527,-13.549826,-13.710649,-12.969811
1003.980469,-9.400892,-5.481572,-7.920978,-9.364457
1003.984375,-12.338240,-4.155634,-5.629248,0.757742
1003.988281,-4.424199,-8.935734,0.169728,-5.861156
1003.992188,-0.659604,-6.530505,-7.009461,-3.011499
1003.996094,-3.634947,-8.808540,1.705917,-6.358884
1004.000000,-1.248465,3.527823,-2.119807,4.375123
1004.003906,4.609021,4.297647,7.390456,6.048940
1004.007812,-1.850650,2.950069,-1.604236,10.193716
1004.011719,6.994847,4.149659,9.807461,6.131654
1004.015625,13.511183,7.915243,12.846378,8.630864
1004.019531,4.642757,11.581577,14.732680,6.791764
1004.023438,10.614558,7.917991,9.415458,7.164849
1004.027344,6.846454,13.148554,7.716179,11.711901
1004.031250,4.743529,5.021470,2.161840,0.493745
1004.035156,6.265090,14.923647,7.189087,5.590356
1004.039062,11.409547,4.830308,4.971949,7.550842
1004.042969,-2.322091,2.715862,6.901644,3.758507
1004.046875,-2.170741,5.433057,2.762054,-5.220233
1004.050781,1.400502,-6.263120,1.153654,0.288635
1004.054688,5.083593,-4.497502,-6.086196,-3.654136
1004.058594,-2.362546,-0.799060,-9.355583,-4.805205
1004.062500,-10.199167,-6.491093,-12.908428,-10.637076
1004.066406,-9.178786,-6.348421,-10.454309,-5.350216
1004.070312,-14.273561,-9.116292,-8.458569,-17.485069
1004.074219,-3.688816,-5.659078,-12.750403,-8.367296
1004.078125,-3.009809,-9.134434,-8.631385,-15.452523
1004.082031,-6.449867,-6.366612,-7.523825,-11.816235
1004.085938,-6.233629,-8.208491,-3.898777,2.646545
1004.089844,-10.189237,-10.287167,-12.269237,-2.762843
1004.093750,-4.111428,-10.339976,1.786634,-4.536392
1004.097656,-9.204486,5.660861,-2.784912,-6.912616
1004.101562,-3.857420,-2.883754,0.663347,4.359051
1004.105469,3.459407,5.431443,10.505109,10.855332
1004.109375,0.282257,6.756069,9.255024,2.937969
1004.113281,8.402513,8.070399,9.334818,-0.889945
1004.117188,10.717763,7.303115,9.839192,8.037948
1004.121094,11.792055,3.940082,1.719723,16.759137
1004.125000,14.218200,9.748169,13.495345,3.868795
1004.128906,12.073669,11.689404,6.962966,16.330688
1004.132812,5.105894,9.872195,14.181207,4.864007
1004.136719,2.771028,2.285952,8.401511,2.931208
1004.140625,14.098775,6.746541,2.290110,8.894596
1004.144531,-0.017827,-3.626565,1.918146,2.805171
1004.148438,6.086810,0.403813,-0.596184,6.356556
1004.152344,-3.505125,0.872665,0.400708,-1.465695
1004.156250,-1.750545,-3.770418,-6.295034,-2.379404
1004.160156,-5.721949,-7.238809,2.744019,-8.826605
1004.164062,-14.411008,-10.285083,-11.747096,-12.929988
1004.167969,-10.234426,-6.396346,-2.583765,-11.237528
1004.171875,-19.023397,-9.986660,-6.592177,-8.327713
1004.175781,-7.430748,-10.149907,-10.608054,-8.681216
1004.179688,-13.328254,-10.249596,-7.360382,-6.903859
1004.183594,-9.423199,-2.355297,-4.966880,-5.792548
1004.187500,-9.300580,-5.455096,-10.473233,-3.940953
1004.191406,-4.837687,0.808245,-1.424491,-1.443401
1004.195312,-6.508426,-3.660376,-0.832045,-4.959403
1004.199219,6.240924,-2.497279,1.072518,-3.544691
1004.203125,-6.173809,6.898379,0.431804,3.561382
1004.207031,2.899698,0.685365,4.036536,3.889490
1004.210938,4.720072,0.480012,2.553707,4.800312
1004.214844,3.552167,6.528362,9.937984,12.920981
1004.218750,7.899833,10.573346,10.771345,11.815526
1004.222656,5.683856,7.793474,7.660045,9.824024
1004.226562,14.169121,13.301623,7.254881,13.706361
1004.230469,9.740656,10.071894,4.995441,11.930488
1004.234375,12.535114,7.453200,4.412858,8.019836
1004.238281,4.076642,-2.206169,1.636666,6.587069
1004.242188,12.898674,5.328875,9.326425,7.672334
1004.246094,5.346409,2.153919,4.149146,2.048938
1004.250000,0.696433,0.928402,-7.526993,4.641828
1004.253906,0.712063,-4.316013,-1.759427,-1.848228
1004.257812,-1.417515,-5.563754,4.509060,-5.573468
1004.261719,-6.739871,-7.137634,-10.040514,-2.566683
1004.265625,-3.863989,-11.051206,-9.565045,-3.721838
1004.269531,-6.903327,-8.002617,-16.912699,-9.493975
1004.273438,-6.199860,-12.902333,-8.195538,-4.900336
1004.277344,-7.665476,-7.358212,-7.313172,-5.657211
1004.281250,-16.735853,-6.606271,-6.531867,-9.549825
1004.285156,-12.165252,-3.122541,-2.343187,-4.724388
1004.289062,-6.225813,-9.119068,-7.586912,-8.974325
1004.292969,-4.142210,-3.891115,-6.272299,-6.793830
1004.296875,-3.752838,-0.653901,-3.244216,-2.985528
1004.300781,2.505655,4.848044,5.127289,0.825972
1004.304688,11.434866,1.678944,4.439353,5.396072
1004.308594,8.573976,0.168286,9.879293,0.067610
1004.312500,-1.067396,11.256353,3.207003,-2.686973
1004.316406,9.991666,4.124582,9.368489,9.990912
1004.320312,2.183726,1.458842,11.709725,14.048729
1004.324219,13.876310,6.146325,11.306468,6.381584
1004.328125,3.219272,2.227563,15.146506,5.788809
1004.332031,3.070529,12.457849,10.535760,2.831407
1004.335938,2.264765,0.724955,9.204781,5.511471
1004.339844,3.375712,5.098412,2.759301,-0.472797
1004.343750,5.321414,11.699266,3.122374,12.187756
1004.347656,0.112259,1.831022,-0.301194,-3.282442
1004.351562,-1.803687,1.061633,1.622651,-3.989576
1004.355469,2.846240,0.876941,-2.210297,1.550596
1004.359375,-5.518411,-3.258644,-8.314610,-9.500583
1004.363281,-14.139267,-7.445654,-4.268626,-10.577917
1004.367188,-13.353388,-7.801484,-7.343937,-12.206254
1004.371094,-9.523602,-10.972212,-7.333171,-11.965338
1004.375000,-5.876341,-6.149343,-18.792814,-7.671527
1004.378906,-7.921254,-10.469304,-8.995088,-11.413927
1004.382812,-5.247503,-9.856269,-5.815898,-5.396138
1004.386719,-8.059717,-7.020930,-1.040755,-8.604093
1004.390625,-7.067770,-5.985800,-6.239036,-2.417998
1004.394531,-5.770351,3.444348,-0.545021,-3.164272
1004.398438,4.637276,-1.126286,-5.397716,2.332847
1004.402344,1.977594,-0.786031,-1.375206,2.819194
1004.406250,-4.341080,2.309948,3.383190,2.694493
1004.410156,4.914804,6.838773,9.107434,9.855202
1004.414062,6.954736,7.660203,7.287153,3.012564
1004.417969,4.842833,1.460010,11.740683,9.663467
1004.421875,8.646950,9.502588,4.183480,15.938866
1004.425781,14.898743,9.072035,6.110185,5.916335
1004.429688,9.397776,9.854955,13.347540,13.426134
1004.433594,15.119852,7.976098,9.600297,10.574273
1004.437500,7.437118,2.330313,3.490178,11.047163
1004.441406,0.782342,-0.292892,7.122685,7.355354
1004.445312,0.472245,7.492051,-0.209863,7.376432
1004.449219,-2.547403,2.432909,4.795447,7.099694
1004.453125,-8.101921,-1.657069,-2.292143,-1.363996
1004.457031,-7.908022,-4.959801,-6.321322,-6.095875
1004.460938,-4.846880,-7.772663,-4.390969,-4.480133
1004.464844,-6.816849,1.921477,-7.911737,-0.169879
1004.468750,-9.572174,-7.838126,-11.073692,-6.520012
1004.472656,-2.216750,-13.479642,-0.856328,-11.181575
1004.476562,-14.586921,-16.280238,-9.749523,-14.585713
1004.480469,-12.764925,-13.765421,-9.617249,0.739562
1004.484375,-9.487478,-10.548776,-10.199809,-6.494440
1004.488281,-9.055516,-3.970163,-0.007062,-5.933688
1004.492188,-8.429772,-10.537472,-11.576880,0.820616
1004.496094,0.575015,-2.876438,-6.276754,-1.671227
1004.500000,-1.565295,2.355299,7.860299,-6.507807
1004.503906,3.034127,8.036303,3.897621,2.530196
1004.507812,6.044295,0.899667,13.496240,0.586451
1004.511719,3.048609,4.260800,0.505057,4.309251
1004.515625,6.616007,2.864803,8.954314,13.813128
1004.519531,10.384004,13.291941,15.231518,7.022897
1004.523438,5.483226,8.947420,8.265026,9.147181
1004.527344,7.989431,10.298531,10.473798,13.304849
1004.531250,16.391852,18.646643,9.003916,13.795904
1004.535156,7.386694,6.006894,7.334701,2.293635
1004.539062,7.968211,1.138209,17.212413,-1.455040
1004.542969,0.312613,2.075722,8.253370,3.949556
1004.546875,-6.183611,-5.214667,-6.982781,3.396805
1004.550781,-3.049195,6.997535,-1.386054,-1.470302
1004.554688,-2.736471,-1.387020,-5.540439,-1.508432
1004.558594,-9.061803,-6.345018,-3.036444,-3.155291
1004.562500,-8.443526,-17.799796,-4.603673,-12.551910
1004.566406,-3.847510,-5.624889,-10.768588,-5.578714
1004.570312,-8.443558,-8.228042,-11.176642,-11.511571
1004.574219,-6.809372,-13.689607,-9.321024,-8.674126
1004.578125,-7.910403,-2.942280,-10.396603,-0.307038
1004.582031,-7.364142,-8.434688,-9.579414,-0.420402
1004.585938,-5.257897,-13.745125,-10.486784,-4.627730
1004.589844,-13.277845,-8.373867,-7.708156,-2.095368
1004.593750,-3.103078,0.152867,2.171174,-4.398200
1004.597656,0.883511,-2.577417,0.168221,-0.401952
1004.601562,2.789423,0.891383,0.212562,5.380820
1004.605469,-1.183961,6.415805,1.344603,3.391284
1004.609375,3.361439,5.087061,-1.265035,12.764833
1004.613281,5.118255,4.551757,8.871467,4.131456
1004.617188,12.400295,9.981607,1.204426,9.942987
1004.621094,14.100998,6.066987,14.880469,12.049472
1004.625000,6.561684,9.450015,20.243410,10.773414
1004.628906,6.696081,11.823620,11.744589,13.446345
1004.632812,10.052890,11.292590,3.639833,14.026189
1004.636719,4.603341,11.549522,3.544743,13.979004
1004.640625,9.638126,7.478451,7.728769,12.768561
1004.644531,-2.599306,-4.130262,-0.462577,-0.277314
1004.648438,1.551712,5.550375,-1.463327,-0.396886
1004.652344,-0.820000,2.242069,-5.366908,-7.091781
1004.656250,1.457853,-1.075962,1.534515,2.024082
1004.660156,-4.821055,-11.714691,-3.679691,-3.154390
1004.664062,-12.081138,-15.296222,-10.769059,-7.172304
1004.667969,-9.525894,-17.262752,-1.072537,-2.345356
1004.671875,-3.263953,-3.908701,-13.888302,-6.704101
1004.675781,-15.530102,-11.230431,-13.040758,-13.118681
1004.679688,-9.082462,-2.729050,-3.118221,-8.658076
1004.683594,-3.287854,-8.276283,-11.122170,-9.206435
1004.687500,-10.248523,-8.930153,-12.721172,-9.267859
1004.691406,-8.200937,-4.049714,0.969704,-4.473286
1004.695312,-7.365714,0.410350,-10.325083,-0.015422
1004.699219,2.239365,-4.687496,4.933742,-0.685695
1004.703125,4.131078,-2.495809,7.254354,4.700094
1004.707031,4.052422,9.023925,1.748593,2.798510
1004.710938,-0.259831,-1.900229,10.311693,6.730487
1004.714844,9.232006,5.947329,14.201539,8.944075
1004.718750,8.573105,16.677030,11.306356,8.527206
1004.722656,12.961174,5.446135,2.870779,14.928670
1004.726562,8.296624,7.171471,13.557835,8.630492
1004.730469,1.119648,8.651193,8.121826,13.410747
1004.734375,6.993447,1.266533,3.625694,7.905127
1004.738281,7.736155,7.679630,1.781011,1.526564
1004.742188,7.779499,5.328645,3.873554,2.918328
1004.746094,-2.661953,0.839329,0.178431,-3.148178
1004.750000,1.540232,-1.303708,3.672332,-3.041548
1004.753906,-5.957898,-0.147558,-2.592130,-1.974435
1004.757812,0.952474,-8.551851,-7.841840,-3.495808
1004.761719,-8.349958,-9.842911,-7.106140,-10.682356
1004.765625,-5.174541,-9.469563,-9.654834,-13.248067
1004.769531,-6.417731,-7.903638,-5.602498,-10.088715
1004.773438,-11.512229,-5.267848,-10.675936,-10.445435
1004.777344,-13.129573,-9.963256,-12.082642,-8.598305
1004.781250,-7.190280,-11.501356,-5.948474,-6.653606
1004.785156,-3.105907,-4.987273,-1.752716,-3.359078
1004.789062,-2.430680,-14.743419,-10.914333,-7.377583
1004.792969,2.187080,-5.188625,-10.393622,-8.851020
1004.796875,-3.482687,-2.574001,-4.355405,0.273616
1004.800781,-7.132498,2.169238,3.832535,-1.907277
1004.804688,6.412425,2.265485,3.006737,4.883637
1004.808594,6.298222,11.010473,-0.594424,9.164070
1004.812500,8.260088,-0.277625,2.357925,7.324180
1004.816406,5.427651,5.822983,14.137760,10.011729
1004.820312,15.236085,2.210134,8.408580,13.433411
1004.824219,10.926935,12.171294,7.505313,9.013996
1004.828125,11.009403,11.788123,5.725498,5.275058
1004.832031,6.384117,10.364868,13.269778,10.916283
1004.835938,2.090687,5.475021,7.098367,9.646925
1004.839844,3.906158,3.958522,2.243689,3.713337
1004.843750,3.737617,10.323598,1.212187,9.865742
1004.847656,2.567026,9.723696,-2.182455,-1.525300
1004.851562,-1.979616,-3.835370,-2.681596,1.148617
1004.855469,0.629055,-8.344099,3.145121,-3.185149
1004.859375,-9.681525,-4.850490,-2.635758,-6.811996
1004.863281,-9.134269,-0.273912,-4.885619,-10.880934
1004.867188,-11.685174,-10.531216,-3.548912,-4.136332
1004.871094,-8.555497,-7.360161,-4.453852,-12.963613
1004.875000,-16.372206,-6.053706,-3.803950,-15.440410
1004.878906,-6.429543,-5.404064,-12.313365,-1.789253
1004.882812,-7.419614,-12.352845,-11.020001,-10.525118
1004.886719,-9.310089,-3.057462,-1.650089,-9.823433
1004.890625,-5.484961,-5.239869,-12.414466,-5.774181
1004.894531,-0.301392,-3.133910,3.461501,-8.045631
1004.898438,-5.386783,-2.272165,2.543859,-5.550553
1004.902344,3.303820,-3.076736,-0.061564,4.194798
1004.906250,5.190848,5.466493,0.538450,6.284726
1004.910156,7.660667,-4.857229,6.204823,12.873778
1004.914062,2.521883,11.573962,4.781551,4.205220
1004.917969,7.629179,20.716468,11.985054,6.486626
1004.921875,1.378639,13.236113,7.366398,13.762371
1004.925781,10.222568,9.117483,12.613847,11.984947
1004.929688,11.817293,13.660280,7.492417,10.301541
1004.933594,5.532215,13.958750,7.308358,10.725956
1004.937500,4.275229,14.513660,1.108572,9.957410
1004.941406,10.572013,4.745110,-2.003957,10.577341
1004.945312,-0.913051,5.019275,0.652286,5.116849
1004.949219,-1.243186,0.334267,-0.244699,-1.904214
1004.953125,-1.021837,-6.514794,-0.005528,-4.986825
1004.957031,-6.489747,-2.138561,-0.638013,-1.961387
1004.960938,-6.973482,-9.826592,-8.764673,-2.698048
1004.964844,-3.657952,-13.303414,-6.448350,-6.015419
1004.968750,-12.047726,-6.704387,-8.765885,-2.390096
1004.972656,-14.706009,-11.844378,-9.197337,-15.956328
1004.976562,-18.231930,-7.932708,-15.941275,-8.287801
1004.980469,-8.217046,-8.873272,-11.406675,-11.816290
1004.984375,-10.052963,-7.022381,3.402620,-14.988776
1004.988281,-10.065409,-11.147173,-5.766508,-5.958890
1004.992188,-3.160020,-9.598365,-1.394323,-8.942721
1004.996094,0.731875,-4.265893,-2.488980,-0.130534
1005.000000,-2.122754,-6.720110,-1.987619,-5.826664
1005.003906,4.037542,3.928182,2.373394,4.379011
1005.007812,2.391293,-0.998520,8.617527,9.905005
1005.011719,6.530596,12.631326,0.268586,10.888141
1005.015625,8.602857,7.414088,6.187319,7.782499
1005.019531,10.180440,3.361656,9.561336,11.136874
1005.023438,13.031880,11.214683,6.973337,11.127599
1005.027344,13.219721,11.850441,11.589862,5.020864
1005.031250,6.169458,4.590695,3.691833,9.118259
1005.035156,5.410041,3.118526,6.624343,8.122350
1005.039062,7.504295,4.272471,10.499349,4.404664
1005.042969,1.748647,1.471229,1.937473,4.035284
1005.046875,2.492879,8.057580,9.508719,-1.948336
1005.050781,1.187649,5.253267,-2.801899,-3.103800
1005.054688,0.910915,-3.010504,-5.463399,-1.337636
1005.058594,-0.234849,-7.351588,-8.035819,-3.036677
1005.062500,-2.760002,-6.769296,-5.309603,-9.411538
1005.066406,-15.398743,-13.390716,-17.393240,-8.972759
1005.070312,-6.903028,-8.955455,-6.983001,-7.697574
1005.074219,-5.018517,-7.580931,-11.281288,-5.672336
1005.078125,-10.048817,-14.952863,-4.239894,-11.946109
1005.082031,-4.410950,-10.647332,-11.050560,-8.117113
1005.085938,-9.826833,-5.516915,-11.185402,-3.224194
1005.089844,-4.391891,-0.651337,-6.127572,-2.452985
1005.093750,-8.892205,1.210465,-7.292066,-2.360559
1005.097656,-5.378897,-1.612969,1.806090,-1.142320
1005.101562,3.303722,5.197824,-4.399916,-0.920539
1005.105469,-5.228754,1.614591,3.185474,3.840584
1005.109375,6.581710,12.319735,4.584136,7.816750
1005.113281,16.340362,5.883509,6.851670,13.918717
1005.117188,10.884656,6.054608,3.961950,12.132940
1005.121094,16.810109,8.622343,4.740900,8.772704
1005.125000,17.517525,10.343278,11.403859,14.089717
1005.128906,12.186757,3.618124,5.460583,12.787222
1005.132812,11.423559,10.792972,15.701089,6.589250
1005.136719,3.663996,11.530530,5.947031,8.776819
1005.140625,3.753657,1.409536,3.613209,4.030124
1005.144531,4.339485,3.727219,2.195139,-3.130376
1005.148438,-4.611198,-4.767014,-0.582154,6.393623
1005.152344,-2.968215,-1.103195,3.587397,0.997148
1005.156250,-4.752815,-3.864580,-11.355031,2.121066
1005.160156,-3.892842,1.725580,-3.419797,-5.208808
1005.164062,-13.197668,-9.675265,-13.368891,-12.930815
1005.167969,-3.799888,-10.649952,-10.893516,0.261202
1005.171875,-5.872855,-4.472814,-6.801913,-8.591745
1005.175781,0.561309,-11.353299,-11.619544,-12.297456
1005.179688,-12.950955,-4.436639,-13.706345,-8.074410
1005.183594,-10.142988,-10.549264,-4.673664,-5.648861
1005.187500,-4.876787,-10.830100,-3.471333,-6.812525
1005.191406,2.941335,-4.015670,-3.132823,-10.472633
1005.195312,-3.758560,-7.551073,1.953130,-2.514598
1005.199219,0.181437,4.213037,-7.032464,1.448244
1005.203125,4.170457,9.094660,8.490000,0.690327
1005.207031,1.197610,2.078854,-0.386432,1.009885
1005.210938,3.036382,6.926058,14.740248,6.582985
1005.214844,5.603345,7.777748,5.192540,6.435744
1005.218750,7.175006,-0.345065,16.932896,15.934120
1005.222656,11.510135,3.278586,12.456495,14.614844
1005.226562,13.027458,18.979965,18.053766,9.638926
1005.230469,16.960554,7.854294,7.081337,8.688080
1005.234375,8.552991,6.046760,4.758007,10.028938
1005.238281,2.217372,9.531571,-1.877283,5.111667
1005.242188,5.039280,6.708952,7.482677,3.140249
1005.246094,9.947792,8.079847,6.465808,-0.043787
1005.250000,-2.669916,-4.077425,-5.391237,-6.695411
1005.253906,-2.879254,-5.252939,-5.458692,-6.529609
1005.257812,-5.962116,-4.742393,-1.631197,-3.677278
1005.261719,-8.897580,-7.989949,-2.208753,-8.413674
1005.265625,-3.304065,-14.769639,-1.570758,-8.204689
1005.269531,-12.763147,-6.539835,-15.739532,-4.109347
1005.273438,-9.372606,-11.959800,-9.258639,-3.680648
1005.277344,-2.964944,-10.529446,-6.173683,-2.624435
1005.281250,-10.357758,-9.346617,-12.803205,-14.588663
1005.285156,-11.021828,-1.282059,-9.754500,-6.905276
1005.289062,-7.333231,-0.332066,-9.208189,-10.856546
1005.292969,-2.080992,-5.391697,-2.313157,-4.195014
1005.296875,-2.911710,-3.741324,-6.076412,6.388417
1005.300781,-12.420936,-1.885010,-3.286898,2.777670
1005.304688,6.394994,2.615143,-0.278585,4.534787
1005.308594,8.572118,6.817408,3.425360,15.965902
1005.312500,3.935798,5.392008,12.942038,10.969853
1005.316406,12.867975,5.506161,10.863926,7.250537
1005.320312,9.972865,7.458911,11.189778,-2.461474
1005.324219,11.727377,4.239465,14.947347,6.104696
1005.328125,6.581518,12.267795,14.771367,13.010914
1005.332031,6.886384,9.297399,9.414378,10.579758
1005.335938,4.738506,8.027789,7.518239,13.624317
1005.339844,7.702286,6.647538,11.290684,6.276836
1005.343750,2.928944,5.652718,2.111449,5.522000
1005.347656,-0.165733,-3.925532,-2.213207,6.702417
1005.351562,-1.044265,-2.350029,-3.149729,1.438790
1005.355469,-0.161380,-5.860818,-4.694715,-4.623847
1005.359375,-3.255895,-7.323461,-6.348004,-12.921356
1005.363281,-7.534262,-9.119646,-4.080450,-13.251190
1005.367188,-6.484963,-10.365314,-6.910341,-9.347289
1005.371094,-5.101748,-5.417621,-18.620777,-12.432366
1005.375000,-10.680820,-5.113419,-12.721425,-11.673122
1005.378906,-6.180078,-9.439114,-8.661964,-4.094116
1005.382812,-9.386075,-6.365105,-7.400955,-4.891408
1005.386719,-7.656698,-5.354323,-0.559815,-8.118342
1005.390625,-2.429710,-3.079928,-6.071794,-4.190325
1005.394531,-4.916122,-4.350683,-4.241700,1.349514
1005.398438,9.110839,-6.756640,-9.710602,-3.813227
1005.402344,0.441798,-4.069775,2.696220,-2.350740
1005.406250,6.008089,-2.985271,5.142584,8.881307
1005.410156,7.465609,0.227148,12.300240,4.083652
1005.414062,7.779833,9.928007,10.441559,15.043828
1005.417969,1.760332,0.005971,3.888373,9.743788
1005.421875,17.588994,18.387378,10.133944,16.468569
1005.425781,15.090926,13.414321,6.638244,5.679948
1005.429688,14.628915,7.922031,12.167124,11.433899
1005.433594,3.239908,5.971103,17.590930,1.875914
1005.437500,1.485444,6.846761,5.638432,8.163760
1005.441406,-1.552119,3.742795,4.998019,10.071433
1005.445312,1.096886,6.105565,2.280304,2.645782
1005.449219,4.464379,6.253705,5.980921,2.888918
1005.453125,-3.051293,1.465752,2.504586,0.370241
1005.457031,-4.714801,-7.143221,-4.469295,-10.667317
1005.460938,-9.015380,-4.904846,-5.981156,-5.689482
1005.464844,-8.099692,-8.283477,-1.325052,-16.655591
1005.468750,-10.841345,-4.816102,-8.711347,-5.718671
1005.472656,-10.228849,-6.575844,-13.947867,-7.538082
1005.476562,-10.244262,-8.985294,-12.510852,-14.488026
1005.480469,-13.273787,-5.791799,-10.229587,-7.803879
1005.484375,-5.660742,-5.264514,-9.922534,-12.813029
1005.488281,2.428288,-9.350907,-7.323141,-11.626356
1005.492188,-2.132275,1.780097,-6.615589,-0.540853
1005.496094,-6.412583,-4.852936,0.626643,-10.353924
1005.500000,2.167138,2.624096,-3.682975,5.057854
1005.503906,0.215205,2.357790,4.337790,0.671658
1005.507812,8.437416,-0.144173,7.120263,5.294656
1005.511719,13.720819,3.674225,7.115911,7.253567
1005.515625,3.668008,12.738377,14.033483,6.631511
1005.519531,5.163226,7.964512,10.020932,12.140205
1005.523438,15.482670,12.151497,9.456958,11.032060
1005.527344,7.229586,5.749316,9.801070,9.751887
1005.531250,16.291877,5.696592,13.065136,8.694414
1005.535156,2.286348,5.141401,5.682664,0.856477
1005.539062,0.703857,4.980290,5.941851,2.512413
1005.542969,10.170789,1.490938,-1.662741,5.154152
1005.546875,0.992812,5.273159,5.278302,2.691734
1005.550781,-1.518712,3.876529,-5.537458,-4.749796
1005.554688,-2.846677,-7.370586,-2.611437,-2.874463
1005.558594,-7.979411,-5.627093,-1.122954,3.487462
1005.562500,-0.899911,-14.017983,-3.278188,-13.876503
1005.566406,-5.226341,-9.339938,-10.829649,-7.146744
1005.570312,-2.046428,-15.188062,-15.515004,-13.717446
1005.574219,-12.804684,-8.951197,-7.523351,-13.364183
1005.578125,-9.522816,-9.220883,-7.684103,-9.856269
1005.582031,-15.064944,-5.593216,-7.600479,-2.747747
1005.585938,-9.402302,-9.944870,-7.059098,-9.257676
1005.589844,-1.473311,-0.925956,-10.177144,1.559380
1005.593750,4.484656,-3.906806,-7.415782,-5.393703
1005.597656,0.899115,3.373762,-4.630905,-3.029349
1005.601562,-0.332406,4.027325,-2.281493,1.590230
1005.605469,4.531202,5.679493,5.967318,3.508023
1005.609375,8.371132,4.234831,2.299584,9.925502
1005.613281,7.665858,5.960380,17.914303,8.112368
1005.617188,4.694741,12.095514,11.890398,9.747620
1005.621094,13.362659,7.294320,12.168588,10.067404
1005.625000,13.350322,7.908187,9.226981,11.346683
1005.628906,2.719230,7.228747,9.401689,17.869735
1005.632812,6.664678,8.735892,9.866367,12.147316
1005.636719,5.513837,7.482075,10.684373,-0.545706
1005.640625,2.770307,11.268443,5.984366,-6.718100
1005.644531,7.582381,7.049893,0.518068,4.141640
1005.648438,2.510602,3.466018,-5.370443,2.171267
1005.652344,0.499515,2.013481,5.015497,-6.224272
1005.656250,-5.446445,-5.289649,1.778941,2.924656
1005.660156,-7.156531,-8.759870,-2.469664,-7.546379
1005.664062,-17.521963,-5.887144,-8.817357,-5.555434
1005.667969,-10.002076,-11.297336,-6.355237,-1.340427
1005.671875,-11.961712,-8.661583,-15.870660,-13.567463
1005.675781,-11.270248,0.070972,-8.984237,-8.289871
1005.679688,-1.458327,-19.137857,-9.593335,-6.803888
1005.683594,-8.604830,-6.360756,-7.304040,-10.082828
1005.687500,-3.613740,-9.817560,-6.128855,-14.943567
1005.691406,-1.369004,-3.734101,1.629598,-3.812557
1005.695312,0.450607,-4.764848,-4.567802,-5.726807
1005.699219,-0.094833,1.565644,-2.161930,0.636097
1005.703125,-1.577171,2.592847,-0.323430,-3.096562
1005.707031,0.065655,7.248618,7.024932,7.257508
1005.710938,7.970813,1.556567,8.015065,8.238269
1005.714844,11.635269,8.304240,8.031779,9.343382
1005.718750,8.023007,6.505163,12.258761,5.892796
1005.722656,7.572025,5.443753,11.747744,5.179227
1005.726562,10.081878,10.492947,7.152893,12.231333
1005.730469,14.151411,4.659751,12.693096,4.785727
1005.734375,13.142686,4.629069,9.901130,9.707183
1005.738281,12.851803,7.418181,10.310703,6.330381
1005.742188,9.854473,3.108160,16.731944,2.683320
1005.746094,4.877983,8.239229,0.843250,4.822944
1005.750000,7.092395,5.484239,4.156491,9.496270
1005.753906,-5.318938,-9.597620,2.926554,-2.701865
1005.757812,-5.732552,-1.658625,-7.445050,-12.544856
1005.761719,-7.949203,-6.207581,-4.432716,-7.967411
1005.765625,1.773457,-10.847523,-6.440747,-19.844183
1005.769531,-7.731320,-15.486488,-8.953125,-14.503896
1005.773438,-12.635750,-15.087263,-15.595261,-6.401165
1005.777344,-10.047024,-10.268274,-6.149707,-8.122574
1005.781250,-10.718685,-1.003906,-5.621782,-12.809717
1005.785156,-5.870968,-9.583542,-8.558461,-7.618567
1005.789062,-6.164155,1.838536,-6.602310,-3.820672
1005.792969,1.404705,-2.312531,-15.375596,0.652287
1005.796875,-3.431411,-4.922202,0.833434,-2.279986
1005.800781,-2.168980,1.899121,6.422157,2.457256
1005.804688,-0.795119,10.109797,4.813506,10.275848
1005.808594,3.733067,4.124678,1.638905,4.112851
1005.812500,7.447269,5.039757,4.085240,2.213820
1005.816406,15.334307,-0.990179,11.580627,8.520599
1005.820312,14.367586,3.515525,3.104333,8.331846
1005.824219,22.245433,13.294927,13.582528,11.861314
1005.828125,16.078308,11.650328,5.135586,8.300376
1005.832031,8.148088,8.470720,10.975576,15.009514
1005.835938,10.281881,11.659339,9.296044,10.224337
1005.839844,5.993576,10.998470,9.833512,11.319558
1005.843750,-1.008910,-7.034860,6.827105,3.739493
1005.847656,1.866351,3.848275,5.695017,1.096922
1005.851562,-0.497151,-5.447650,0.589819,-2.613527
1005.855469,1.090938,-4.351471,-3.094865,4.697021
1005.859375,-2.900550,-9.821469,-9.276843,-8.609689
1005.863281,-15.288906,-5.735269,-16.279041,-4.936094
1005.867188,0.143637,-6.876189,-11.736091,-7.357803
1005.871094,-10.597283,-12.037192,-13.266063,-8.159944
1005.875000,-9.776713,-11.227961,-11.810186,-12.433257
1005.878906,-15.689271,-9.769313,-5.165026,-11.561817
1005.882812,-8.384907,-13.158257,-11.027665,-7.866126
1005.886719,-10.482778,-3.689032,1.536830,-6.576392
1005.890625,-1.481858,-7.698020,-4.323955,-10.530631
1005.894531,-3.137365,-0.782416,1.336317,4.200043
1005.898438,2.395427,-3.387342,3.274530,2.323223
1005.902344,7.240997,-3.728698,5.692738,1.927449
1005.906250,2.367255,-1.432814,6.872351,3.144541
1005.910156,2.746241,3.413796,2.832783,4.902534
1005.914062,3.459830,9.130839,-0.185841,5.596365
1005.917969,3.914910,5.811385,6.429947,9.891908
1005.921875,15.440373,8.023917,4.179648,7.026261
1005.925781,12.011216,14.307293,10.331963,10.509273
1005.929688,14.106759,2.971834,9.813249,5.748190
1005.933594,9.061236,10.473506,8.549587,16.009024
1005.937500,5.050519,6.853549,10.221198,3.780266
1005.941406,10.214099,7.012006,7.852649,4.282174
1005.945312,0.025201,-3.628296,1.823446,4.351412
1005.949219,3.666035,2.133088,7.413601,-1.673078
1005.953125,-0.530659,-2.701731,-10.085037,-9.308984
1005.957031,-0.723026,-6.246487,-2.189664,3.318046
1005.960938,-3.247856,-4.709110,-12.483107,-6.864010
1005.964844,-3.344869,-9.290141,-6.484078,-6.627560
1005.968750,-7.449287,-7.150259,-12.473261,-15.087244
1005.972656,-12.085366,-15.646708,-2.736508,-8.540660
1005.976562,-6.185779,-14.784862,-14.857781,-3.412080
1005.980469,-11.370666,-5.048117,0.291412,-15.436736
1005.984375,-8.304326,-16.471653,-5.802850,-4.059829
1005.988281,-9.131601,-11.498706,-4.853007,-2.993255
1005.992188,-0.439659,-8.560803,-10.761772,-1.052817
1005.996094,-3.752006,-6.660268,-4.256569,-5.883322
1006.000000,-3.589816,2.904202,-1.765658,-3.095362
1006.003906,6.218251,1.053058,3.854628,-0.168055
1006.007812,2.009903,5.543848,1.107003,-1.153813
1006.011719,4.490817,2.935139,5.394261,9.857202
1006.015625,14.719012,9.088417,10.190872,11.737072
1006.019531,4.365382,11.205412,8.073567,13.380759
1006.023438,10.864654,10.533006,17.995305,13.662233
1006.027344,9.331827,3.837005,0.686126,5.301528
1006.031250,4.691685,7.446066,7.706522,10.953471
1006.035156,5.607496,4.595697,11.036001,-0.995868
1006.039062,2.285180,3.680251,1.898099,0.792971
1006.042969,4.325758,-6.062253,3.917934,6.486398
1006.046875,2.434384,0.180434,7.314321,4.755954
1006.050781,-10.149829,-5.040316,-2.858914,2.251285
1006.054688,-0.219923,-10.693049,-6.812340,4.492318
1006.058594,-0.352956,-4.876338,-8.097445,-3.894147
1006.062500,-7.951660,-3.946757,-1.474647,-6.928507
1006.066406,-14.759790,-7.035552,-7.960051,-8.306417
1006.070312,-15.209942,-12.039383,-14.408300,-12.059112
1006.074219,-15.658023,-7.425083,-4.635633,-7.331453
1006.078125,-16.299798,-15.173468,-6.297675,-8.295396
1006.082031,-5.297075,-14.509445,-6.303544,-1.891180
1006.085938,-11.483825,-13.994735,-12.557721,-10.657259
1006.089844,-4.101986,-10.630748,-10.546529,-14.614481
1006.093750,-7.949254,-3.199268,-0.728120,-8.253038
1006.097656,-4.241057,-4.552149,8.639079,-1.184559
1006.101562,-3.749170,-2.024907,0.191941,-6.719993
1006.105469,4.918695,8.176031,7.294657,-0.513116
1006.109375,10.435693,2.990242,3.557257,3.820181
1006.113281,1.119572,10.545168,12.778699,4.586086
1006.117188,7.887526,14.393063,6.662187,5.835063
1006.121094,9.659661,6.941950,7.398287,2.643667
1006.125000,14.722454,4.624937,12.944121,12.783082
1006.128906,12.094328,3.670951,-0.619654,9.329327
1006.132812,14.125388,8.188798,6.214519,1.578060
1006.136719,1.443498,4.386474,7.753878,6.377008
1006.140625,8.649714,6.140678,6.842249,0.694868
1006.144531,11.804834,-4.176514,3.127114,-0.311978
1006.148438,-2.711950,-1.776479,-2.678750,-2.744651
1006.152344,-0.663830,-0.326768,-5.492293,-0.572437
1006.156250,2.446649,1.228128,-7.545607,-4.613995
1006.160156,-2.516942,-8.292332,-7.110697,-15.960243
1006.164062,-11.742143,-3.280932,-2.219140,-0.573949
1006.167969,-10.684469,-10.339317,-12.425409,-7.426107
1006.171875,-10.901007,-16.050394,-4.555914,-4.500798
1006.175781,-3.432206,-9.590640,-8.672737,-11.231150
1006.179688,-11.128897,-16.993056,-8.115596,-10.906724
1006.183594,-6.148944,-13.792058,-1.592421,-9.420103
1006.187500,-2.354000,-8.581650,-10.856106,-8.916746
1006.191406,-12.925435,-2.448258,-8.864192,-6.964313
1006.195312,-0.960634,-2.797198,-0.570619,-8.994907
1006.199219,-3.406220,0.150881,-11.831042,-3.080319
1006.203125,5.514301,-3.486886,0.150089,-2.095433
1006.207031,11.080672,-0.516125,0.657906,5.207450
1006.210938,16.964363,9.171136,18.062523,10.144844
1006.214844,6.512272,10.160492,11.442859,10.126386
1006.218750,11.594972,12.369998,4.533592,6.280878
1006.222656,11.515419,9.251397,6.021571,7.882653
1006.226562,9.371586,12.508119,13.134249,5.747601
1006.230469,10.533114,15.624605,7.714230,11.282561
1006.234375,12.004264,11.849739,2.228980,8.943712
1006.238281,5.105273,2.048365,5.162415,6.699847
1006.242188,4.094775,0.958894,2.479206,8.985241
1006.246094,-2.180274,3.522971,1.880024,6.219867
1006.250000,2.558188,-0.300284,-7.158221,-2.732775
1006.253906,-5.527971,0.570002,-6.390347,1.400242
1006.257812,-11.332219,-3.694088,-4.617387,-5.547232
1006.261719,-8.492686,-12.358157,-2.077317,-8.627036
1006.265625,-7.587850,-6.181681,-8.754893,-9.555754
1006.269531,-4.763360,-11.905080,-3.022776,-5.820600
1006.273438,-16.534950,-8.292702,-19.132439,-11.907060
1006.277344,-10.889556,-12.172642,-10.182761,-10.648803
1006.281250,-11.030081,-4.626950,-6.370250,-4.992280
1006.285156,-8.492344,-7.351465,-5.030440,-7.242375
1006.289062,-0.488828,1.018171,-7.726552,-12.252996
1006.292969,-8.578441,1.684519,-5.964969,-8.331371
1006.296875,-1.570771,1.934573,1.016146,2.671037
1006.300781,-0.571353,1.530293,-9.017735,-0.244730
1006.304688,-2.649329,10.457181,0.711068,1.294027
1006.308594,9.889579,7.394678,7.922982,1.603023
1006.312500,8.518047,2.343474,8.229949,8.976154
1006.316406,7.281121,2.321540,12.468624,7.750220
1006.320312,7.188992,12.768396,-1.973501,4.591349
1006.324219,4.351389,5.400293,12.158631,9.282004
1006.328125,10.401194,1.458825,6.174354,13.576164
1006.332031,9.614416,13.685523,4.766028,7.051113
1006.335938,12.302594,4.051655,7.198491,11.018960
1006.339844,9.678770,14.325243,5.859125,9.321854
1006.343750,-1.983365,1.646023,5.404634,8.115698
1006.347656,0.120674,0.879353,-0.376071,1.184522
1006.351562,-4.868244,-3.370725,-1.175683,-2.452112
1006.355469,-6.272863,-1.754452,-9.011366,-8.281522
1006.359375,0.108277,-5.698509,-4.339710,-3.499064
1006.363281,-9.315659,-11.895633,-6.313222,-8.383747
1006.367188,-11.984513,-2.533996,-14.209633,-1.433606
1006.371094,-7.870141,-15.223775,-5.368341,-8.371253
1006.375000,-9.010168,-11.621564,3.256147,-6.650094
1006.378906,-9.170437,-12.046899,-5.571818,-10.195295
1006.382812,-10.734619,-12.326477,-10.163443,-7.515303
1006.386719,-8.330511,-4.216824,-9.631142,-2.883762
1006.390625,-4.190034,-4.893049,-12.505851,2.583818
1006.394531,-8.099244,-8.396986,-3.094800,-0.767985
1006.398438,3.963641,-5.258816,-3.294350,3.092209
1006.402344,-0.658225,3.953000,2.185354,-3.532922
1006.406250,1.940401,7.464190,8.142950,3.406455
1006.410156,5.463289,3.741040,3.391424,-1.449625
1006.414062,0.732556,12.911578,4.731463,8.483057
1006.417969,9.885250,4.060744,9.543016,7.831506
1006.421875,5.169348,6.923231,14.841495,18.237539
1006.425781,7.669231,2.481123,16.695937,11.051066
1006.429688,6.944121,10.108531,8.478844,2.906611
1006.433594,8.884072,10.884695,18.254789,5.548050
1006.437500,2.315104,-1.915063,6.834289,0.546909
1006.441406,5.800888,8.238461,3.057183,10.744310
1006.445312,4.030116,4.949149,2.688669,6.064566
1006.449219,6.674098,-7.374494,0.544160,-4.212620
1006.453125,1.147237,2.768732,-8.284638,-0.014695
1006.457031,-9.191245,-8.028019,-6.057293,-5.615595
1006.460938,-5.610088,-4.377691,-4.919610,-2.706567
1006.464844,-11.097579,-5.741192,-6.163815,-9.960663
1006.468750,-6.808599,-9.290750,-13.362988,-7.936162
1006.472656,-5.581066,-9.537767,-9.396286,-12.241320
1006.476562,-15.454495,-15.881870,-11.706592,-14.078410
1006.480469,-10.103384,-10.593225,-16.625112,-11.028894
1006.484375,-2.626968,-11.561597,-17.355237,-14.416145
1006.488281,-8.237286,-10.866776,-8.007442,-15.449028
1006.492188,-7.741244,2.156333,-0.544856,-6.599925
1006.496094,-4.856660,-3.485866,-5.759477,0.257239
1006.500000,3.196426,0.423790,6.813222,3.993409
1006.503906,9.172114,-0.961209,6.173999,-0.608643
1006.507812,10.895402,10.064765,-0.436502,0.059317
1006.511719,8.942723,2.720470,15.553757,7.049748
1006.515625,8.553187,9.869330,6.474605,10.394721
1006.519531,6.046187,7.468166,8.070388,3.363452
1006.523438,18.413202,8.033731,0.410970,15.921880
1006.527344,6.175210,5.589994,14.587602,11.951212
1006.531250,11.047855,6.067684,13.311134,10.854482
1006.535156,6.661057,5.682018,9.195277,8.146100
1006.539062,10.333741,10.599190,-0.905626,5.601513
1006.542969,1.836250,10.122934,8.654555,1.017624
1006.546875,1.486998,-1.037614,4.356640,3.521009
1006.550781,-0.691602,4.019728,-1.832424,7.754983
1006.554688,-3.201070,-4.514736,-7.274826,-5.976915
1006.558594,-8.403189,-7.555153,-3.107287,-7.380100
1006.562500,-12.612966,-10.600369,-6.932085,-13.585053
1006.566406,-12.307800,-4.119368,-8.897001,-5.049875
1006.570312,-3.603897,-16.963095,-8.497866,-7.677255
1006.574219,-8.604764,-8.760590,0.322968,-11.861208
1006.578125,-6.998952,-12.643786,-18.794270,-11.914041
1006.582031,-7.847352,-12.948756,-10.067867,-9.930336
1006.585938,-6.856355,-8.848671,-14.021602,-4.710024
1006.589844,-1.875309,-5.832065,-4.286159,3.915567
1006.593750,-1.679738,-8.317050,-5.367906,-2.982605
1006.597656,-6.490185,-2.286090,5.006357,-0.860703
1006.601562,1.475348,2.587626,6.145196,5.484612
1006.605469,-0.412262,0.112056,5.377027,-0.060813
1006.609375,9.129039,1.851321,3.683267,11.434201
1006.613281,5.115582,12.238475,7.118190,9.263794
1006.617188,7.066936,6.028237,10.043442,13.258965
1006.621094,12.148574,8.122367,10.532751,7.426726
1006.625000,11.447736,7.998964,8.153292,11.317195
1006.628906,5.522011,12.357006,12.437115,10.345725
1006.632812,11.239750,14.255883,9.699782,5.349274
1006.636719,16.550351,6.022248,7.202785,8.336013
1006.640625,5.359551,7.379764,4.654687,0.945935
1006.644531,5.689256,2.566846,3.210441,4.901678
1006.648438,-0.648647,1.560094,-3.354801,-2.087508
1006.652344,-3.016625,0.449255,7.576937,-4.704321
1006.656250,0.781522,-6.819773,-9.968988,-0.062953
1006.660156,-4.104569,-6.452035,-8.951469,-6.465231
1006.664062,-7.516275,-6.958749,-7.236937,-15.084797
1006.667969,-6.401114,-7.142774,-12.848503,-1.392504
1006.671875,-10.046543,-8.177498,-10.090558,-13.657064
1006.675781,-12.719591,-7.326791,-9.698122,-13.122166
1006.679688,-2.002891,-8.449155,0.565254,-9.591674
1006.683594,-12.022552,-10.881862,-0.881038,-10.577232
1006.687500,-8.360358,-3.960606,-4.996634,-10.100631
1006.691406,-4.411246,-3.413525,-4.145247,-1.366070
1006.695312,-2.262653,-3.030081,-4.404606,-7.174120
1006.699219,-7.567093,-0.301062,-2.775691,-1.124656
1006.703125,2.494650,0.118818,3.226871,-0.014939
1006.707031,7.911337,4.550053,5.820645,7.645180
1006.710938,2.272284,6.376787,8.987836,2.837639
1006.714844,16.680365,13.782168,8.944054,8.540197
1006.718750,-1.120395,3.750084,11.338652,7.451343
1006.722656,4.455086,7.066894,5.587049,15.171172
1006.726562,14.947978,1.559106,13.176769,12.897585
1006.730469,9.234429,8.235406,9.808348,9.313973
1006.734375,7.628168,7.835460,9.653738,11.116960
1006.738281,13.644432,14.453829,9.796378,6.038649
1006.742188,10.360606,8.469736,2.404301,11.671573
1006.746094,-1.973549,7.355994,7.156493,2.549637
1006.750000,3.363790,5.368430,3.757062,-1.077398
1006.753906,-8.838748,2.261782,-5.941704,-3.690845
1006.757812,-9.162375,-13.880524,-8.709433,-5.050122
1006.761719,-7.874828,-3.897072,-4.316179,-7.744816
1006.765625,-7.111451,-6.198266,-7.249402,-8.010058
1006.769531,-9.085836,-1.880995,-5.246834,-15.751039
1006.773438,-6.533750,-11.566842,-17.027063,-8.233354
1006.777344,-6.825852,-7.633439,-14.620824,-5.863159
1006.781250,-10.545849,-12.666600,-6.117947,-7.588228
1006.785156,-3.825244,-4.527159,-10.142329,-11.700614
1006.789062,-3.697072,-11.697003,-4.965713,-6.956189
1006.792969,-1.869857,-2.163903,1.208555,-12.928606
1006.796875,1.223020,-0.904794,-9.087344,-5.416682
1006.800781,0.211747,1.154689,-4.259175,-7.537882
1006.804688,2.028802,1.824146,1.320915,3.044140
1006.808594,8.921731,0.791368,6.793104,7.786989
1006.812500,9.928665,12.495996,9.213832,-1.833667
1006.816406,10.360396,8.651271,8.610399,8.746250
1006.820312,12.067953,7.392857,1.835205,4.076337
1006.824219,6.058585,15.112488,10.230978,11.700497
1006.828125,10.412637,8.836804,8.160027,3.071603
1006.832031,12.540210,11.583167,4.920450,4.809514
1006.835938,9.055039,4.383363,13.164593,9.863369
1006.839844,4.235902,6.307596,4.361672,5.931076
1006.843750,0.612835,3.870598,-0.079418,1.208559
1006.847656,2.301880,13.867780,-0.842296,1.102462
1006.851562,0.188977,0.308303,-4.650800,-6.944200
1006.855469,3.181599,-2.326617,-11.771994,-4.633984
1006.859375,-0.869777,-5.118597,-9.741602,-4.323505
1006.863281,-8.991651,-8.432217,-8.504316,-13.136031
1006.867188,-8.306838,-10.040963,-4.600031,-1.544409
1006.871094,-8.292636,-0.789521,-4.460071,-15.201618
1006.875000,-2.247901,-12.714092,-11.241175,-11.765262
1006.878906,-14.622735,-2.256860,-10.892658,-9.325155
1006.882812,0.119945,-7.220515,-2.772672,-9.045202
1006.886719,-9.108132,-6.617871,-9.559849,-10.100046
1006.890625,-7.826815,2.347050,-6.186714,-3.723558
1006.894531,-3.987594,-4.334312,-8.149215,-0.701758
1006.898438,1.407973,-3.469967,-3.789949,0.657271
1006.902344,-2.239601,-4.593254,-3.995378,-2.938670
1006.906250,-1.387888,1.464389,7.838388,5.008985
1006.910156,7.839573,7.237037,2.414590,9.325166
1006.914062,4.973662,9.491040,2.687341,8.303022
1006.917969,3.431972,8.484483,10.864651,11.509781
1006.921875,10.476154,10.464658,9.892293,10.528610
1006.925781,10.387940,7.927873,10.761492,6.730064
1006.929688,12.157327,9.838132,11.936977,10.641323
1006.933594,9.970332,12.679653,4.057514,3.324882
1006.937500,7.788151,8.662071,9.713354,3.907973
1006.941406,8.340181,3.651600,9.194688,-2.268242
1006.945312,-6.181898,3.037790,6.419910,8.387184
1006.949219,1.393287,3.588023,1.039776,-8.072492
1006.953125,-4.190624,4.316243,-0.630954,1.417323
1006.957031,-7.417751,-6.583766,-4.973038,-8.320055
1006.960938,-3.650440,-7.360471,-4.098915,-1.294547
1006.964844,-10.046962,-8.581305,0.803913,-7.651236
1006.968750,-5.410211,-8.807878,-16.978262,-7.632537
1006.972656,-9.325456,-8.164472,-3.918706,-15.433696
1006.976562,-2.081144,-10.763346,-13.684930,-4.000415
1006.980469,-14.294076,-5.305691,-11.574538,-5.578166
1006.984375,-9.420600,-12.292656,-7.156522,-4.476415
1006.988281,-10.952063,-5.158622,-9.580444,-8.620167
1006.992188,-5.374677,-9.550686,-0.877344,-6.669626
1006.996094,-11.387982,-2.094306,3.568829,0.307966
1007.000000,-0.495570,7.401903,5.815447,4.849246
1007.003906,1.123644,-2.094290,-1.418557,-5.688637
1007.007812,6.957395,5.451160,3.517582,4.163153
1007.011719,9.246695,2.390054,3.378390,4.760506
1007.015625,8.612106,9.668494,12.621745,11.961191
1007.019531,7.241866,7.168825,10.616839,8.767386
1007.023438,15.233839,9.299898,11.967706,10.811641
1007.027344,9.079258,11.025124,1.765584,6.485118
1007.031250,17.090041,12.546232,8.723775,9.074325
1007.035156,7.824342,4.473410,0.529234,13.001173
1007.039062,2.974995,7.768625,4.228080,7.629721
1007.042969,0.405654,3.392868,0.199721,8.530441
1007.046875,2.235838,8.662977,-5.774438,2.718239
1007.050781,4.155773,-3.349846,0.970412,3.629117
1007.054688,-1.393726,-1.745069,-4.502604,1.937354
1007.058594,-3.838579,-11.871365,-11.846047,-10.784122
1007.062500,-6.559903,-6.128277,-14.852741,-14.525071
1007.066406,-12.164731,-3.660600,-9.331537,-9.334251
1007.070312,-11.126790,-9.276576,-2.643265,-12.453309
1007.074219,-8.613873,-10.780738,-9.666325,-6.882786
1007.078125,-9.950791,-17.238128,-10.857907,-8.525954
1007.082031,-7.743556,-11.467944,-10.152335,-7.401047
1007.085938,-1.857245,-11.405547,-4.910709,-8.197951
1007.089844,-5.599001,-7.718276,-13.002428,-3.992908
1007.093750,-3.798232,-2.274299,-7.237732,-4.281504
1007.097656,-1.266071,-1.660317,-3.531622,-2.164579
1007.101562,2.091011,1.465013,-0.661588,-9.447532
1007.105469,6.412678,7.674506,2.533396,-3.469731
1007.109375,11.566531,4.903952,2.386300,6.131280
1007.113281,7.720973,10.138174,9.299364,9.786775
1007.117188,17.121515,11.833571,8.563381,14.833544
1007.121094,13.607160,10.271844,15.414563,6.867141
1007.125000,13.683932,10.092171,16.337220,9.285570
1007.128906,13.066073,1.715000,9.502735,8.292828
1007.132812,11.695459,7.546281,15.805860,9.394661
1007.136719,15.909186,6.063637,3.604390,7.768976
1007.140625,0.186714,3.531846,2.975098,6.729191
1007.144531,1.744978,3.427940,-1.436453,1.820304
1007.148438,-1.955944,-0.352486,3.254895,4.309696
1007.152344,-3.991392,-3.087217,1.344454,4.931817
1007.156250,-1.661525,-1.661643,2.120850,-1.196799
1007.160156,-1.428063,2.009533,-7.777539,-4.560757
1007.164062,-7.457225,-0.456584,-12.783720,1.475603
1007.167969,-8.949874,-9.320029,-13.515334,-9.903529
1007.171875,-8.644159,-3.154301,-9.047165,-7.865950
1007.175781,-8.635745,-12.448034,-9.279803,-10.275822
1007.179688,-11.775890,-2.679692,-16.455829,-1.572462
1007.183594,-11.244878,-10.810586,-11.301975,-10.658818
1007.187500,-10.410121,-5.750643,-6.311443,0.081311
1007.191406,-0.638732,-4.526447,-6.733902,-17.522621
1007.195312,3.361422,-2.302349,-3.091682,3.156740
1007.199219,-8.019545,-7.186297,2.031539,4.531941
1007.203125,0.963689,1.917413,-1.275029,3.241668
1007.207031,6.302286,8.697823,3.694925,10.674886
1007.210938,11.330339,5.207377,4.053972,7.116735
1007.214844,13.344362,12.019322,5.369351,7.324622
1007.218750,4.300275,5.143653,5.091434,2.171825
1007.222656,11.583675,8.782364,10.019966,7.072079
1007.226562,8.163644,10.758842,9.252873,6.513550
1007.230469,11.886981,8.387129,11.065785,4.662864
1007.234375,10.992397,4.050923,2.920859,11.192607
1007.238281,6.826749,10.451674,7.214001,5.514442
1007.242188,10.725803,-0.587750,-1.670175,3.638411
1007.246094,8.316504,6.985370,-4.279602,3.304553
1007.250000,1.797992,6.280927,2.365536,2.658904
1007.253906,5.549811,-4.382526,1.337728,-5.100537
1007.257812,-1.557996,-9.658701,-4.654107,-8.353881
1007.261719,-13.784951,-10.849866,-8.674242,-3.452274
1007.265625,-8.862496,-7.260882,-3.061816,-4.932095
1007.269531,-15.711052,-15.948040,-12.674966,-7.796807
1007.273438,-8.191293,-6.728869,-12.240922,-11.368181
1007.277344,-10.248867,-12.067880,-12.236377,-16.545717
1007.281250,0.156040,-10.227115,-7.373589,-3.984042
1007.285156,-4.295729,-5.188848,-10.182719,0.598009
1007.289062,-13.699394,-2.002284,-5.488867,-13.882008
1007.292969,-5.391291,-9.005681,-8.334274,-3.130855
1007.296875,5.240652,-4.529983,5.789498,-6.017421
1007.300781,-2.452236,5.867189,-5.885258,1.943310
1007.304688,7.633364,0.744375,7.129150,3.072451
1007.308594,3.541930,7.441672,15.021904,8.495861
1007.312500,3.915431,5.791264,7.897363,-1.526783
1007.316406,1.838787,17.087334,4.582302,6.615584
1007.320312,2.210008,5.969592,15.922894,14.286051
1007.324219,2.059833,9.602172,13.362513,5.962673
1007.328125,13.850989,10.819317,16.397881,10.063589
1007.332031,12.783297,12.890364,9.842481,6.157036
1007.335938,2.724423,4.798670,2.016842,3.583953
1007.339844,-0.482312,5.521814,6.797259,14.002503
1007.343750,1.834641,9.534085,2.636175,9.550293
1007.347656,-0.863584,7.567458,-0.462848,1.685402
1007.351562,-4.011104,0.050302,1.163272,4.268357
1007.355469,-5.947922,-4.811607,-7.616955,-3.494718
1007.359375,-6.131264,-6.439237,-9.032600,-6.373282
1007.363281,-5.833610,-10.094772,-5.285514,-9.844261
1007.367188,-2.510541,-7.237797,-8.854799,-10.137555
1007.371094,-6.932840,-5.398933,-5.862351,-16.924718
1007.375000,-12.161635,-13.238984,-7.859423,-8.149999
1007.378906,-7.312529,-8.303919,-6.505488,-6.932665
1007.382812,-5.650682,-3.156239,-10.100594,-6.489252
1007.386719,-11.850391,0.417450,-9.126104,-5.149205
1007.390625,-7.773787,-8.847134,-0.478341,-4.029072
1007.394531,1.399378,0.014780,-1.919161,6.897044
1007.398438,-2.952591,-0.750255,0.124493,-1.575873
1007.402344,0.674016,-1.760273,-3.775893,1.547226
1007.406250,7.346390,6.593235,6.236899,4.587103
1007.410156,7.812362,6.238329,6.412139,0.103774
1007.414062,10.580199,2.784586,4.977030,9.573020
1007.417969,8.087681,16.533099,5.000593,11.384430
1007.421875,10.771687,12.942105,7.155891,6.185118
1007.425781,-0.825927,18.031088,6.329202,2.656235
1007.429688,1.882325,2.780919,9.969453,9.224651
1007.433594,13.099472,10.953673,2.842204,12.660565
1007.437500,4.031191,10.766958,6.885390,10.042758
1007.441406,-2.316784,2.113704,7.729314,-0.890024
1007.445312,-1.270464,2.682034,5.132793,4.106258
1007.449219,-5.779214,4.397412,2.853015,-0.488524
1007.453125,-0.242601,-8.754168,-0.105637,0.880310
1007.457031,-8.777371,-8.934791,-3.729402,1.288369
1007.460938,-4.956871,-9.848659,-10.752927,-3.405875
1007.464844,-8.664517,-9.511032,-12.114299,-12.173673
1007.468750,-8.560919,-9.901269,-8.894211,-10.540269
1007.472656,-8.900039,-14.987416,-11.239860,-8.927014
1007.476562,-11.457113,-11.366145,-3.549245,-12.261327
1007.480469,-10.162176,-9.081381,-5.830458,-9.658832
1007.484375,-6.580597,-11.475983,-1.608950,-7.455803
1007.488281,-11.022828,-6.395071,-12.669627,-11.093397
1007.492188,-6.356363,-10.067381,-1.655356,-2.138035
1007.496094,0.760703,-2.723360,-6.902486,-2.992808
1007.500000,6.671919,-1.665141,-0.711034,8.204072
1007.503906,5.398000,3.682460,-0.008458,-3.781630
1007.507812,8.520118,8.941148,2.724686,-2.059971
1007.511719,6.921879,9.726467,7.704649,10.754388
1007.515625,9.204534,4.177433,8.305280,11.161568
1007.519531,10.459807,15.088598,12.400655,11.990534
1007.523438,13.246437,12.461761,2.650227,8.438233
1007.527344,3.110628,17.698284,8.400332,9.610614
1007.531250,15.695470,10.861831,10.872018,5.782341
1007.535156,7.998979,5.706770,12.177885,6.774551
1007.539062,2.923765,3.590229,9.809364,7.717869
1007.542969,11.248649,-0.366001,0.389639,7.095152
1007.546875,-1.728708,-5.377718,5.282441,1.791570
1007.550781,-0.803933,1.844010,-0.601257,-1.948774
1007.554688,-2.887325,-1.667572,1.346433,-3.849674
1007.558594,-5.121106,-10.266783,-12.922993,-3.277658
1007.562500,-1.712831,-14.059974,-16.856783,-2.326622
1007.566406,-8.707427,-2.761499,-10.342656,-8.970909
1007.570312,-5.817152,-7.070409,-5.484029,3.948659
1007.574219,-8.266493,-14.823875,-2.820384,-11.278152
1007.578125,-7.164613,-6.386135,-11.736409,-8.171365
1007.582031,-0.954151,-10.519955,-2.607597,-9.048676
1007.585938,-14.743456,-8.754530,-8.390588,-6.860325
1007.589844,-10.626012,-8.041679,-4.739212,2.219495
1007.593750,-3.883589,-3.425132,-4.430703,-8.902102
1007.597656,1.210192,-11.890391,-7.932980,2.137788
1007.601562,-1.607327,-2.308506,5.523297,2.789519
1007.605469,6.110882,0.421209,1.077137,7.484746
1007.609375,4.855273,4.643988,-2.545395,4.471865
1007.613281,1.523468,9.640212,9.600103,15.305977
1007.617188,15.238262,5.609729,11.358664,15.275317
1007.621094,6.202684,11.063619,6.871718,9.292327
1007.625000,8.601083,5.664051,13.076516,4.902716
1007.628906,9.629874,7.423349,4.941355,11.815970
1007.632812,9.651341,13.810328,5.499197,12.074838
1007.636719,9.910546,16.139334,4.874640,9.990365
1007.640625,5.366422,-1.202080,3.461947,1.877548
1007.644531,10.091835,-2.191126,6.076748,6.768848
1007.648438,4.697052,2.296163,5.768366,-1.270533
1007.652344,-7.517397,4.765812,2.829331,-0.786706
1007.656250,-5.238490,-3.725535,-0.138898,-6.778307
1007.660156,-10.189558,-2.992725,-2.224487,-6.601871
1007.664062,-9.321633,-12.997178,-11.432375,-2.638170
1007.667969,-5.128844,-13.161684,-4.875016,-3.866395
1007.671875,-7.089430,-13.584261,-6.915738,-6.578247
1007.675781,-8.926322,-3.964026,-8.839168,-15.282389
1007.679688,-9.880160,-11.136949,-2.424778,-16.768955
1007.683594,-8.903340,-6.464887,-9.821096,-11.695507
1007.687500,-4.266329,-6.001086,-1.332325,-4.922679
1007.691406,-13.436948,-16.360592,-7.517883,-0.989086
1007.695312,2.129559,-4.923060,-3.572233,-0.953910
1007.699219,0.443952,2.132078,2.689536,-1.435035
1007.703125,0.028702,5.339139,-2.440637,4.127154
1007.707031,-1.228444,12.571686,4.782551,5.093645
1007.710938,3.849724,3.626344,3.962542,1.607682
1007.714844,8.334070,9.480294,7.132228,8.531830
1007.718750,7.144812,12.793200,3.603494,5.595166
1007.722656,10.691920,13.758347,10.229445,6.223955
1007.726562,16.537708,10.551522,11.723507,11.749802
1007.730469,2.285775,11.006403,6.140831,3.633874
1007.734375,9.178651,10.794881,10.835730,14.436678
1007.738281,11.735511,3.201294,2.385320,7.819657
1007.742188,5.445814,3.432264,-4.379088,5.769585
1007.746094,-7.281558,3.410724,1.674236,-0.697246
1007.750000,-4.414836,-5.673003,6.795207,3.360731
1007.753906,0.692591,-3.834966,-1.396764,-1.550136
1007.757812,-4.617605,-6.782261,-3.113053,-3.385651
1007.761719,-11.193441,-7.893707,-5.819568,-4.069402
1007.765625,-7.136711,-6.692059,-8.293683,-8.820357
1007.769531,-7.545722,-15.218113,-3.071849,-9.636158
1007.773438,-9.927085,-14.091029,-12.281488,-9.564773
1007.777344,-10.731654,-6.409607,-15.680004,-4.012086
1007.781250,-16.301047,-8.604253,-9.508736,-6.437243
1007.785156,-10.702034,-12.119684,-8.520143,-8.922063
1007.789062,-6.727436,-12.020089,-11.075013,-3.714733
1007.792969,-3.692452,-2.715519,-9.681101,-10.171083
1007.796875,-2.041155,-2.292511,-0.342703,0.444957
1007.800781,3.058612,3.610483,1.206375,6.931689
1007.804688,3.396360,6.469218,-3.935607,-0.557897
1007.808594,6.590558,2.835580,7.896428,2.933356
1007.812500,4.355083,11.140256,8.592740,1.722106
1007.816406,8.256449,8.441115,10.938368,7.234383
1007.820312,12.764920,3.967738,12.698232,12.704871
1007.824219,7.165190,15.113974,16.620578,17.366903
1007.828125,13.191927,5.514986,6.875892,20.767070
1007.832031,14.449733,7.243410,11.211028,14.754895
1007.835938,16.432444,5.408856,2.307432,9.148769
1007.839844,4.417175,11.542423,7.490701,7.920375
1007.843750,8.027551,5.460866,8.233294,4.372861
1007.847656,7.981037,-2.009449,0.763891,0.419208
1007.851562,-3.822452,4.041442,2.309429,1.163588
1007.855469,-8.020522,-2.023740,-6.111148,6.016729
1007.859375,-4.510790,-5.591757,-1.810082,-11.934447
1007.863281,-12.203172,-2.470361,-9.220785,-2.360460
1007.867188,-7.510903,-11.968886,-15.490343,-7.630991
1007.871094,-12.576072,-14.007060,-3.321234,-13.160548
1007.875000,-14.454706,-6.759731,-14.710876,-6.451886
1007.878906,-3.160165,-7.656515,-6.890643,-5.211948
1007.882812,-8.558394,-6.141314,-10.912392,-7.042928
1007.886719,-5.492187,-7.007049,-13.160688,-15.268409
1007.890625,-3.506147,1.985393,-6.524891,-0.752549
1007.894531,1.455843,-3.916973,2.504148,-8.789832
1007.898438,-2.497732,1.177568,-1.993940,0.441655
1007.902344,-2.258053,2.629436,9.930452,-1.004096
1007.906250,7.360925,-7.963891,10.495335,6.382671
1007.910156,9.289980,12.398879,8.207685,13.173681
1007.914062,7.705595,10.907172,10.645537,6.153066
1007.917969,3.852962,12.703460,6.585130,8.082756
1007.921875,13.681362,2.212495,10.867893,13.793893
1007.925781,3.617495,6.661894,12.065085,14.148473
1007.929688,12.372392,8.960106,1.752864,7.250585
1007.933594,15.997734,5.815323,3.150336,13.463443
1007.937500,4.490156,12.367945,9.679635,8.205192
1007.941406,5.415516,8.837120,1.560642,6.541407
1007.945312,-3.643473,0.897817,2.250692,3.022760
1007.949219,5.434861,-1.009783,0.283075,1.321991
1007.953125,-1.024294,-1.558560,3.711769,-7.894033
1007.957031,-7.943714,3.623583,2.062388,-3.891232
1007.960938,-10.857876,-6.939661,-2.417606,-8.281630
1007.964844,-9.389266,-9.646566,-10.533033,-11.725363
1007.968750,-10.846067,-3.898133,-6.586679,-12.565847
1007.972656,-14.315506,-6.132853,-9.833756,-5.462761
1007.976562,-12.034638,-9.929783,-4.174389,-12.023302
1007.980469,-6.947678,-15.406880,-7.099950,-12.906409
1007.984375,-0.553598,-6.585664,-3.190110,-12.050798
1007.988281,-8.062355,-7.710674,-1.674838,-5.147745
1007.992188,-11.458385,-6.678392,-3.693781,-5.308824
1007.996094,-5.438838,1.134701,-10.996591,-9.828676
1008.000000,3.783923,-2.291512,7.470946,0.820481
1008.003906,-0.503940,6.103142,3.275438,0.215659
1008.007812,7.700155,4.841299,1.628313,6.154102
1008.011719,7.155769,4.877590,15.395190,9.155290
1008.015625,6.237595,8.352526,12.549404,12.423681
1008.019531,4.795699,9.727291,7.433449,11.185445
1008.023438,13.229831,11.888498,11.291677,12.514730
1008.027344,12.014192,15.174362,12.112314,5.360492
1008.031250,12.919653,12.397701,14.171458,8.822272
1008.035156,8.204957,5.606635,5.901006,10.014418
1008.039062,8.160432,1.668567,4.841376,4.419476
1008.042969,6.592209,5.722757,5.241818,7.530431
1008.046875,3.924591,1.919021,0.050583,0.887919
1008.050781,0.800349,-4.703529,-2.116166,0.590628
1008.054688,-2.117624,-5.831480,-1.226071,-2.053034
1008.058594,-4.690753,-2.500140,-4.630282,-6.971468
1008.062500,-4.587710,-6.960175,-10.361839,-5.440065
1008.066406,-11.766881,-9.918299,-9.792226,-16.351234
1008.070312,-3.771106,-8.760525,-11.502229,-10.517992
1008.074219,-12.729317,-15.259117,-17.187565,-10.238122
1008.078125,-5.294820,-14.933971,-12.947081,-3.164300
1008.082031,-6.173652,-7.775279,-6.823015,-9.531341
1008.085938,-5.422796,-13.714916,-7.910118,-14.418886
1008.089844,-0.433281,3.750420,-12.313987,-2.925857
1008.093750,1.488314,-7.587401,1.952316,-7.092207
1008.097656,2.260624,0.638202,-0.409415,-2.117012
1008.101562,5.595168,1.734295,3.059788,4.310762
1008.105469,3.842220,6.663247,5.862631,0.021944
1008.109375,2.453774,8.710722,2.311722,9.315040
1008.113281,10.191412,14.958454,10.915315,7.338492
1008.117188,13.884525,13.101775,16.234354,15.578607
1008.121094,17.007897,8.805906,5.979488,13.511229
1008.125000,8.469540,6.369065,6.751752,7.210932
1008.128906,11.548361,9.987693,13.346801,14.424589
1008.132812,10.537104,11.983296,4.783843,5.684341
1008.136719,14.795071,3.329100,16.265435,6.189690
1008.140625,5.405385,2.495171,-0.193635,5.577891
1008.144531,2.756855,-0.134055,3.537283,13.291874
1008.148438,3.454908,-0.641753,3.736799,2.208524
1008.152344,-1.875900,1.071822,-1.895209,-4.712903
1008.156250,-4.916037,-4.653510,5.777519,-9.250490
1008.160156,1.051620,0.364864,-7.671362,-15.646916
1008.164062,-10.809877,-12.480196,-4.809483,-9.830696
1008.167969,-7.568061,-11.168769,-5.591476,-14.282374
1008.171875,-9.642043,-12.251974,-15.222168,-14.205881
1008.175781,-15.752355,-6.432145,-7.310102,-3.115017
1008.179688,-3.040982,-6.610537,-13.704278,-8.297833
1008.183594,-6.727964,-9.920667,-8.150922,-9.463148
1008.187500,-11.472340,-8.375194,-9.048772,-6.436387
1008.191406,-5.636781,-1.872398,-13.389594,-5.824952
1008.195312,-7.200929,-3.588748,-5.806625,-7.662731
1008.199219,-5.221776,-5.970136,4.599317,0.492432
1008.203125,-0.445402,0.340112,-2.515345,-0.103514
1008.207031,11.671976,11.578444,5.590237,5.878127
1008.210938,4.922262,-1.038018,6.685383,11.697838
1008.214844,10.530217,8.995980,8.136490,9.262042
1008.218750,8.096368,5.112845,15.053229,2.508598
1008.222656,11.312251,6.529733,9.649192,18.065744
1008.226562,10.341339,4.059098,9.457208,14.750257
1008.230469,9.427115,10.326707,13.817412,13.534854
1008.234375,8.161038,8.678605,15.017746,13.047242
1008.238281,8.711050,1.108855,1.231146,6.318480
1008.242188,4.253663,3.196518,7.127263,3.355780
1008.246094,3.827029,-0.767705,5.040842,0.386961
1008.250000,-0.432268,5.348187,-8.669871,3.613702
1008.253906,-0.473459,-8.582262,-3.306695,-3.545339
1008.257812,0.824513,-3.266807,-3.564614,-0.931088
1008.261719,-3.326333,0.770797,-9.654874,-10.916835
1008.265625,-12.218421,-5.630435,-11.328332,-3.857383
1008.269531,-2.635159,-14.629278,-13.313615,-6.453495
1008.273438,-11.984921,-19.691890,-10.786071,-14.620377
1008.277344,-9.353551,-11.526332,-11.525754,-15.002551
1008.281250,-10.387252,-8.215858,-3.506658,-16.118453
1008.285156,-9.424727,-6.035114,-11.025625,-0.442925
1008.289062,-1.837629,-8.485609,-6.998867,-9.363152
1008.292969,-7.442089,-11.827997,-0.288826,-12.363915
1008.296875,-8.189982,-1.951927,-4.509536,-2.716016
1008.300781,-2.606400,1.708042,6.196915,-0.108342
1008.304688,5.394154,10.346710,8.686546,4.993634
1008.308594,-1.828638,10.385511,7.500110,-1.433518
1008.312500,9.457518,7.553203,10.909523,8.684513
1008.316406,9.191485,14.317480,17.450561,10.001604
1008.320312,10.405295,6.437470,12.206285,10.549761
1008.324219,10.695410,9.185739,4.448404,17.525721
1008.328125,3.052421,11.233159,11.378430,10.796652
1008.332031,0.059464,8.827098,3.650907,6.231640
1008.335938,10.412146,11.540714,4.520300,4.834464
1008.339844,5.569715,8.414531,2.650778,2.584103
1008.343750,9.510543,8.697631,3.195308,4.942067
1008.347656,-0.260016,1.028266,3.408354,6.214924
1008.351562,-4.970910,-1.029069,-0.188227,-1.898905
1008.355469,-0.570991,-3.659390,-0.118628,-8.099519
1008.359375,-5.104708,-5.987777,-9.214936,-9.259772
1008.363281,-6.113862,-5.764234,-10.511382,-11.168280
1008.367188,-9.830197,-9.791279,-11.809336,-4.560041
1008.371094,-13.048252,-16.552403,-8.998740,-11.974941
1008.375000,-11.797655,-9.042095,-9.525062,-6.256640
1008.378906,-13.329375,-12.811065,-4.909488,-17.465230
1008.382812,-11.712484,-7.422700,-5.873962,-8.216462
1008.386719,-11.560278,-6.899065,-3.034863,-9.261655
1008.390625,-1.335099,-10.038662,-3.822260,-6.807247
1008.394531,-1.320467,-4.081929,-5.038609,-11.095040
1008.398438,-4.840481,-1.497629,-3.183765,-0.175212
1008.402344,5.516204,-3.604348,11.782454,-2.440595
1008.406250,6.004253,13.507459,2.898023,0.854153
1008.410156,10.388226,4.758371,4.057509,9.469617
1008.414062,7.252413,8.530302,10.673044,4.141039
1008.417969,8.493127,2.613997,11.645382,11.214835
1008.421875,4.889369,15.482670,8.007929,13.313615
1008.425781,4.550880,7.912541,2.564396,12.305612
1008.429688,13.830536,12.139970,11.745486,13.015666
1008.433594,4.847348,5.800613,12.651388,4.564702
1008.437500,7.243670,8.986192,3.920193,-1.341284
1008.441406,1.608126,7.738410,-5.728304,4.926006
1008.445312,8.764751,1.370445,0.551805,10.523380
1008.449219,-1.821099,2.104012,0.853645,-6.513532
1008.453125,-0.306415,4.104184,1.409285,-0.207172
1008.457031,-4.452108,-0.678942,-3.851119,2.888355
1008.460938,-6.358479,-8.934681,-9.823300,-4.893539
1008.464844,-12.266541,-5.499897,-5.585906,-7.305485
1008.468750,-7.459023,-8.264623,-7.352909,-6.668626
1008.472656,-14.463304,-12.357977,-12.965675,-15.639095
1008.476562,-8.812723,-1.687532,-8.037621,-10.393661
1008.480469,-5.975857,-7.926550,-8.498991,-11.499675
1008.484375,-9.917368,-0.205097,-13.724599,-5.313831
1008.488281,-5.670325,-0.109328,-9.518174,-4.482891
1008.492188,-2.361521,-9.452467,-7.499222,-13.438189
1008.496094,-0.092508,3.638904,-15.031728,-6.359310
1008.500000,0.824373,3.307310,-0.042656,-0.146010
1008.503906,3.367265,3.335486,3.109161,6.490246
1008.507812,5.600003,6.034825,1.246498,-0.442598
1008.511719,1.438020,5.726667,6.336237,1.886209
1008.515625,17.675130,14.630871,7.444497,9.928692
1008.519531,4.482436,6.984348,5.522726,17.842588
1008.523438,12.540000,8.413482,13.013631,9.489078
1008.527344,12.485369,4.590368,5.892993,7.096983
1008.531250,6.903780,5.865454,7.143171,15.343908
1008.535156,6.127104,3.352217,4.382269,6.481651
1008.539062,2.935326,5.720547,7.663581,4.115978
1008.542969,9.214791,2.908914,8.216514,-1.596897
1008.546875,3.855514,7.316348,9.769243,2.174288
1008.550781,1.412091,-11.031122,3.412689,2.104585
1008.554688,-4.639434,-3.537779,-1.916944,-3.815863
1008.558594,-2.919422,-3.030815,-7.371182,-7.022477
1008.562500,-1.319756,-9.575652,-8.152358,-10.055601
1008.566406,-12.410413,-9.365707,-8.942085,-7.943244
1008.570312,-9.363692,-6.861265,-14.584973,-15.060461
1008.574219,-3.556571,-14.679349,-8.177374,-10.950950
1008.578125,-6.571720,-14.269672,-3.741938,-5.497788
1008.582031,-5.374297,-9.041483,-7.451143,-9.714511
1008.585938,-10.620366,-7.419010,-3.354297,-9.015812
1008.589844,-3.645254,-6.619242,-2.097038,-6.427705
1008.593750,-1.426208,-0.929447,-7.643736,-1.872036
1008.597656,7.922342,-10.710603,-5.503340,-0.852672
1008.601562,1.312589,0.571383,-4.015971,-0.020398
1008.605469,4.303533,0.030703,-0.633589,-1.328521
1008.609375,10.215858,8.408934,8.896686,3.507690
1008.613281,15.042651,14.099751,2.134662,2.895311
1008.617188,3.361630,9.271468,8.659534,14.121823
1008.621094,7.430669,9.496287,15.414311,10.932030
1008.625000,9.226894,10.359508,9.134945,9.893097
1008.628906,13.854621,11.357096,10.590203,8.130051
1008.632812,5.870065,8.877309,11.491883,5.303374
1008.636719,6.045563,11.432199,11.275886,10.487778
1008.640625,2.898195,0.908056,5.338999,7.289379
1008.644531,0.936196,3.326010,-5.046905,7.240748
1008.648438,1.893510,0.863580,-8.719901,-7.442867
1008.652344,-0.081191,0.281002,-6.448447,5.657490
1008.656250,-15.338138,-3.386970,-1.558454,-1.175642
1008.660156,-7.489541,-7.196716,-5.533844,-10.063333
1008.664062,-9.856153,-11.966610,-9.912932,-6.515407
1008.667969,-8.309032,-5.557884,-7.421434,-6.297410
1008.671875,-11.875976,-8.624381,-15.682596,-12.443919
1008.675781,-10.863282,-12.902769,-12.867452,-7.851322
1008.679688,-7.362403,-8.223112,-15.950354,-15.161658
1008.683594,-8.057067,-8.118660,-6.522130,-5.830027
1008.687500,-5.652047,-11.201345,-4.790502,-10.801733
1008.691406,-6.447828,-1.659014,-6.097020,1.218602
1008.695312,-0.655937,-1.554502,1.740081,3.083861
1008.699219,2.297147,1.154368,3.478208,0.322322
1008.703125,2.427806,2.517605,3.220068,2.636885
1008.707031,-1.666183,3.558561,0.442043,3.237278
1008.710938,10.237794,0.774118,-0.093702,13.540317
1008.714844,8.781805,2.861021,4.066258,6.545561
1008.718750,10.486032,7.329007,7.208428,12.079282
1008.722656,12.656731,12.438508,12.412759,8.283284
1008.726562,9.144596,13.701328,5.234826,8.266445
1008.730469,3.963112,-2.055975,6.181966,8.039713
1008.734375,6.781489,6.950947,-1.071532,3.705490
1008.738281,7.461496,8.280146,5.393834,12.212864
1008.742188,9.533148,12.699155,4.438488,1.494409
1008.746094,8.549483,-3.464459,9.674551,-8.965780
1008.750000,0.447488,3.941782,8.898770,-1.825354
1008.753906,-10.652987,1.814618,-0.027962,1.415969
1008.757812,4.350020,-9.656547,1.451847,-9.382831
1008.761719,-3.956927,-7.650971,-7.313929,-7.518352
1008.765625,-13.431854,-2.298756,-8.526089,-10.550747
1008.769531,-13.642276,-4.983174,-2.058095,-7.095431
1008.773438,-9.017439,-4.486200,1.075251,-12.796056
1008.777344,-9.051414,-14.755446,-11.246459,-17.133451
1008.781250,-6.976342,-12.236919,-14.736377,-4.697350
1008.785156,-10.495497,-9.390209,-7.363088,-9.052372
1008.789062,-8.921103,-2.067079,-5.708082,-5.223314
1008.792969,1.581465,-6.700492,-3.273070,-1.940065
1008.796875,1.763403,5.235488,-4.423338,-3.624914
1008.800781,3.719858,0.187022,3.063423,3.617520
1008.804688,-1.111674,5.966623,5.255781,8.342704
1008.808594,1.517371,6.694302,5.597601,5.895053
1008.812500,8.038331,8.561142,14.630177,14.834000
1008.816406,5.754227,8.944394,7.274089,15.050822
1008.820312,18.432798,14.080445,5.704806,4.449566
1008.824219,14.902378,6.646469,7.957088,6.007626
1008.828125,5.781608,9.188050,10.641983,9.188930
1008.832031,9.599831,7.155907,9.550297,16.430037
1008.835938,5.790970,8.850321,5.609067,6.040459
1008.839844,3.258846,10.960496,5.501058,11.666526
1008.843750,5.725285,2.378446,1.393194,7.195905
1008.847656,-3.046282,2.181414,-1.218884,-2.680055
1008.851562,5.001665,4.651795,-7.044020,4.573991
1008.855469,2.770263,-2.340513,-1.659483,6.907817
1008.859375,-2.922575,-0.085211,-11.310497,-2.584970
1008.863281,-9.025306,-6.135451,-6.838070,-8.854413
1008.867188,-5.426809,-8.558915,-6.376591,-7.953044
1008.871094,-12.649607,-18.722732,-13.528279,-5.614180
1008.875000,-7.573460,-8.766337,-9.466150,1.077721
1008.878906,-6.417167,-12.966029,-2.467934,-7.566355
1008.882812,-4.988588,-6.594727,-5.249715,-2.581266
1008.886719,-16.500286,-13.687317,-8.117916,-9.696593
1008.890625,-6.964586,-2.080097,-3.330769,-8.752936
1008.894531,-8.266167,-3.441981,-4.973290,-8.334211
1008.898438,0.073655,-5.008527,5.134772,-5.325746
1008.902344,-1.088645,2.935237,0.973715,-4.530410
1008.906250,3.395529,1.525756,7.489697,2.242439
1008.910156,6.004280,11.304412,15.059672,5.258488
1008.914062,8.287775,3.831088,10.514485,5.542743
1008.917969,7.589391,6.000628,4.074806,10.661766
1008.921875,8.825692,9.553147,12.617459,13.675637
1008.925781,14.347639,11.351709,14.745849,12.743054
1008.929688,15.895257,7.977039,14.970380,6.012950
1008.933594,4.819586,11.878378,10.285947,11.252873
1008.937500,3.874499,6.080045,13.044330,9.725913
1008.941406,5.747718,3.106975,3.752169,2.602576
1008.945312,5.706076,5.998856,3.448007,6.560646
1008.949219,4.003367,1.397314,-2.133459,5.790313
1008.953125,-7.676555,-3.038242,1.864982,-4.327986
1008.957031,-6.388550,-4.732241,0.870550,-6.177794
1008.960938,8.130656,-1.183394,-4.007527,-5.999571
1008.964844,-9.264652,-2.224199,-1.058507,-9.944735
1008.968750,-11.328478,-9.438765,-11.299075,-6.241914
1008.972656,-7.441464,-4.282987,-4.875002,-12.254478
1008.976562,-2.297366,-10.842919,-23.631035,-19.584077
1008.980469,-16.983205,-11.470844,-13.576962,-13.418846
1008.984375,-11.925936,-4.547129,-4.450525,-10.555706
1008.988281,-3.640104,-6.817895,-5.872612,-4.961657
1008.992188,-2.242119,-8.709323,-11.028897,-6.539719
1008.996094,-9.778212,0.600924,-4.608373,-5.517079
1009.000000,-9.650065,-7.797494,-2.529153,-2.698041
1009.003906,-1.186847,2.700233,-7.665463,1.359919
1009.007812,4.587107,4.552841,10.741804,4.775152
1009.011719,4.963694,8.108200,11.045581,14.441305
1009.015625,7.258617,5.539241,11.961389,7.591112
1009.019531,11.241354,12.729850,11.921953,5.715371
1009.023438,11.850545,9.761575,13.409680,-2.490039
1009.027344,11.640827,3.748723,11.692045,15.539898
1009.031250,7.839252,10.188417,9.212086,10.575295
1009.035156,14.631627,11.719567,5.634589,5.088764
1009.039062,11.786050,12.793232,2.326348,6.026911
1009.042969,5.618222,9.074208,1.016752,8.414649
1009.046875,1.924866,0.300219,3.680427,7.862376
1009.050781,10.387207,-2.289308,1.002924,0.976189
1009.054688,-5.716403,-4.950128,-1.058649,-0.494183
1009.058594,-7.566359,-5.733460,-4.535878,-9.456176
1009.062500,-4.934857,-9.865090,-2.768390,-18.031943
1009.066406,-8.459446,-10.406702,-12.334420,0.192429
1009.070312,-7.592594,-11.142713,-11.088731,-9.825890
1009.074219,-7.273175,-15.788763,-7.397482,-5.407096
1009.078125,-9.524063,-7.001751,-13.878719,-16.175211
1009.082031,-4.726613,-9.204916,-5.089897,-9.120611
1009.085938,-9.166764,-1.953522,-7.571487,-6.409302
1009.089844,-5.283129,-8.490318,-5.802706,-3.203351
1009.093750,-3.813155,-0.922012,-10.001444,-0.809409
1009.097656,0.352921,1.930937,5.860003,-7.081995
1009.101562,4.123075,2.208964,-6.482160,-7.618813
1009.105469,6.405477,5.423304,8.386880,0.722682
1009.109375,4.368671,1.950920,10.533137,5.647606
1009.113281,5.237863,6.449969,8.092937,5.258678
1009.117188,13.859460,7.859610,10.828084,13.009441
1009.121094,9.294349,11.284393,11.995388,9.683785
1009.125000,10.881264,8.859218,8.099537,5.964931
1009.128906,19.778832,10.281016,11.123052,6.170150
1009.132812,13.042726,16.737076,11.340772,7.306315
1009.136719,7.891018,4.635671,10.054437,10.610478
1009.140625,-0.502392,1.346181,11.876526,3.771620
1009.144531,3.030390,-2.607444,-2.187741,-1.616279
1009.148438,-1.281701,4.084819,0.137175,-1.814749
1009.152344,2.618949,-1.154819,1.035871,-5.974700
1009.156250,-7.171903,-2.615307,-5.683967,-8.048747
1009.160156,-3.434114,-6.889850,-3.854905,-6.473515
1009.164062,-3.580872,-10.114061,-3.352583,-11.043853
1009.167969,-11.018829,-14.219764,-7.063717,-11.640713
1009.171875,-6.243828,-9.464671,-13.688438,-13.626274
1009.175781,-13.130454,-16.384790,-12.332527,-11.823981
1009.179688,-14.288629,-12.699231,-7.881744,-7.896358
1009.183594,-11.624323,-1.295896,-4.759651,-9.704619
1009.187500,-9.065873,-5.031059,-5.917437,-0.754250
