timestamp,TP9,AF7,AF8,TP10
1000.000000,-1.076510,2.872094,-6.247574,-3.579930
1000.003906,6.520837,3.273206,-0.922744,-4.271049
1000.007812,7.226269,0.304452,1.490131,-1.091590
1000.011719,3.295652,16.262039,1.979853,10.013946
1000.015625,9.064705,5.260391,16.691562,4.578212
1000.019531,9.136043,8.246559,6.720946,10.375793
1000.023438,13.749221,8.154522,12.702461,10.017729
1000.027344,9.624953,7.563902,8.362364,7.276772
1000.031250,9.648987,6.693909,5.780568,6.425276
1000.035156,9.786957,3.902738,7.344901,1.313363
1000.039062,7.345179,7.418918,8.134642,9.763939
1000.042969,9.871752,-2.838568,6.081394,7.571923
1000.046875,0.852006,3.635028,2.312547,0.411789
1000.050781,5.863368,1.550200,1.405622,4.884519
1000.054688,-5.658332,-4.417740,3.915948,-2.545446
1000.058594,-3.802099,-10.080108,-5.464888,-9.242631
1000.062500,-4.738659,-11.844921,-4.219885,-12.048289
1000.066406,-10.759283,-7.023612,-4.568472,-10.441011
1000.070312,-15.206684,-10.350150,-15.648049,-10.272523
1000.074219,-9.436736,-8.617211,-9.890811,-14.319255
1000.078125,-14.118159,-7.776099,-7.795665,-11.491828
1000.082031,-8.228960,-10.668434,-8.164358,-9.684554
1000.085938,-4.510679,-10.559365,-3.091592,-12.108073
1000.089844,-10.004143,-7.749132,-3.013654,-6.944216
1000.093750,-1.864371,-0.635234,-9.307931,0.119854
1000.097656,-10.011902,-8.254857,-11.665256,3.137267
1000.101562,8.838483,-5.352282,-3.705644,5.245218
1000.105469,2.967524,1.248827,4.674012,5.469137
1000.109375,9.732852,1.639523,7.381113,-0.002133
1000.113281,12.991502,2.436961,3.437978,9.499932
1000.117188,10.856027,10.508079,5.125299,-0.862992
1000.121094,12.245728,8.262439,5.507353,9.445813
1000.125000,5.501677,7.264021,8.880844,10.099460
1000.128906,9.969513,10.036326,13.246147,7.401454
1000.132812,6.516422,14.605741,11.493115,13.618336
1000.136719,11.461662,5.689343,5.073832,11.171241
1000.140625,4.183312,0.099469,0.574941,4.040865
1000.144531,8.833227,10.361029,6.939256,5.187170
1000.148438,1.081901,3.472684,-4.709500,-5.758518
1000.152344,4.665715,0.105136,-1.678608,-6.337842
1000.156250,-1.885784,-6.688697,-5.929317,0.851892
1000.160156,-1.387620,-6.253258,-10.405010,-6.773510
1000.164062,-9.875539,-10.285393,-14.245797,-18.610951
1000.167969,-11.058608,-8.097540,-3.964233,-11.347361
1000.171875,-12.589806,-13.396507,-15.618790,-9.651189
1000.175781,-12.899408,-8.135561,-2.391565,-11.887260
1000.179688,-10.131303,-1.656493,-7.179021,-4.368264
1000.183594,-17.713402,-14.745337,-4.761806,-10.345682
1000.187500,-13.684688,-10.890736,-3.781007,-4.668746
1000.191406,0.378387,0.362031,-1.671549,-0.751977
1000.195312,-7.332416,-2.645399,-4.410443,-1.615958
1000.199219,0.138059,0.642733,2.192504,-4.696352
1000.203125,2.581239,-9.081549,3.336033,-0.375121
1000.207031,8.784922,4.902673,-2.376711,-4.048829
1000.210938,4.329096,16.699021,1.638990,7.921913
1000.214844,1.157371,14.241142,9.498846,2.921346
1000.218750,10.613165,6.479719,13.658202,6.307706
1000.222656,5.059682,8.912628,11.146611,11.176483
1000.226562,12.498011,15.125255,14.785228,15.161807
1000.230469,13.252480,15.248819,7.460642,14.490151
1000.234375,12.147532,6.375147,14.790140,11.600070
1000.238281,11.571571,7.126989,2.168585,12.563046
1000.242188,8.522215,-4.960815,11.275020,-1.877984
1000.246094,1.745988,1.632419,1.268756,1.565430
1000.250000,-3.076954,-2.640639,-3.588426,0.458166
1000.253906,1.648706,-8.406645,-2.654892,-5.269523
1000.257812,-6.036277,-1.759761,-1.361124,-7.397798
1000.261719,-6.788644,-0.887845,0.067530,1.999056
1000.265625,-11.919856,-16.930456,-12.032657,-6.085205
1000.269531,-6.573725,-12.785097,-12.471522,-0.241034
1000.273438,-9.863875,-13.426751,-15.008930,-13.287185
1000.277344,-10.230653,-12.279459,-6.794954,-7.890412
1000.281250,-6.243665,-2.184215,-13.132574,-3.384204
1000.285156,-6.360546,-7.709677,-10.341507,-5.728255
1000.289062,-12.485620,-4.604366,-11.945667,-3.752928
1000.292969,-2.717606,-7.776798,-5.889588,-13.910446
1000.296875,-5.261299,-1.988781,-4.123198,-1.232590
1000.300781,2.766495,-3.644083,-1.872785,-4.015114
1000.304688,4.831688,5.444027,6.989411,6.065059
1000.308594,10.440929,10.816362,8.468531,8.817040
1000.312500,14.127366,0.666476,7.661032,-2.983155
1000.316406,10.529832,8.610630,7.632909,9.532573
1000.320312,10.115242,4.024870,5.512689,13.242929
1000.324219,14.804276,4.575703,15.060851,9.082261
1000.328125,10.666232,9.597871,6.785456,11.126143
1000.332031,14.059852,11.768980,10.092838,5.587401
1000.335938,7.973492,7.009360,4.213912,9.672610
1000.339844,10.193577,6.147359,10.538247,11.598157
1000.343750,1.856952,4.242775,3.040715,-0.213427
1000.347656,0.169680,6.713896,2.843071,-1.710281
1000.351562,-5.391089,4.109865,-1.243937,-0.847440
1000.355469,-5.428346,-5.184520,-1.111653,-7.428200
1000.359375,-4.615942,-5.062108,-12.857922,-9.656604
1000.363281,-2.434494,-11.142411,-5.214106,-3.322438
1000.367188,-13.875878,-4.470836,-0.713328,-11.738956
1000.371094,-4.086844,-17.463906,-16.126830,-6.255300
1000.375000,-6.958180,-14.686531,-8.905939,-11.127405
1000.378906,-9.116151,-5.279985,-0.680075,-3.039422
1000.382812,-2.774077,-6.643089,-11.722701,-11.708902
1000.386719,-3.647527,-10.342339,-5.962957,-6.005796
1000.390625,-1.421779,0.042234,-12.573654,-1.920336
1000.394531,-3.619742,6.798728,0.635566,-2.261392
1000.398438,-0.448153,3.037641,1.518748,4.978562
1000.402344,-0.353881,-1.351888,4.395240,4.560955
1000.406250,3.148164,0.545123,7.263688,5.056173
1000.410156,5.756740,1.638852,8.239896,4.150577
1000.414062,12.217588,3.127042,4.980657,11.118440
1000.417969,3.883165,14.254954,12.876607,7.359908
1000.421875,4.308881,8.965881,4.240353,7.237979
1000.425781,-2.080565,11.841578,6.909153,6.868732
1000.429688,6.041265,10.583360,13.509146,8.063681
1000.433594,7.920579,3.239680,10.718822,8.578787
1000.437500,6.851405,7.968594,16.491542,7.931346
1000.441406,6.423502,8.537168,-2.091048,-3.121208
1000.445312,-0.014846,-0.444122,12.755235,5.115093
1000.449219,-0.383076,2.491548,3.387676,0.399978
1000.453125,3.927574,1.728027,0.754215,-1.110758
1000.457031,-3.319289,-4.785679,-4.463347,-11.756331
1000.460938,-12.040728,-5.697730,-3.850828,-7.224932
1000.464844,-0.167463,-12.671953,-9.521176,2.002706
1000.468750,-8.700423,-15.028291,-11.551849,-11.670546
1000.472656,-4.807436,-14.198383,-11.518305,-10.343527
1000.476562,-12.901748,-10.001934,-14.476888,-6.866414
1000.480469,-5.040538,3.677713,-8.958190,-10.544031
1000.484375,-9.515602,-7.387705,-5.813718,-6.207002
1000.488281,-7.949319,-10.992142,-10.659031,-7.113435
1000.492188,-9.447502,-4.211262,-1.943205,-1.392113
1000.496094,-1.892578,3.715089,-4.532335,-0.221283
1000.500000,3.582967,-1.545786,-2.810558,2.872577
1000.503906,0.534872,1.826997,0.236988,-3.974404
1000.507812,9.289272,1.647127,4.301948,2.203535
1000.511719,3.413416,14.785859,8.379088,3.780193
1000.515625,9.478748,12.318082,7.204888,7.656068
1000.519531,5.131016,4.453588,4.781022,10.091926
1000.523438,12.224378,10.798612,8.974647,12.131016
1000.527344,4.873905,13.841610,7.887683,6.340890
1000.531250,4.172929,11.313751,4.905619,15.923436
1000.535156,9.730638,11.521583,11.668096,12.137375
1000.539062,12.281666,11.653631,7.599730,12.004673
1000.542969,12.857153,11.468469,9.577856,8.280749
1000.546875,-6.786291,4.099212,-9.627431,7.474047
1000.550781,-2.175515,2.452889,3.455105,1.135704
1000.554688,-9.676542,2.331684,3.294057,-3.322486
1000.558594,-0.313571,0.042445,-11.439216,-8.561725
1000.562500,-4.847069,-10.281177,-5.056120,-9.208861
1000.566406,-10.282590,-7.006860,-3.318900,-5.317034
1000.570312,-12.115131,-3.536030,-7.785113,-4.059975
1000.574219,-16.523234,-11.860375,-10.560895,-6.771451
1000.578125,-20.459067,-5.750793,-2.805636,-14.003117
1000.582031,-12.027889,-8.278214,-10.387957,-8.379846
1000.585938,-12.768082,-7.034765,-4.525247,-10.036283
1000.589844,0.864000,-6.754441,-14.245562,-6.405826
1000.593750,-7.212129,-10.381833,-3.575816,0.329848
1000.597656,-4.466502,3.910630,-2.792292,-3.586570
1000.601562,-1.106188,1.479034,-1.921469,-2.242614
1000.605469,-6.357539,-0.142646,4.263906,5.756514
1000.609375,12.801653,5.584181,3.745440,5.986993
1000.613281,12.027893,14.038249,7.602683,1.582107
1000.617188,13.903810,4.329721,7.407498,8.506603
1000.621094,13.678967,6.927839,3.417357,7.941990
1000.625000,6.729472,5.907824,12.189658,8.987633
1000.628906,12.440684,12.394639,14.186700,5.469555
1000.632812,12.419751,13.325719,5.096470,6.681409
1000.636719,1.356155,2.949420,6.367893,13.318156
1000.640625,2.593026,7.752699,4.734557,-2.420463
1000.644531,2.705855,-2.895550,9.190470,7.400920
1000.648438,-2.240474,0.090163,2.726612,-1.161839
1000.652344,2.760521,3.095353,-2.360945,-1.971868
1000.656250,-11.179428,-7.191327,-3.416400,-2.188030
1000.660156,2.432392,-9.176144,1.052072,-3.033954
1000.664062,-3.471139,-5.578311,4.582133,-8.770672
1000.667969,-10.028274,-10.561935,-11.725889,-5.707265
1000.671875,-11.224155,-8.235471,-15.036550,-12.315948
1000.675781,-11.679199,-8.041503,-11.201546,-9.731197
1000.679688,-7.418242,-9.493224,-4.112784,-13.626116
1000.683594,-10.659153,-4.204261,-13.642265,-10.250307
1000.687500,-1.745201,-8.489218,-1.634116,-4.202002
1000.691406,-6.395501,-3.654549,-7.390998,-9.228323
1000.695312,0.544885,0.046824,8.876010,-3.284688
1000.699219,-1.884592,0.203254,2.274416,4.382870
1000.703125,2.504341,-4.197233,0.670184,5.995381
1000.707031,2.486494,-4.903359,2.556667,-7.658992
1000.710938,10.999196,5.846991,8.287833,6.105365
1000.714844,11.635166,7.726961,3.824723,4.980409
1000.718750,9.193309,8.062956,3.888610,-0.625068
1000.722656,9.364640,6.699759,6.431065,12.908409
1000.726562,8.380543,10.942217,7.109698,12.814188
1000.730469,9.298287,15.293787,15.128094,11.166701
1000.734375,5.378138,9.585753,5.272303,13.406340
1000.738281,-1.205926,9.753965,7.361220,12.396725
1000.742188,11.017926,-0.617773,8.675566,10.686284
1000.746094,-2.595182,9.591018,-2.117127,2.231390
1000.750000,-0.156418,3.586830,5.801030,-1.454372
1000.753906,-4.937757,7.590971,-0.420017,-0.021888
1000.757812,2.284092,-7.382535,0.297248,-6.309559
1000.761719,-10.733817,-7.758466,-2.767275,-6.871077
1000.765625,-9.168348,-10.068707,-9.136733,-9.263380
1000.769531,-12.633577,-10.864850,-4.735728,-3.326982
1000.773438,-3.492186,-16.227862,-15.013260,-15.929142
1000.777344,-15.303350,-7.755161,-4.505611,-8.573837
1000.781250,-9.579100,-10.238941,-6.381083,-8.577896
1000.785156,-7.709607,-6.252715,-16.443602,-4.722089
1000.789062,-4.508938,-1.421430,-6.859760,-5.773817
1000.792969,-3.373330,-11.109588,-6.546939,-8.777221
1000.796875,-1.559687,-4.498365,6.711652,-2.615273
1000.800781,2.319137,-4.172028,-3.547607,-1.711122
1000.804688,3.123327,4.624188,10.240954,0.106449
1000.808594,7.220246,8.610603,7.339240,-0.450018
1000.812500,12.805145,12.488604,8.996346,6.499807
1000.816406,9.091561,17.570539,5.812277,13.763944
1000.820312,8.873924,11.395902,9.617120,1.528838
1000.824219,8.860473,10.848231,12.479632,15.688794
1000.828125,8.602275,11.881502,4.976585,13.548254
1000.832031,6.096230,10.596936,1.393880,13.848105
1000.835938,11.854399,0.381222,7.383930,6.339758
1000.839844,14.112739,5.442633,8.524874,4.301086
1000.843750,4.534762,7.475408,4.328122,8.654365
1000.847656,3.746775,-0.942344,-1.266149,-0.533414
1000.851562,-5.436928,0.203094,2.288704,-1.602011
1000.855469,-5.246821,-8.717518,-1.736070,-2.990426
1000.859375,-0.020678,-0.335654,-5.449830,-4.600726
1000.863281,-5.985588,-6.350237,0.408621,-5.434024
1000.867188,1.230635,-10.512375,-7.896916,-4.528527
1000.871094,-9.679009,-9.902860,-8.061666,-4.163309
1000.875000,-12.355525,-17.002535,-11.520048,-19.070237
1000.878906,-8.589229,-9.236654,-15.418167,-4.866872
1000.882812,-6.816638,-7.755716,-9.253386,-11.003054
1000.886719,-6.126585,-1.338354,-8.465866,-8.963506
1000.890625,-3.570456,-9.758731,-7.279843,-4.237989
1000.894531,-1.904893,-3.204779,-8.838862,-4.384874
1000.898438,-0.276675,-7.009456,-3.911626,1.290121
1000.902344,3.527861,8.192324,-3.559908,-2.237701
1000.906250,6.498279,5.113879,11.075467,-2.515590
1000.910156,0.685357,5.849923,7.760928,2.932138
1000.914062,10.018575,6.500309,6.657483,13.886931
1000.917969,9.968240,13.906463,9.415942,10.396428
1000.921875,8.250360,8.083275,2.902661,10.013045
1000.925781,13.635759,8.117405,14.038473,8.434132
1000.929688,8.919166,9.056320,6.028306,2.512572
1000.933594,11.324492,11.173506,10.961588,8.202222
1000.937500,6.001341,2.856587,8.443639,6.815982
1000.941406,5.758020,8.308575,3.616552,6.462137
1000.945312,-0.804336,3.293737,8.258207,0.863424
1000.949219,1.425600,-3.951576,-2.192121,4.229984
1000.953125,-3.495881,-5.644030,0.671588,-4.749588
1000.957031,-3.378198,1.025306,1.329033,-4.067304
1000.960938,-5.786762,-7.596165,-11.263024,-17.200185
1000.964844,-3.356672,-4.342674,-7.388388,-7.981589
1000.968750,-6.544024,-11.968282,-12.454609,-9.173064
1000.972656,-1.434931,-9.175936,-17.291671,-15.272070
1000.976562,-9.621698,-11.329041,-9.793401,-13.077958
1000.980469,-12.552399,-4.279898,-2.578720,-16.838930
1000.984375,-3.627935,-7.568129,-6.835809,-7.594478
1000.988281,-4.116626,-1.512254,-8.575254,-9.487540
1000.992188,-11.098940,-7.205058,-6.340232,-7.479720
1000.996094,-5.442552,4.418541,0.649172,-2.878687
1001.000000,-1.957392,-5.294562,-0.265972,3.703231
1001.003906,-1.194767,3.116299,2.096582,1.569194
1001.007812,5.512956,1.443614,4.619155,11.064420
1001.011719,1.637514,6.682471,2.011998,12.065793
1001.015625,11.064789,11.060434,2.713205,4.707251
1001.019531,8.641071,16.701514,19.960252,11.239385
1001.023438,7.803317,2.880046,5.951465,20.493474
1001.027344,9.773285,6.605256,7.360563,4.824449
1001.031250,10.886152,16.349165,10.183501,0.230634
1001.035156,-0.166075,11.339554,9.356307,0.220844
1001.039062,8.164676,14.981659,11.255225,6.783324
1001.042969,12.202763,9.582507,-4.280289,3.772880
1001.046875,-1.586080,0.747474,6.549220,-0.725918
1001.050781,2.524765,3.250882,-1.273179,3.462936
1001.054688,6.698040,-3.394621,-4.745682,2.603631
1001.058594,-4.981340,-13.892629,-6.447990,-9.621160
1001.062500,-7.716528,-9.039346,-4.587805,-1.856373
1001.066406,-8.106116,-12.659261,-6.781218,-4.751288
1001.070312,-10.493130,-11.871781,-12.456694,-11.788734
1001.074219,-6.743462,-15.179374,-6.002344,-12.104213
1001.078125,-4.020189,-8.888633,-8.009751,-9.220853
1001.082031,-13.396812,-11.477638,-12.801338,-12.943143
1001.085938,-17.527715,-8.160347,-11.994137,0.472734
1001.089844,-6.898295,-6.340159,-10.231566,-10.712815
1001.093750,0.398446,-13.076447,-3.735595,-0.046295
1001.097656,-1.371202,-1.933881,1.794692,-8.026076
1001.101562,0.266429,5.319565,-1.814760,-1.116518
1001.105469,-1.907852,4.893279,0.493756,5.161068
1001.109375,11.021703,8.944474,3.926880,-2.130452
1001.113281,15.662525,8.544629,1.498127,5.761601
1001.117188,10.496535,16.311488,8.826500,5.161934
1001.121094,10.902507,12.572824,8.990012,4.771355
1001.125000,7.275422,8.785097,18.054548,8.410053
1001.128906,12.570525,12.994146,7.721872,6.227182
1001.132812,11.338561,16.078499,10.697761,6.418326
1001.136719,9.137312,6.836645,7.283405,3.325807
1001.140625,1.780317,6.402770,-1.674012,10.103316
1001.144531,5.370907,1.574235,8.998399,-0.201064
1001.148438,4.404159,1.704382,2.484512,-4.353429
1001.152344,-7.223794,-1.401001,1.592465,0.085171
1001.156250,-7.346485,-1.281629,0.812780,4.602887
1001.160156,-12.655955,-7.138707,-3.629359,-9.862709
1001.164062,-11.639760,-3.815332,-7.437563,-3.885179
1001.167969,-9.698642,-6.478357,-5.619196,-5.705065
1001.171875,-10.465494,-10.948464,-12.602251,-4.674435
1001.175781,-13.020478,-10.280765,-3.764940,-8.668762
1001.179688,-15.202830,-14.640853,-3.805009,-4.721880
1001.183594,-10.592316,-4.248604,-9.816158,-15.456640
1001.187500,-5.359349,-3.696830,-7.818644,-6.289625
1001.191406,3.508727,-6.644672,-6.090291,-6.245879
1001.195312,-5.249892,0.696086,-2.283852,-10.024425
1001.199219,-2.011806,5.737226,3.800174,-1.650221
1001.203125,2.569901,1.241986,-2.117956,-3.092011
1001.207031,4.533634,4.693108,5.643392,9.794401
1001.210938,9.571931,5.404186,7.582263,8.785311
1001.214844,7.536908,1.805360,7.716456,4.303057
1001.218750,12.511364,7.566349,10.113976,12.111525
1001.222656,11.060327,15.362482,5.703196,4.795113
1001.226562,12.082048,12.714243,8.002177,10.865408
1001.230469,11.066741,7.066746,13.207528,9.256440
1001.234375,7.334153,0.707130,5.895512,12.560882
1001.238281,9.450752,9.218516,-0.122988,12.191507
1001.242188,9.930381,10.177632,4.362838,6.828824
1001.246094,0.488334,0.457956,2.500349,2.249824
1001.250000,-4.492701,-2.921389,-7.465938,5.791348
1001.253906,2.711337,2.192612,-4.929727,-5.070828
1001.257812,-0.414094,-7.311656,-7.904621,-4.211006
1001.261719,-5.632278,1.153430,-7.776084,-11.566083
1001.265625,-7.526785,-10.431129,-1.761083,-7.390390
1001.269531,-7.019648,-6.774234,-7.587280,-10.037346
1001.273438,-6.137383,0.491734,-11.571815,-20.093505
1001.277344,-9.600474,-6.359403,-6.895547,-9.873224
1001.281250,-8.359253,3.734822,-7.244044,-6.136074
1001.285156,-5.736401,-10.008082,-0.499855,-8.019000
1001.289062,-10.116581,-15.912450,-3.825638,-6.498104
1001.292969,-3.830464,-3.797501,-8.647156,-0.519757
1001.296875,1.934789,-3.137221,-2.927856,1.281242
1001.300781,4.939470,-1.552518,-2.140022,-1.339560
1001.304688,4.927810,2.850473,6.664253,-2.376817
1001.308594,2.608294,11.572033,3.938142,-2.941916
1001.312500,7.170951,8.539574,4.754645,4.460444
1001.316406,-3.965352,14.884652,20.808499,6.711336
1001.320312,10.330264,9.213151,11.007341,8.713331
1001.324219,6.535313,4.836836,11.885596,9.947855
1001.328125,4.995225,12.569576,11.042077,19.963968
1001.332031,7.746263,4.406562,6.460698,9.952957
1001.335938,5.657720,6.547930,11.366271,7.208414
1001.339844,6.881371,4.956578,10.283721,6.573247
1001.343750,4.622348,5.013148,6.106768,4.960912
1001.347656,-0.553839,7.076443,-2.253259,3.445451
1001.351562,-4.581254,1.869851,-4.716309,2.436141
1001.355469,4.178799,-4.943926,-7.795375,5.294204
1001.359375,-2.686551,-5.970751,-1.094667,-6.307531
1001.363281,-11.912400,4.872937,-7.452375,-4.231725
1001.367188,-15.458276,-7.209709,-12.148841,-1.669512
1001.371094,-9.155487,-13.228919,-4.491092,-12.988883
1001.375000,-7.201615,-10.918448,-7.441651,-15.642422
1001.378906,-9.417475,-9.840744,-8.392981,-11.313308
1001.382812,-11.405731,-2.642895,-11.444771,-8.809754
1001.386719,-8.806708,-5.096241,-16.243205,-9.159261
1001.390625,-5.130908,-2.198803,-9.103993,-13.081017
1001.394531,-1.264127,-2.176247,-2.811822,-5.937579
1001.398438,-8.043271,1.680561,-4.702301,-5.344372
1001.402344,4.392360,3.368364,6.383198,5.014667
1001.406250,5.762883,-1.246738,7.325699,3.842870
1001.410156,7.325748,9.690316,8.074981,-1.358714
1001.414062,8.757006,7.296625,7.379942,6.518657
1001.417969,10.475962,8.002447,7.553589,10.712267
1001.421875,9.456279,10.149566,13.518783,9.783195
1001.425781,9.071467,11.454302,2.555523,6.950695
1001.429688,13.278964,0.453637,12.367622,9.767613
1001.433594,8.780443,8.041922,7.283690,14.535358
1001.437500,6.815078,11.623607,11.805356,4.818980
1001.441406,5.753175,10.993165,3.345305,10.061647
1001.445312,2.434168,2.392696,3.374643,3.748124
1001.449219,0.360847,1.720786,-2.633734,7.189025
1001.453125,-10.411969,-3.751884,4.388731,-0.756193
1001.457031,-5.617911,-4.217793,-4.923570,-1.301237
1001.460938,-8.659280,-9.793608,-4.187216,-5.121560
1001.464844,-8.062144,-0.531862,-4.864018,-8.263753
1001.468750,-6.521295,-10.155152,-11.951673,-5.404868
1001.472656,-9.036922,-6.822150,-7.355781,-10.476465
1001.476562,-8.466449,-8.124558,-12.983970,-17.049096
1001.480469,-12.379431,-9.408611,-8.097784,-4.066717
1001.484375,-9.832678,-0.991894,-10.706816,-4.219578
1001.488281,0.870003,-4.611537,-7.061831,-3.298776
1001.492188,-13.197988,-7.563779,-7.616342,3.035857
1001.496094,-1.666900,-6.399900,-2.851971,-3.157622
1001.500000,0.038592,2.095691,4.225677,-2.414600
1001.503906,2.779581,6.733737,4.861111,9.421385
1001.507812,1.879452,1.375069,-0.925488,-3.617695
1001.511719,6.201727,4.133073,-1.780791,2.885696
1001.515625,14.512064,5.225644,2.031171,6.746062
1001.519531,14.757089,8.848571,15.783901,8.326826
1001.523438,9.664566,5.560344,13.394276,15.219443
1001.527344,9.067044,6.442474,3.964342,6.150427
1001.531250,10.503360,13.555477,15.288082,11.349449
1001.535156,3.489645,4.254009,6.635891,11.779480
1001.539062,1.667099,3.179953,4.399026,4.261190
1001.542969,-3.019203,3.158220,-0.739931,-2.773109
1001.546875,3.844996,-5.111175,2.574534,8.352608
1001.550781,-10.086580,-1.034881,-3.509949,-2.542775
1001.554688,-2.338078,1.315493,3.536317,-2.035313
1001.558594,-6.342028,-6.401092,1.877670,-8.250803
1001.562500,-9.381201,-6.472223,-7.278810,-7.206943
1001.566406,-8.356784,-10.011872,-7.845176,-10.023494
1001.570312,-12.967951,-4.918597,-20.023614,-8.570240
1001.574219,-12.546522,-5.763679,-13.873854,-10.360575
1001.578125,-14.681572,-6.187182,-8.589560,-13.807752
1001.582031,-10.697374,-13.816722,-3.610364,-7.888833
1001.585938,-11.025769,-8.134276,-7.089498,-13.194873
1001.589844,-5.140488,-7.669316,-7.531088,-12.555083
1001.593750,0.607829,-0.654393,-3.457722,-4.760150
1001.597656,-1.520731,-9.168152,2.361758,-9.574670
1001.601562,3.863215,0.951999,4.156787,1.244045
1001.605469,-5.746837,-0.130599,5.034215,11.547644
1001.609375,3.019009,9.839911,3.715578,8.941752
1001.613281,1.576451,0.163612,7.002358,9.386776
1001.617188,3.342618,4.152092,4.229940,4.590435
1001.621094,10.090108,10.114586,8.400023,12.535168
1001.625000,13.009422,13.203817,11.115053,9.141771
1001.628906,10.465035,7.361812,9.818699,8.313235
1001.632812,14.778194,8.300070,10.188497,7.086485
1001.636719,2.956436,-0.012226,12.892000,14.674653
1001.640625,14.834036,4.892461,4.078099,4.266280
1001.644531,4.750099,5.127206,-1.287539,6.349798
1001.648438,-1.140962,-1.332908,-4.490904,1.627800
1001.652344,-0.888996,-5.433129,0.113527,-12.167385
1001.656250,0.394225,1.341734,-6.396729,-5.169046
1001.660156,-3.109746,-8.899386,-5.246954,-3.725615
1001.664062,-10.197408,-7.571961,-9.155753,-8.186898
1001.667969,-8.962353,-9.244273,-8.114358,-10.739533
1001.671875,-11.603296,3.422487,-10.423287,-11.580467
1001.675781,-13.111021,-20.995952,-2.442341,-3.325758
1001.679688,-6.476003,-11.685455,-7.956646,-7.779148
1001.683594,-6.656610,-8.430598,-16.244529,-2.149055
1001.687500,-1.711405,-2.874120,-8.150008,-6.173549
1001.691406,-4.998621,-12.983126,-2.093587,-2.445754
1001.695312,-2.783981,-10.246019,-4.888495,-8.245589
1001.699219,-1.526479,3.310646,-4.938906,0.413840
1001.703125,-3.215641,6.638700,9.377960,0.114961
1001.707031,6.213202,5.537913,7.726308,-3.531892
1001.710938,2.059491,6.884746,4.802749,6.736066
1001.714844,10.335001,6.632686,9.741575,8.612183
1001.718750,10.180734,19.221961,7.861591,3.234156
1001.722656,7.808627,5.797723,6.668664,8.620041
1001.726562,13.824514,15.077230,6.792817,3.450163
1001.730469,-0.046836,2.328560,8.636718,11.459936
1001.734375,5.515064,12.482322,-1.267626,13.676743
1001.738281,1.804327,8.159329,4.008588,-0.602118
1001.742188,6.352971,2.274055,12.266295,0.291376
1001.746094,3.847736,3.396566,-1.230703,-1.258092
1001.750000,-1.623296,12.272034,2.012902,5.242775
1001.753906,-2.274186,-0.269875,-4.961961,1.328718
1001.757812,-6.306388,-8.535251,-4.185601,-4.182833
1001.761719,-5.312094,-5.246675,-6.517859,-1.210534
1001.765625,-5.358170,-7.565509,-6.684650,-9.305292
1001.769531,-9.761045,-13.124014,-10.580075,-7.167158
1001.773438,-9.947966,-11.675185,-7.360882,-12.911249
1001.777344,-6.237101,-10.608163,-7.403841,-13.702483
1001.781250,-4.449962,-4.883401,-9.589295,-9.296883
1001.785156,-6.295834,-8.587585,-14.115052,-6.132596
1001.789062,-7.631095,-7.507894,-11.117865,-6.745842
1001.792969,-0.303954,-4.576210,-3.502389,1.454272
1001.796875,-1.644730,4.745564,6.644944,1.463222
1001.800781,-4.985567,-7.641741,-1.558917,7.021374
1001.804688,2.710106,-3.394841,-0.870898,3.034254
1001.808594,0.260792,10.290162,2.801705,5.668915
1001.812500,1.466318,11.659187,8.110586,12.237276
1001.816406,11.688027,9.522557,-2.241808,11.431889
1001.820312,11.149324,17.158716,5.197086,5.619041
1001.824219,8.333037,5.701188,10.557447,4.891432
1001.828125,10.613105,13.286768,9.090081,9.678642
1001.832031,1.556682,7.186080,2.945931,10.262448
1001.835938,10.588414,19.365054,4.256624,7.043322
1001.839844,9.347562,13.801519,4.931175,5.048138
1001.843750,-3.965759,8.239332,12.193382,5.302584
1001.847656,-1.991742,4.285183,1.090477,-0.932828
1001.851562,-0.319214,-2.363118,-3.804918,-2.856848
1001.855469,-7.404461,-2.358009,-3.140836,-8.110339
1001.859375,-8.697161,2.409109,-7.296808,-3.609278
1001.863281,-11.658197,-1.786489,-6.520179,-3.138365
1001.867188,-11.997259,-1.302642,2.853670,-11.558538
1001.871094,-5.017867,-11.754363,-16.648285,-13.024471
1001.875000,-13.550214,-17.692235,-13.722634,-7.005467
1001.878906,-7.315241,-5.191037,-15.658548,-6.613815
1001.882812,-6.005718,-5.611676,-2.444415,-12.937013
1001.886719,-7.646885,-7.470608,-6.679992,1.900437
1001.890625,-4.044173,-9.536458,-9.578281,6.115527
1001.894531,2.010549,-2.484526,2.762120,-5.299386
1001.898438,-1.317044,-3.937530,-3.239355,0.962912
1001.902344,4.117205,1.696001,0.057175,5.759479
1001.906250,6.291386,7.931958,-0.231040,6.770690
1001.910156,7.195149,4.699361,7.275969,-0.656208
1001.914062,10.799223,13.078963,5.760445,15.876843
1001.917969,-0.268875,10.936890,11.104439,10.629769
1001.921875,6.090529,12.022141,13.251246,8.170264
1001.925781,9.592740,9.173750,10.432895,19.939391
1001.929688,2.936751,5.934030,12.567945,9.863530
1001.933594,12.112154,10.777515,9.278704,9.198116
1001.937500,7.228754,0.245882,0.855599,10.652357
1001.941406,9.107516,-1.218991,2.540168,6.953743
1001.945312,0.214988,2.957860,-1.385656,-4.847730
1001.949219,-3.904976,1.693830,0.207953,0.837022
1001.953125,1.332062,-10.598654,-8.252969,-5.007530
1001.957031,-8.547691,-3.155197,-4.459852,-12.186619
1001.960938,-11.024926,-6.227239,-8.685544,-3.886764
1001.964844,-0.708051,-10.722729,-2.544987,-11.099093
1001.968750,-14.429771,-8.665856,-15.321006,-11.793026
1001.972656,-15.825402,-8.974461,-10.795796,-11.524275
1001.976562,-9.822272,-14.135034,-14.000432,-14.852735
1001.980469,-4.756189,-10.742736,-9.619473,-6.776442
1001.984375,-8.762807,-11.469490,-7.901703,-9.101400
1001.988281,-4.152001,-5.183480,-8.849750,-1.874070
1001.992188,-8.263366,-3.672755,-3.619593,-6.766878
1001.996094,-2.925035,-6.431124,-1.918591,0.905980
1002.000000,-0.871886,-8.613539,3.676795,-1.636849
1002.003906,0.634345,1.266929,0.553369,-3.486591
1002.007812,7.810841,8.695782,6.143107,9.603762
1002.011719,1.555063,6.021094,7.855594,7.912561
1002.015625,8.587811,6.601361,6.214257,7.277858
1002.019531,17.244257,17.576853,11.500806,11.083141
1002.023438,6.761700,11.811469,5.997682,5.999934
1002.027344,12.417090,3.691027,13.303910,12.585056
1002.031250,5.225273,10.677968,12.119323,4.547635
1002.035156,13.409255,3.261920,13.457845,10.231895
1002.039062,12.577933,6.166129,4.095456,3.704232
1002.042969,-0.239695,4.320667,2.814632,1.146509
1002.046875,-2.789629,2.906242,-2.133334,10.121072
1002.050781,-3.841890,-11.150607,-4.947095,-5.783401
1002.054688,-6.162434,-7.174039,1.969712,-6.297124
1002.058594,1.590410,-4.905872,-9.412716,2.010480
1002.062500,-9.321481,-11.702816,-7.005836,-1.675543
1002.066406,-6.339754,-8.632806,-15.368376,-16.266222
1002.070312,-8.372606,-6.286173,-9.495503,-6.520993
1002.074219,-9.800300,-9.826067,-9.920187,-12.234625
1002.078125,-13.925274,-7.427287,-14.047147,-13.971537
1002.082031,-10.275037,-10.886152,-5.065852,-11.538937
1002.085938,-2.104227,-11.501697,-7.266498,-8.595475
1002.089844,-2.593530,-4.042269,-6.100041,-10.203609
1002.093750,-3.536850,-5.392521,-1.663532,-2.759935
1002.097656,2.306034,0.324551,8.538888,-0.033997
1002.101562,-8.668572,6.322435,3.458103,2.246947
1002.105469,-0.429856,1.387704,-7.157274,9.736054
1002.109375,5.055945,1.073440,3.335315,2.356273
1002.113281,11.354046,10.813544,9.423981,12.594069
1002.117188,11.311835,11.126924,5.259722,7.481240
1002.121094,11.175048,12.142362,11.793046,11.402301
1002.125000,12.225410,10.492534,4.626670,14.044997
1002.128906,6.408264,10.083289,11.881439,4.590022
1002.132812,13.382377,8.476249,13.637584,11.404862
1002.136719,9.744371,9.130245,4.798093,6.191508
1002.140625,5.410273,3.336272,0.509449,2.445854
1002.144531,7.571212,7.996270,6.830581,2.079715
1002.148438,8.324053,2.937422,4.320271,1.728923
1002.152344,1.173760,1.560344,-8.488581,0.858558
1002.156250,-2.495731,-1.515698,-0.706956,-4.258783
1002.160156,-3.406798,-7.737795,-6.858193,-3.157752
1002.164062,-2.000856,-4.515313,-9.198582,-10.097917
1002.167969,-9.290869,-16.368291,-7.116018,-10.384928
1002.171875,-9.903588,-8.725875,-14.425870,-5.270843
1002.175781,-11.533198,-5.814438,-12.638863,-8.236673
1002.179688,-2.184271,-10.810714,-5.472178,-8.499161
1002.183594,-4.508507,-2.646428,-9.282227,-10.854191
1002.187500,-3.652301,-8.105040,-1.399981,-3.407236
1002.191406,-4.673524,-3.276296,-6.355175,-8.027579
1002.195312,-3.576568,-4.980867,-5.360196,-6.167231
1002.199219,-1.794337,1.832203,2.005278,0.535912
1002.203125,-3.457379,-1.234553,-2.097641,-0.658638
1002.207031,3.344037,7.480811,-3.949542,6.466315
1002.210938,5.680320,0.826462,11.591955,0.994110
1002.214844,14.077233,4.058528,4.329049,10.193286
1002.218750,10.152227,5.398307,14.907570,8.089256
1002.222656,2.577661,9.264126,3.757193,10.233317
1002.226562,19.066855,12.568910,9.543754,5.833267
1002.230469,13.790165,8.593866,7.091093,12.014048
1002.234375,10.075526,11.849814,14.440310,7.453886
1002.238281,7.553176,5.430353,8.792078,5.333998
1002.242188,7.780680,3.441224,-0.682574,5.792842
1002.246094,0.330976,0.241862,3.140402,1.590699
1002.250000,10.124593,1.307568,-3.721098,3.240140
1002.253906,1.918378,-0.390788,-0.519003,-2.144285
1002.257812,-7.489712,-2.338118,-1.249605,-6.605040
1002.261719,-4.728218,-12.021641,-0.938468,-1.104227
1002.265625,-9.866693,-4.654610,-6.534831,-11.023545
1002.269531,-12.087210,-9.102158,-13.343477,-6.933056
1002.273438,-8.775196,1.116773,-8.852719,-16.759418
1002.277344,-15.146874,-3.807318,-5.173173,-9.788690
1002.281250,-6.438959,-9.516788,-7.279831,-14.872039
1002.285156,-10.416512,1.639009,-2.029836,-2.100327
1002.289062,-4.947170,-7.428032,-11.628100,-10.132963
1002.292969,-4.348889,-8.429624,-6.788634,3.165949
1002.296875,2.960038,2.181528,-7.704022,1.017510
1002.300781,0.620374,9.135765,1.615395,-2.287724
1002.304688,0.884851,3.655782,7.368801,-7.862257
1002.308594,12.707223,4.605008,9.196386,6.168109
1002.312500,9.616987,4.021926,9.128240,7.228174
1002.316406,11.192680,12.007673,10.445309,8.820326
1002.320312,8.646257,10.419014,9.511702,10.054787
1002.324219,14.501111,9.049784,2.959503,11.342739
1002.328125,11.299066,7.902287,11.122950,5.383947
1002.332031,8.425428,8.448449,3.731468,7.974497
1002.335938,6.963616,4.996125,8.198813,13.607860
1002.339844,7.170136,4.144638,8.227182,8.132197
1002.343750,7.489548,5.136447,2.163532,7.663269
1002.347656,7.974417,2.280647,-1.113606,0.108515
1002.351562,-1.379990,3.327247,-6.092347,2.743913
1002.355469,-0.540639,-1.487860,-3.228348,-5.268200
1002.359375,-4.585492,-0.956454,-4.033272,-12.442178
1002.363281,-10.640188,-11.563528,-9.950163,-7.114380
1002.367188,-15.202987,-8.866911,-7.042899,-8.848466
1002.371094,-12.114166,-11.806658,-15.816875,-8.536111
1002.375000,-12.459564,-10.227133,-8.125197,-12.701249
1002.378906,-3.756384,-3.913732,-7.460114,-9.554937
1002.382812,-10.829288,-7.173445,-7.155100,-10.991029
1002.386719,-7.896248,-7.255229,-2.280803,-5.638918
1002.390625,-4.626466,-5.110339,-9.005010,-8.870651
1002.394531,-1.976190,-6.789536,-6.946036,-4.512101
1002.398438,-3.973585,6.943961,2.617775,10.183338
1002.402344,-6.217367,-4.774404,4.927669,-6.832378
1002.406250,10.344938,6.388188,3.066226,5.962237
1002.410156,12.044240,4.871696,9.060496,5.803642
1002.414062,13.748036,8.124590,8.226013,8.679955
1002.417969,12.693539,7.853126,11.429602,8.583220
1002.421875,16.225304,2.359891,9.677648,5.355343
1002.425781,10.871440,4.835700,8.067272,8.476301
1002.429688,5.373097,7.522873,4.633923,5.489967
1002.433594,10.401221,5.854977,-0.909706,10.772077
1002.437500,8.609920,4.360312,6.780718,4.999489
1002.441406,3.078955,6.114109,11.093897,-0.458697
1002.445312,8.376384,5.602133,6.812175,7.788052
1002.449219,1.383023,-2.496469,-1.155153,-0.759886
1002.453125,-4.466487,-1.507072,1.753327,0.361225
1002.457031,2.015448,0.699834,1.416973,-1.945193
1002.460938,-8.810696,-3.317866,-8.640600,-6.457404
1002.464844,-15.385942,-12.594382,-12.981527,-11.870511
1002.468750,-5.883457,-12.391443,-5.116225,-11.342107
1002.472656,-18.565233,-15.959490,-8.389476,-9.066396
1002.476562,-4.278202,-7.752229,-9.363026,-3.665835
1002.480469,-13.630539,-11.630140,-12.043263,-9.899903
1002.484375,-5.033022,-14.198724,-10.364678,-2.250574
1002.488281,-5.101635,-2.830572,-9.288863,-6.006496
1002.492188,-6.274216,-6.161404,-2.066628,-10.666404
1002.496094,-7.275604,0.433287,-0.143377,-6.995813
1002.500000,4.006016,0.763773,4.388070,-2.356756
1002.503906,2.272225,-4.537896,-1.886407,2.897967
1002.507812,3.922022,1.977634,8.039393,8.090477
1002.511719,14.525989,15.626356,4.732238,10.725173
1002.515625,7.122246,8.589781,17.044784,1.136113
1002.519531,11.001159,14.845140,7.923266,17.077681
1002.523438,14.657779,10.069065,3.712522,10.412640
1002.527344,13.993507,6.418200,7.671190,12.662189
1002.531250,8.339787,16.275576,14.529745,6.042328
1002.535156,2.995304,11.592407,4.250736,8.058905
1002.539062,5.622792,14.049909,8.761626,-0.332102
1002.542969,8.840917,0.294301,5.798567,9.188433
1002.546875,-2.155762,1.769305,4.582053,8.134053
1002.550781,-1.861470,-4.580991,-3.018192,3.910698
1002.554688,-0.651047,0.472605,-5.735904,-2.642649
1002.558594,-7.121667,-1.648484,-6.004005,-13.393773
1002.562500,-7.547511,-1.614054,-6.650304,-12.104778
1002.566406,-8.293011,-2.550511,-9.837592,-21.044429
1002.570312,-10.137911,-6.452032,-0.578074,-7.814515
1002.574219,-12.159949,-9.571804,-14.857943,-5.812253
1002.578125,-13.313617,-3.397954,-6.952775,-10.109246
1002.582031,-7.263152,-8.025505,-5.136668,-6.685755
1002.585938,-8.145174,-10.001216,-8.270952,-5.571706
1002.589844,-7.010326,-9.780387,-9.738786,-5.804488
1002.593750,-5.545272,-2.863301,-2.975521,-5.264863
1002.597656,3.088313,1.183653,-3.141868,-8.040988
1002.601562,-5.218168,1.203063,-1.679323,0.055390
1002.605469,5.892495,-0.055465,-0.211838,2.955336
1002.609375,3.877941,13.151616,1.752679,5.846763
1002.613281,8.141826,3.159551,12.233631,4.363458
1002.617188,3.386165,11.111680,10.481355,10.646324
1002.621094,14.015911,10.681348,12.203362,7.746443
1002.625000,6.630565,10.743397,8.597391,9.197401
1002.628906,6.212686,16.487417,6.138523,8.067453
1002.632812,0.002749,11.059450,16.402759,7.239996
1002.636719,6.847364,2.344122,11.271343,5.766348
1002.640625,5.748965,8.757007,-1.568635,3.253620
1002.644531,-2.061311,6.771902,5.278909,-5.110151
1002.648438,-1.297223,5.654186,6.383812,2.545711
1002.652344,-6.924779,-0.539522,1.259224,-7.340347
1002.656250,-4.718630,-8.049431,-3.198007,-8.975422
1002.660156,-3.335508,-5.317181,-6.111711,-6.277319
1002.664062,-9.544035,-8.473212,-4.091930,-9.471628
1002.667969,-8.286353,-8.390732,-11.138904,-3.350543
1002.671875,-16.748091,-18.225102,-6.489077,-8.531553
1002.675781,-13.108177,-14.591551,-14.757528,-9.888949
1002.679688,-15.128259,-10.643955,-7.122312,-7.926887
1002.683594,-12.304437,-7.963509,-8.675864,-0.671938
1002.687500,-5.733468,-10.985586,-6.299955,-2.961565
1002.691406,4.143636,-4.448411,-3.782011,-5.191652
1002.695312,-0.240474,-0.038962,-9.055753,-3.562358
1002.699219,2.443687,-3.924609,0.322839,-0.159935
1002.703125,11.698064,4.658908,2.256241,4.855792
1002.707031,2.468619,3.622518,2.761843,-5.954370
1002.710938,-0.913608,-4.197417,4.771102,1.847898
1002.714844,2.738353,2.229131,1.370866,7.968200
1002.718750,12.525380,2.423773,7.117389,10.967454
1002.722656,9.872262,14.924381,5.456726,9.172118
1002.726562,1.075037,17.180832,8.835132,11.086746
1002.730469,17.972376,9.587414,13.294523,9.004168
1002.734375,5.416521,10.329358,12.411923,15.001411
1002.738281,6.340503,11.704463,2.693088,8.145395
1002.742188,9.687966,4.274831,0.102664,9.905193
1002.746094,-1.011674,-5.979261,2.254084,4.554795
1002.750000,6.055029,2.252813,-5.487376,-5.443517
1002.753906,0.286428,-7.108068,2.587602,-8.930534
1002.757812,0.407163,-0.896469,-3.376545,-11.412906
1002.761719,-4.864194,-4.961345,-6.333253,-3.498395
1002.765625,-10.305824,-9.713760,-10.345035,-9.025077
1002.769531,-15.350318,-11.789540,-6.532814,-10.492893
1002.773438,-9.221258,-13.107331,-7.705642,-10.302491
1002.777344,-9.738502,-10.527399,-12.866959,-8.631499
1002.781250,-5.343539,-0.209394,-9.133061,0.911823
1002.785156,-9.774920,-7.450847,-10.389997,-6.946702
1002.789062,-3.714531,-3.446546,-3.864904,-6.671239
1002.792969,-4.291717,4.841833,-0.287915,-2.621295
1002.796875,3.781305,-9.738598,-2.946284,5.244460
1002.800781,-7.905722,-6.435613,0.616816,-0.062530
1002.804688,-3.398600,-2.389431,-6.340397,2.811473
1002.808594,0.172159,0.881060,8.800112,10.561986
1002.812500,2.386245,9.734824,10.360124,8.626612
1002.816406,9.918469,3.840863,6.631852,13.162335
1002.820312,4.837386,3.308551,9.513606,2.440917
1002.824219,1.612146,14.715227,11.420959,7.272112
1002.828125,3.243292,20.253308,7.995922,13.336098
1002.832031,11.536057,3.889563,11.592062,10.845177
1002.835938,0.058803,6.301045,9.506065,4.192384
1002.839844,11.593663,3.393346,14.195864,4.621021
1002.843750,-2.327988,8.475161,5.200048,0.522426
1002.847656,0.873093,0.311701,1.844346,3.052412
1002.851562,1.159974,-10.275358,1.212121,7.932676
1002.855469,-2.480339,-6.865458,2.598382,-11.331248
1002.859375,3.351379,-10.910925,-1.131886,5.954085
1002.863281,-6.837553,-3.360399,-7.603844,-4.638100
1002.867188,-6.461030,-6.301947,-9.328130,-10.244794
1002.871094,-13.371452,-2.170821,-8.049135,-10.840184
1002.875000,-10.770905,-9.114291,-3.092104,-10.729352
1002.878906,-3.571454,-7.156562,-22.835209,-4.561850
1002.882812,-10.423136,-10.892426,-13.608409,-0.072188
1002.886719,-6.346435,-6.385264,-11.363246,-14.035076
1002.890625,-2.822191,-4.555531,-1.455838,-3.281194
1002.894531,-1.191481,-1.784923,-3.450626,2.044642
1002.898438,-2.469339,-0.651164,2.216488,3.163743
1002.902344,3.240191,2.236915,-3.875993,-2.191689
1002.906250,4.495423,4.825988,-4.436612,-3.639477
1002.910156,7.200557,2.779192,5.085077,2.063048
1002.914062,4.312217,11.810841,8.826852,4.600153
1002.917969,1.325221,15.741754,-0.206224,3.036567
1002.921875,13.529813,10.870824,8.446487,2.323271
1002.925781,12.749620,11.093087,10.327333,2.583732
1002.929688,9.864079,1.421786,12.328012,11.335266
1002.933594,14.005947,7.269311,10.659174,6.839211
1002.937500,8.731300,7.596550,7.301758,8.949092
1002.941406,2.439306,4.375149,12.038393,6.708941
1002.945312,5.250206,4.622860,6.945049,4.310498
1002.949219,2.311542,6.415869,-0.494392,5.902481
1002.953125,0.207374,-0.377604,-0.555556,-6.119894
1002.957031,3.269134,-1.622000,-8.062747,-6.977164
1002.960938,-5.134176,-5.673195,-9.103059,-9.141602
1002.964844,-9.985864,-8.834395,-5.854973,-7.360320
1002.968750,-9.839770,-8.306861,-5.182678,-10.701706
1002.972656,-10.550124,-7.237514,-5.212610,-9.727909
1002.976562,-11.718280,-16.425088,-6.375754,-12.954022
1002.980469,-12.527461,-2.850291,-11.078673,-8.459553
1002.984375,-4.781799,-3.962972,-13.331756,-0.278479
1002.988281,-7.010875,-5.987432,-2.287199,-10.298592
1002.992188,-2.436809,-2.159823,-8.881511,-5.522794
1002.996094,-6.959313,-3.772215,-2.675184,-0.783866
1003.000000,1.736876,1.733723,8.879058,-2.389937
1003.003906,2.792524,-5.728756,-1.878000,-1.493937
1003.007812,8.915527,6.852708,1.280042,7.802765
1003.011719,15.345771,15.407015,4.851397,5.813026
1003.015625,20.775612,10.831494,1.038646,6.529741
1003.019531,7.609966,5.660018,9.303972,14.948307
1003.023438,16.601837,1.930374,4.780524,16.327687
1003.027344,7.990613,7.450330,16.111811,14.620197
1003.031250,11.567084,8.905136,8.980345,19.972190
1003.035156,7.645371,6.675623,9.682734,6.370540
1003.039062,5.105788,5.620353,5.679060,2.356364
1003.042969,4.011811,1.644027,7.773571,3.888283
1003.046875,5.566844,-1.305891,3.356111,3.594530
1003.050781,-2.308541,7.204052,-9.976528,-2.160453
1003.054688,-0.634785,-3.598599,-9.541818,-0.688214
1003.058594,-10.130545,-6.767325,-7.226906,-9.350322
1003.062500,-5.037098,-8.155228,-8.293643,-3.160763
1003.066406,-8.852862,-13.460798,-10.857828,-5.821490
1003.070312,-11.758670,-10.540518,-12.743250,-12.431064
1003.074219,-8.599852,-16.391879,-12.528703,-0.524312
1003.078125,-7.602682,-11.156115,-16.708081,-5.931530
1003.082031,-12.476138,-6.558665,-10.445000,-2.339786
1003.085938,-7.917503,-15.371740,-7.827516,-3.884133
1003.089844,-3.836488,-3.557914,-1.085578,-12.806558
1003.093750,-3.358675,1.183543,-1.619164,-2.689695
1003.097656,1.533046,3.452956,-0.669569,6.060226
1003.101562,5.919353,-2.245130,2.473828,-1.028460
1003.105469,7.508426,7.675821,-2.331206,4.557199
1003.109375,6.563592,10.841366,0.752606,7.261997
1003.113281,9.050282,3.986980,9.530991,7.710491
1003.117188,12.126319,9.349337,5.166410,10.788005
1003.121094,13.944045,14.087945,9.524483,5.006266
1003.125000,7.346095,14.240168,12.660649,14.234750
1003.128906,15.771575,17.802211,-0.912943,13.560005
1003.132812,3.753870,16.717158,2.652895,12.048668
1003.136719,6.953125,4.529294,-3.190130,3.360302
1003.140625,-8.804693,4.737337,1.553801,7.764800
1003.144531,4.657575,9.341072,-3.686712,-0.543306
1003.148438,-2.151904,2.280479,4.501212,0.463827
1003.152344,-0.888373,-2.068999,-1.583456,-5.891478
1003.156250,-4.792107,-3.576728,-10.597666,-10.356061
1003.160156,-7.286705,-10.317780,-10.665464,-5.237264
1003.164062,-0.250349,-5.324542,-6.389163,-13.159108
1003.167969,-5.179874,-8.800450,-6.744173,-4.575274
1003.171875,-14.411669,-15.043252,-10.422437,-15.092793
1003.175781,-11.978113,-7.594139,-11.936382,-24.508318
1003.179688,-6.073189,-9.613013,-8.083522,-4.288584
1003.183594,-0.870241,-10.160010,-8.068333,-8.526640
1003.187500,-4.289478,-5.353767,-8.984836,-6.465769
1003.191406,-10.495617,-9.823265,-4.286138,-1.738105
1003.195312,-2.461890,3.561656,-5.781817,-4.918625
1003.199219,7.706524,-1.343911,-0.665116,-4.525124
1003.203125,3.671824,6.152852,-1.932869,5.473852
1003.207031,5.835716,1.534211,12.135067,7.111123
1003.210938,12.929999,7.873977,7.395043,6.563183
1003.214844,11.439862,11.243333,1.631027,9.344656
1003.218750,12.387060,15.686022,9.966865,10.230127
1003.222656,16.376305,5.004155,6.110164,9.023478
1003.226562,15.044370,14.630555,7.956316,8.058893
1003.230469,10.570621,13.013625,14.607043,16.625941
1003.234375,9.986649,11.823842,7.537671,5.090382
1003.238281,2.632800,6.768006,3.559007,6.702961
1003.242188,1.559995,1.020784,5.614464,4.986692
1003.246094,0.876817,-0.924466,10.275755,-0.345808
1003.250000,-4.155514,-1.774340,-0.476070,0.620954
1003.253906,3.466263,-0.184795,5.091811,-6.283574
1003.257812,-11.136650,-10.220748,-2.109935,-5.344488
1003.261719,-0.308606,-5.184505,-3.865428,-0.718801
1003.265625,-14.766644,-9.919882,-9.708054,-14.458110
1003.269531,-19.566021,-5.972687,-13.241754,-0.806562
1003.273438,-11.575608,-11.815533,-6.451034,-12.569707
1003.277344,-0.616544,-9.943771,-7.177508,-5.765577
1003.281250,-5.342737,-18.844160,-7.401079,-9.602818
1003.285156,-10.251174,-5.144269,-8.144312,-5.648399
1003.289062,-1.072157,-0.284575,-9.850107,-13.197108
1003.292969,-3.258221,2.766434,1.398405,-10.668708
1003.296875,-1.923994,-0.938561,-3.666758,-7.137944
1003.300781,5.717157,-2.042232,0.250576,3.060454
1003.304688,4.236355,2.103909,7.832563,-5.296158
1003.308594,7.052432,8.753256,6.620895,1.128108
1003.312500,9.212607,6.829436,4.256826,12.820762
1003.316406,7.738586,7.011619,8.114241,9.492653
1003.320312,9.527140,10.181873,6.509768,15.820606
1003.324219,6.084914,14.608977,3.253490,13.578832
1003.328125,6.353688,5.294298,9.144153,7.322824
1003.332031,14.730846,7.683944,3.526969,12.005806
1003.335938,7.476493,6.509726,9.790634,4.471213
1003.339844,3.470046,9.019320,7.650836,1.209031
1003.343750,-4.352729,-2.371210,-0.238158,5.242681
1003.347656,2.765667,1.988613,1.108020,8.022142
1003.351562,1.734342,0.415253,-7.286245,1.117022
1003.355469,-5.326470,-0.218692,-6.215763,-0.152588
1003.359375,-14.096747,-1.658795,-8.654628,-4.219460
1003.363281,-0.852175,-4.705001,-8.158282,-4.701480
1003.367188,-8.308568,-9.673715,-7.954329,-6.566390
1003.371094,-5.736244,-8.339734,-7.907456,-11.621329
1003.375000,-7.660856,-16.536234,-13.780978,-2.033622
1003.378906,-19.688480,-13.403674,-13.955195,-10.314616
1003.382812,-1.765966,-10.166050,1.610132,-4.568628
1003.386719,-10.629699,-11.282218,-11.131864,-4.075755
1003.390625,-10.934055,-4.967099,-6.432688,-6.544112
1003.394531,-2.757292,-1.613636,-1.779142,-8.319427
1003.398438,-6.128548,7.103374,-5.334842,-10.477670
1003.402344,7.273725,5.264411,1.667883,-3.785908
1003.406250,5.587244,6.866534,0.102212,6.424245
1003.410156,2.104700,5.157269,5.687268,6.180026
1003.414062,15.468445,13.711322,4.035554,5.490735
1003.417969,8.243272,1.823665,7.493920,9.796934
1003.421875,10.838005,7.234485,15.202386,11.766020
1003.425781,9.627962,3.827757,2.985001,17.981936
1003.429688,3.096640,3.300109,4.944860,12.494406
1003.433594,12.819705,6.544433,9.728671,6.485349
1003.437500,9.332830,3.514346,5.634456,11.364200
1003.441406,3.839113,16.417908,11.616040,4.881709
1003.445312,-0.986080,1.343332,0.960170,6.636668
1003.449219,-8.003977,-3.536141,-2.023138,-0.472788
1003.453125,-3.590437,-3.255737,-2.444837,-1.865397
1003.457031,-1.443065,-2.873279,-2.450955,1.042046
1003.460938,-11.147532,0.175185,-1.692456,-14.907537
1003.464844,-7.963142,-17.590366,-6.896479,-5.843416
1003.468750,-18.224879,-6.534702,-5.068447,-5.868425
1003.472656,-10.396247,-8.872347,-8.589863,-13.842309
1003.476562,-12.098240,-8.050297,-5.893076,-15.680000
1003.480469,-14.771215,-9.594363,-11.036614,-14.020516
1003.484375,-3.541779,-5.916296,0.588254,-8.143622
1003.488281,-11.962938,1.494175,-11.304418,-1.572723
1003.492188,-12.937110,-12.670638,6.200325,-9.748721
1003.496094,4.007372,-10.969172,2.579054,-3.753982
1003.500000,5.795768,-1.473789,0.269679,0.810269
1003.503906,-2.083698,5.669815,0.762768,-1.092627
1003.507812,-3.475486,0.819807,3.474591,10.094184
1003.511719,2.891474,5.410550,5.631322,2.739036
1003.515625,10.555514,5.799140,11.190807,4.213187
1003.519531,11.373575,6.370655,4.648646,5.866182
1003.523438,14.551776,7.921842,8.495718,6.343234
1003.527344,14.569635,10.529836,5.844527,9.136963
1003.531250,16.071839,8.395363,13.150938,17.895941
1003.535156,7.547353,5.291676,10.181299,11.741069
1003.539062,6.245878,4.027302,8.969531,9.996081
1003.542969,5.840207,6.478396,0.939833,4.994301
1003.546875,4.245415,8.485062,-1.204187,8.399307
1003.550781,-1.125836,1.890862,-3.029061,-8.283226
1003.554688,-2.459094,-11.797072,2.040379,-2.603025
1003.558594,-0.361337,-1.292386,-10.476676,-5.353928
1003.562500,-3.431998,-8.110175,-4.874733,-12.022839
1003.566406,-12.512895,-9.720483,-4.949932,-12.671542
1003.570312,-15.782925,-2.357317,-7.130188,-9.432642
1003.574219,-9.245910,-4.713305,-6.389431,-21.960186
1003.578125,-15.476794,-11.564590,-1.723386,-8.893965
1003.582031,-13.203852,-14.725226,-9.548084,-5.157477
1003.585938,-8.645687,-1.146502,-6.312953,-9.996539
1003.589844,-8.864100,-9.487657,-6.551335,-12.531111
1003.593750,6.462233,0.978856,-9.365216,-3.976710
1003.597656,-0.601093,3.637138,-7.803490,-7.225517
1003.601562,2.561916,15.963318,-1.217901,3.580430
1003.605469,-6.182387,-0.388807,0.047841,2.075704
1003.609375,2.419432,2.196465,-1.781731,2.907172
1003.613281,11.095052,11.038302,6.280161,6.180005
1003.617188,11.516290,0.737322,6.439430,1.420111
1003.621094,15.534712,9.608371,0.466966,8.045085
1003.625000,8.440664,12.730230,8.079009,8.370338
1003.628906,9.920198,8.612541,6.150431,6.625976
1003.632812,13.857483,7.318058,10.328635,14.045522
1003.636719,6.356748,8.329092,12.606245,6.392360
1003.640625,5.162724,1.242762,-0.243200,8.447599
1003.644531,3.862033,4.638615,11.290738,-3.855954
1003.648438,-6.374815,-2.977086,-3.236350,1.355166
1003.652344,0.205253,-5.854728,2.238658,0.647548
1003.656250,4.072765,-7.954883,-6.792895,-11.679725
1003.660156,-3.056442,-2.756041,-10.689586,-8.020120
1003.664062,-12.643701,0.332458,-6.555663,-11.656207
1003.667969,-19.324995,-7.441434,-8.972796,-7.799700
1003.671875,-18.233710,-10.428465,-5.602157,-9.331163
1003.675781,-7.562670,-5.846894,-6.535325,-13.846351
1003.679688,-11.695165,-14.493322,-14.623917,-8.993723
1003.683594,-9.937070,-9.311229,-5.133926,-13.536379
1003.687500,-9.662616,-13.183539,-4.635101,-9.661214
1003.691406,-8.492281,-8.099441,1.733952,-6.054344
1003.695312,-11.507230,-9.591374,-8.686798,1.612327
1003.699219,-7.266795,4.866458,4.781764,4.880869
1003.703125,5.734310,-4.610377,3.578257,1.544152
1003.707031,2.470532,-3.405524,5.733781,3.334648
1003.710938,9.902510,5.234574,-1.025799,8.083134
1003.714844,3.678108,11.594086,9.829910,12.196666
1003.718750,9.355155,17.887006,18.805032,7.380903
1003.722656,13.923346,6.099720,11.430772,9.249922
1003.726562,11.371307,6.340502,15.754954,7.117863
1003.730469,15.578741,6.795132,11.752831,9.087431
1003.734375,6.199830,9.961536,10.620535,6.013919
1003.738281,4.359532,3.718783,7.586362,-0.918926
1003.742188,6.865699,10.758229,2.331180,1.578435
1003.746094,1.026033,3.306267,6.804557,3.771849
1003.750000,7.676264,-3.647061,0.933127,-6.227253
1003.753906,0.849457,-0.522173,-10.142632,5.647910
1003.757812,-11.456311,-3.733989,-1.945280,-5.577194
1003.761719,-8.806195,-5.440577,-9.894093,-3.655370
1003.765625,-9.892855,-3.342812,-9.334912,-4.851427
1003.769531,-15.745112,-11.773513,-3.516232,-7.244333
1003.773438,-16.656426,-4.703536,-10.642422,-8.429449
1003.777344,-12.095190,-6.110852,-7.958763,-16.960053
1003.781250,-9.772438,-11.580164,-6.491042,-11.230317
1003.785156,-6.747461,-8.875687,-16.636740,-10.581738
1003.789062,-1.356678,-6.028974,-4.675530,-10.345523
1003.792969,-3.796757,-7.703448,-7.760876,1.503353
1003.796875,-3.641679,-6.792628,-8.048228,-2.127028
1003.800781,4.810379,-1.787310,-8.033851,-4.151072
1003.804688,3.806551,5.489952,-0.934785,-0.450796
1003.808594,-2.525045,3.878260,8.341095,6.789063
1003.812500,7.647846,5.331469,10.092688,13.131666
1003.816406,5.606046,10.350533,3.901266,5.068578
1003.820312,17.219796,6.067447,10.233365,8.829904
1003.824219,5.237312,6.827818,9.293932,15.068830
1003.828125,7.429746,12.704833,8.072784,13.890138
1003.832031,5.945114,8.546848,10.673879,16.152814
1003.835938,5.228746,-0.524093,2.582373,9.780761
1003.839844,9.985451,1.216078,3.756752,8.488468
1003.843750,3.299521,8.601542,5.251608,-0.180760
1003.847656,4.910004,-3.163684,6.465136,-4.642298
1003.851562,-0.777197,-2.930707,-0.672251,-6.440995
1003.855469,-0.225096,-6.131871,3.907092,0.450516
1003.859375,-3.792516,-8.556365,-7.796113,-6.747998
1003.863281,-11.544843,-0.492808,-5.130882,-10.642936
1003.867188,-16.655809,-13.168277,-13.849313,-6.445067
1003.871094,-13.566607,-16.396083,-12.912621,-12.219291
1003.875000,-12.296803,-7.861096,-16.963315,-4.456734
1003.878906,-9.395326,-12.338609,-11.463825,-12.325285
1003.882812,-16.541718,-5.046138,-8.278513,-3.837836
1003.886719,-5.140373,-8.072806,-8.564968,-5.423924
1003.890625,-3.930791,-9.037339,-4.382642,-4.005262
1003.894531,-7.446298,-3.332776,-6.178166,-8.954009
1003.898438,3.495151,-5.220132,4.045879,5.498073
1003.902344,2.786579,7.053478,2.297599,0.740928
1003.906250,8.757872,3.628419,3.321749,4.445066
1003.910156,14.208411,4.414624,5.283049,6.079411
1003.914062,9.038896,12.656741,9.033137,9.939882
1003.917969,2.020351,11.245914,8.655878,10.060055
1003.921875,8.631744,14.537432,12.091462,12.518478
1003.925781,5.596818,10.200542,2.060143,6.876211
1003.929688,10.090118,10.938770,21.617737,3.609771
1003.933594,9.972847,5.170998,10.871081,7.344499
1003.937500,3.414994,2.562853,11.770894,10.877984
1003.941406,13.003063,4.538404,5.375587,4.986113
1003.945312,1.779541,-0.573919,4.238022,4.298575
1003.949219,-0.395462,1.059843,2.376410,6.663697
1003.953125,-2.848837,-0.561710,0.455173,-5.443555
1003.957031,-3.553476,-4.869304,-3.131895,-2.703500
1003.960938,-6.262365,4.857045,-8.658626,-10.841825
1003.964844,-11.381580,-14.760103,-9.554592,-5.781268
1003.968750,-12.181978,-10.782104,-11.219722,-10.513694
1003.972656,-2.876397,-14.902790,-1.054047,-8.181154
1003.976562,-7.966614,-12.158058,-6.474181,-16.493222
1003.980469,-15.004567,-11.009227,-8.099688,-7.223564
1003.984375,-9.031269,-0.823746,-10.737657,-14.819623
1003.988281,-7.605323,-5.504768,-6.239342,-7.042629
1003.992188,-1.871541,-4.400105,-5.443328,-4.219044
1003.996094,2.020853,-2.888036,-2.101213,-3.631648
1004.000000,-2.052586,-1.880584,-1.294509,2.256700
1004.003906,-0.153764,-2.572815,6.207677,5.406649
1004.007812,3.779721,-1.583327,4.303398,9.495731
1004.011719,2.860799,6.953103,6.354905,13.013770
1004.015625,10.672539,5.434865,2.851114,9.286309
1004.019531,11.725946,13.840952,6.662170,14.473419
1004.023438,7.966754,8.953950,14.521853,6.533228
1004.027344,11.773814,13.627630,13.004354,3.734520
1004.031250,11.736071,15.256934,11.862590,7.619110
1004.035156,11.376196,4.972696,2.943242,7.151002
1004.039062,5.219758,7.407231,6.120637,6.389828
1004.042969,4.714149,0.903627,-1.088794,10.876435
1004.046875,-1.373780,-3.707241,8.136893,-6.109673
1004.050781,-0.450527,4.673658,2.981498,0.525117
1004.054688,0.465031,-0.618277,-3.057523,-3.563949
1004.058594,-3.794731,-6.188795,-1.592449,-0.993140
1004.062500,-12.631610,-7.999441,-5.058179,-0.166762
1004.066406,-14.091471,-7.542399,-10.724873,-5.298757
1004.070312,-3.838856,-10.483332,-4.559173,-9.539695
1004.074219,-13.516986,-10.872203,-8.004162,-12.373440
1004.078125,-8.044642,-9.185058,-7.449307,-5.950724
1004.082031,-8.037094,-12.714736,-6.017830,-8.634296
1004.085938,-13.753174,-8.676749,-7.460780,-5.506353
1004.089844,-4.637594,-11.870017,-1.216962,-7.399190
1004.093750,1.508155,-5.877260,-8.716314,-4.197203
1004.097656,1.775678,-1.901826,-1.193655,1.187724
1004.101562,4.089703,6.889276,0.914723,2.286893
1004.105469,-1.262732,-2.669338,3.105623,11.514347
1004.109375,7.760868,6.251577,10.201852,1.408179
1004.113281,9.472936,6.478283,14.629178,0.997258
1004.117188,15.477406,4.072721,13.235160,15.634460
1004.121094,10.053830,10.193313,9.876305,9.322156
1004.125000,6.246124,6.594292,10.581718,7.517157
1004.128906,10.099629,8.128056,7.840694,5.886550
1004.132812,17.390400,7.225315,7.466020,9.283749
1004.136719,14.334008,13.045619,5.137435,14.123732
1004.140625,5.498936,4.657530,3.186412,-0.516082
1004.144531,-0.870809,4.099102,1.584205,6.297647
1004.148438,1.906324,5.420979,1.936859,-0.287943
1004.152344,0.178596,-3.210496,5.227586,1.338316
1004.156250,-7.441671,1.078185,-2.900691,-4.604235
1004.160156,-16.991342,-6.018907,-6.435005,-5.167308
1004.164062,-5.824218,-7.697761,-1.830808,-4.661300
1004.167969,-10.817767,-4.663404,-13.241374,-5.134890
1004.171875,-5.335947,-11.360893,-6.307160,-8.523315
1004.175781,-9.652236,-5.285441,-9.162542,-9.042431
1004.179688,-7.170818,-9.990480,-13.056979,-16.804788
1004.183594,-8.536554,-8.949718,-8.606274,-15.056309
1004.187500,-5.945433,-7.808044,-4.354270,-6.295236
1004.191406,-7.510403,-13.431860,4.887628,-9.279313
1004.195312,4.154467,-7.369306,-2.339726,-9.933716
1004.199219,-2.107414,-3.523038,-4.053900,-2.651891
1004.203125,6.210262,7.395983,1.648301,-0.708051
1004.207031,9.259597,-0.773298,2.019089,4.646495
1004.210938,9.567549,5.258955,14.658499,6.404599
1004.214844,6.926802,4.819632,13.421067,9.038542
1004.218750,6.755534,10.732737,5.092407,2.131981
1004.222656,11.600484,7.321472,14.287626,12.780172
1004.226562,11.710824,7.575848,6.661000,9.646110
1004.230469,20.124310,0.899569,6.681903,11.162703
1004.234375,15.436171,7.701865,6.342455,5.578540
1004.238281,4.835649,5.024883,12.992726,3.964396
1004.242188,12.049369,12.224510,4.296576,11.710497
1004.246094,4.283727,8.445597,3.238675,8.158957
1004.250000,-0.287936,1.952190,-4.210993,3.413585
1004.253906,3.974727,-5.158654,0.041891,2.342795
1004.257812,-9.032451,-9.088111,-6.684333,-7.155184
1004.261719,-14.486268,-5.529073,-5.285065,-6.198386
1004.265625,-11.603658,-12.359412,-7.649380,-14.909427
1004.269531,-5.601971,-11.636837,-16.623800,-3.591723
1004.273438,-3.780245,-8.256940,-12.937384,-5.196952
1004.277344,-10.227515,-10.550059,-12.548479,-19.291516
1004.281250,-9.067905,-12.191888,-8.036024,-4.578159
1004.285156,-6.735110,-4.403006,-4.397380,-7.564637
1004.289062,-5.587843,-0.837126,-8.049564,-5.831039
1004.292969,-6.984991,0.283859,-6.946427,-4.407995
1004.296875,-2.045264,3.147481,-7.741431,-2.131877
1004.300781,-2.674367,1.207269,-4.194753,-1.673071
1004.304688,0.850603,-5.953870,-5.810482,6.705801
1004.308594,7.334769,3.699614,3.311257,-2.571542
1004.312500,1.920322,7.675462,8.811337,10.432817
1004.316406,6.702792,18.146203,8.973166,5.834785
1004.320312,4.526394,15.851552,2.279388,10.350800
1004.324219,10.966288,9.758837,7.752137,16.546491
1004.328125,10.058470,18.491816,15.334257,9.984357
1004.332031,13.727678,11.038107,8.183412,10.320235
1004.335938,3.594730,1.042063,6.634651,8.236351
1004.339844,1.289384,-2.549780,4.943854,7.729878
1004.343750,0.692327,-1.418585,2.296307,4.689335
1004.347656,5.329898,4.371662,6.186385,4.941351
1004.351562,-7.537095,-1.672980,-2.104106,2.656447
1004.355469,-8.062102,-4.185286,1.360896,-5.839956
1004.359375,3.100202,-1.873892,-3.447552,-9.456139
1004.363281,-4.723884,-6.174789,-7.266011,-2.961312
1004.367188,-7.532288,-13.065019,-9.105897,-7.596234
1004.371094,-4.583141,-11.954420,-8.833178,-7.621823
1004.375000,-4.887805,-12.580995,-9.811406,-9.857178
1004.378906,-7.488201,-6.794422,-6.207125,-10.044984
1004.382812,-2.549886,-11.954109,-7.405974,-4.913614
1004.386719,-10.479432,-5.175611,-4.720265,-10.123413
1004.390625,-4.470295,-4.651569,-3.954362,-2.047357
1004.394531,-4.711952,-4.076660,-1.005337,-8.067197
1004.398438,-4.818799,-9.481930,-0.762284,0.741176
1004.402344,3.777916,-1.826398,-4.055735,1.581557
1004.406250,5.680062,3.495851,3.431338,7.910149
1004.410156,9.144394,3.612090,7.084592,9.821107
1004.414062,6.018523,7.473114,-3.449857,10.278794
1004.417969,7.424043,9.405814,9.352877,14.454208
1004.421875,7.039020,12.339037,6.783482,11.262136
1004.425781,17.249230,7.624969,11.210965,7.409674
1004.429688,11.280305,10.284736,8.085867,15.390581
1004.433594,11.106030,10.137909,6.180152,9.792644
1004.437500,4.649724,2.361381,3.179769,9.642406
1004.441406,15.258505,4.860961,15.516774,1.763016
1004.445312,-2.796369,4.148665,6.123871,12.194467
1004.449219,1.665472,6.588438,-0.074604,-2.556527
1004.453125,0.129201,-2.102390,-1.746772,-6.755837
1004.457031,-3.014136,-10.816400,-14.895801,-1.454627
1004.460938,-2.227318,-9.511134,-7.191060,-7.467730
1004.464844,-5.114760,-4.518064,-6.969835,-9.033351
1004.468750,-2.878321,-6.049750,-9.165930,-12.959159
1004.472656,-11.719557,-6.407268,-11.030026,-14.235347
1004.476562,-3.692190,-11.969459,-6.689299,-10.744323
1004.480469,-2.089144,-4.805977,0.298545,-2.378702
1004.484375,-6.525237,-5.220284,-10.592807,-4.566428
1004.488281,-7.567314,-1.804231,-7.776346,-12.738003
1004.492188,-1.382520,-4.841694,-2.588441,-4.199848
1004.496094,-7.452432,-0.815135,-9.927164,1.278436
1004.500000,-2.001452,8.626627,-0.761166,3.214693
1004.503906,0.457478,-3.187742,1.102315,-1.004841
1004.507812,8.480282,5.384454,-1.620092,1.420943
1004.511719,5.603095,4.295963,11.084683,3.099941
1004.515625,9.371305,12.993347,5.491598,10.777113
1004.519531,7.848458,6.980067,9.998561,7.733965
1004.523438,10.326838,10.447938,11.125983,7.229823
1004.527344,8.817476,5.569958,13.239571,16.786658
1004.531250,8.924391,8.731934,16.599004,6.192277
1004.535156,7.064011,8.928584,8.664710,12.472793
1004.539062,2.355458,3.648884,4.004174,2.496438
1004.542969,2.843848,-2.945310,1.243314,6.574603
1004.546875,4.399632,5.113818,1.260005,3.938887
1004.550781,2.740615,1.531658,5.734463,-0.948770
1004.554688,-4.097692,-6.177436,-3.303577,0.701063
1004.558594,-3.387965,-6.902683,-4.021918,-12.821799
1004.562500,-2.162652,-7.565139,-9.802796,-3.256087
1004.566406,-6.995392,-4.196249,-7.303413,-5.759527
1004.570312,-4.266161,-7.015515,-9.940910,-9.782983
1004.574219,-0.479885,-10.702195,-7.343294,-11.325230
1004.578125,-9.604502,-10.487701,-13.549121,-1.522349
1004.582031,-16.998258,-6.283118,-6.421102,-13.224825
1004.585938,-10.775679,-10.060056,-6.080494,-8.512958
1004.589844,-7.358195,-6.993340,-1.627992,-9.539012
1004.593750,-6.562967,-1.491913,-2.578607,6.742777
1004.597656,-3.203681,-5.476779,-5.848288,-4.702794
1004.601562,10.022644,9.132938,1.499559,2.859265
1004.605469,7.025563,-2.291887,9.141774,-2.270248
1004.609375,6.240603,3.586903,5.103191,3.498798
1004.613281,4.840237,9.379155,9.752856,4.660545
1004.617188,7.230851,4.114100,10.294021,10.391858
1004.621094,9.038201,8.881713,6.338482,11.257848
1004.625000,5.989493,6.210810,18.711923,11.759791
1004.628906,3.379028,13.686045,6.438206,11.945326
1004.632812,3.367103,10.134304,11.886006,10.293401
1004.636719,3.578042,4.038626,8.957398,10.534484
1004.640625,4.411347,5.253304,6.472205,14.861176
1004.644531,-5.553190,0.661389,3.471368,-3.118065
1004.648438,2.574930,-0.014025,0.936593,0.761453
1004.652344,-2.907054,-5.666260,3.784057,-1.977987
1004.656250,3.683070,1.178278,-1.204229,-6.071790
1004.660156,-6.488997,-9.021671,-9.602181,-11.646072
1004.664062,-10.376069,-8.703115,-8.100154,-4.649296
1004.667969,-16.597778,-8.325852,-5.723791,-15.431184
1004.671875,-13.418367,-13.126462,-6.070872,-7.773918
1004.675781,-7.786671,-2.314413,-11.379524,-11.554265
1004.679688,-11.841839,-11.462627,-9.725643,-5.770158
1004.683594,-8.672087,-4.084606,-6.716534,-5.647707
1004.687500,-9.746030,-4.495605,-4.573392,-9.193185
1004.691406,-1.490989,-4.627025,-6.773961,-6.551956
1004.695312,-6.216213,-1.999178,7.533573,-6.820900
1004.699219,1.365129,0.512993,1.782566,-8.223841
1004.703125,6.828846,4.079829,-0.304841,4.988928
1004.707031,5.735730,-1.643926,6.811805,1.826651
1004.710938,-0.121354,7.242536,6.463293,3.358878
1004.714844,6.763255,10.643917,10.796094,1.595702
1004.718750,5.723699,5.407000,9.474329,5.665027
1004.722656,12.727289,17.555687,7.443046,9.628566
1004.726562,13.422122,13.772410,9.303451,11.404674
1004.730469,-4.340564,18.768687,13.113389,9.504983
1004.734375,5.894322,-0.799105,5.477450,8.758154
1004.738281,8.425755,6.186922,0.958074,10.049797
1004.742188,3.758868,6.317134,12.538960,3.783879
1004.746094,-3.556899,2.710286,1.791141,9.728028
1004.750000,-0.201564,3.378050,0.167243,2.762781
1004.753906,-4.667132,-7.376240,-8.407438,-3.738108
1004.757812,-4.978122,-5.830972,2.837228,-14.141682
1004.761719,-9.884214,-9.995390,-8.373950,-4.912315
1004.765625,-7.078106,-7.353088,-6.991493,-8.106516
1004.769531,-10.324742,-7.944741,-16.686311,-10.307894
1004.773438,-15.503183,-10.963611,-21.086024,-12.665152
1004.777344,-10.908575,-13.500484,-9.579317,-9.834628
1004.781250,-10.089150,-8.791885,-5.213216,-11.816028
1004.785156,-10.882991,-9.246990,-6.384555,-3.910257
1004.789062,-3.337533,-5.736788,-5.017405,-7.775752
1004.792969,4.815156,-3.269334,-10.695251,-6.135673
1004.796875,2.495341,-7.737156,0.750942,-5.074012
1004.800781,2.675310,6.006174,-5.992836,3.173473
1004.804688,0.605948,1.358522,7.834333,7.311868
1004.808594,2.656686,0.484613,4.438293,7.893444
1004.812500,7.133335,3.307751,-0.163908,5.319768
1004.816406,7.435946,8.933547,5.088433,7.882787
1004.820312,7.695766,7.886076,14.887216,7.470954
1004.824219,18.655035,9.809078,6.712868,15.663918
1004.828125,14.000260,2.781878,7.013426,14.520362
1004.832031,9.981817,9.479464,5.787750,16.415805
1004.835938,3.924201,6.295330,8.994318,5.270357
1004.839844,6.293047,6.927451,11.769504,8.442092
1004.843750,2.103431,-0.225974,2.439613,7.851832
1004.847656,-7.179792,4.664936,-2.272808,1.504725
1004.851562,1.508806,6.520832,1.253364,-2.264873
1004.855469,-0.694534,1.145205,1.566836,-0.207648
1004.859375,-6.425598,-8.026496,-12.583139,-0.782117
1004.863281,-2.585751,-12.044791,-7.365990,-10.091108
1004.867188,-11.983800,-4.096722,-4.986175,-8.043836
1004.871094,-11.941860,-15.248463,-13.154056,-9.906947
1004.875000,-14.860042,-9.703878,-11.796304,-13.348868
1004.878906,-15.447954,-6.246264,-3.787178,-7.861317
1004.882812,-9.324639,-10.430820,-2.833737,-11.399973
1004.886719,-13.974710,-10.461682,-18.593985,-9.053455
1004.890625,-13.697231,-8.325723,-7.718151,-6.834272
1004.894531,2.780429,-6.979386,2.798348,-3.229322
1004.898438,-0.314215,2.115233,2.223626,-2.480311
1004.902344,0.504885,1.894458,0.247614,2.238111
1004.906250,3.107447,1.888697,7.024420,5.905530
1004.910156,-2.210121,1.736886,8.408719,2.624148
1004.914062,5.848086,2.769745,11.618357,5.733031
1004.917969,10.232876,7.095524,9.828056,1.303115
1004.921875,8.799469,7.935025,13.857390,2.531276
1004.925781,11.687259,18.399821,10.512766,8.384809
1004.929688,14.256415,9.900289,1.293017,15.816906
1004.933594,12.302009,9.208255,12.311936,11.992744
1004.937500,10.163995,10.489702,11.253946,15.088036
1004.941406,11.361197,3.953887,2.428542,4.764055
1004.945312,3.201591,1.232104,7.656953,-0.466855
1004.949219,3.534685,-3.713520,-9.167404,0.901012
1004.953125,-2.584653,6.319763,-7.408775,2.064990
1004.957031,-4.171427,-0.720281,1.437159,-5.716351
1004.960938,-7.945261,-7.759357,-5.905684,3.321896
1004.964844,-15.446279,-2.423019,-13.279842,-8.683403
1004.968750,-17.164849,-9.394186,-11.162020,-12.718067
1004.972656,-7.762942,-10.578370,-11.292488,-11.945556
1004.976562,-7.457285,-13.040460,-14.080963,-5.740061
1004.980469,-17.510149,-16.210556,-9.311538,-8.313009
1004.984375,-3.852555,-5.770475,-7.375675,-2.993372
1004.988281,-8.976410,-9.636863,3.467787,-4.139325
1004.992188,-10.417701,-9.955318,-3.794110,1.360397
1004.996094,0.109634,-0.755854,1.279419,-3.091089
1005.000000,0.139915,0.504844,2.373100,1.402682
1005.003906,3.239738,4.462120,-0.903553,0.117332
1005.007812,4.932143,-1.090813,6.776026,5.438546
1005.011719,14.798499,0.002603,7.731083,3.213099
1005.015625,9.972221,10.353650,11.736014,9.514121
1005.019531,3.659138,10.489035,10.799458,13.248944
1005.023438,10.255866,7.940595,4.785649,8.914440
1005.027344,10.990269,9.817202,11.495927,10.209068
1005.031250,7.902620,13.753643,10.586861,10.306643
1005.035156,9.523751,3.267322,5.343854,14.526233
1005.039062,8.876888,1.691602,2.381476,2.324687
1005.042969,4.576984,-4.492117,4.347959,5.458797
1005.046875,0.301867,4.392911,9.837198,-2.006802
1005.050781,-1.070899,-0.558158,1.031857,-6.764960
1005.054688,6.905653,4.343610,-6.718972,-4.699758
1005.058594,-14.366163,-11.225102,-7.302394,-5.658610
1005.062500,-3.043072,-5.646535,-6.964163,-2.558410
1005.066406,-11.866601,-15.130219,-7.052567,-8.461249
1005.070312,-12.831155,-5.913219,-8.544402,-9.663641
1005.074219,-14.785486,-11.002269,-7.342669,-15.269764
1005.078125,-11.323920,-16.270678,-6.160881,-11.853111
1005.082031,-9.148414,-13.137900,-15.068162,-6.961034
1005.085938,-8.267902,-7.694199,-7.518944,-3.224728
1005.089844,-6.171916,-3.398421,-5.976526,-16.191410
1005.093750,-4.610857,-6.829547,1.790580,-0.973357
1005.097656,8.255145,0.154414,0.328861,-0.457766
1005.101562,5.212684,-5.998056,5.973456,4.835340
1005.105469,2.987346,-4.508882,5.381484,0.924300
1005.109375,5.369143,2.497823,2.551370,9.124090
1005.113281,11.634405,2.532765,4.886255,9.197771
1005.117188,6.293116,8.140365,8.101571,9.116466
1005.121094,5.309151,12.371497,2.339159,3.285392
1005.125000,8.399394,12.839508,11.882296,7.766130
1005.128906,3.517838,15.246509,3.838064,20.448605
1005.132812,13.599010,10.722665,7.184283,4.957490
1005.136719,12.710325,7.264660,5.485989,7.860523
1005.140625,13.239421,3.339548,4.643735,9.032717
1005.144531,5.318890,1.972980,1.665587,-0.016942
1005.148438,1.216750,-2.235624,2.374717,5.230431
1005.152344,0.739179,5.227250,4.423616,3.721686
1005.156250,-3.966618,-1.927979,-11.678157,-3.174016
1005.160156,-9.478445,-5.274901,-3.771665,1.990718
1005.164062,-7.471132,-8.259351,-8.708402,-5.948409
1005.167969,-6.697146,-6.471367,-14.303164,-15.336355
1005.171875,-12.194587,-10.272298,-6.151190,-15.773644
1005.175781,-12.142881,-10.531147,-7.580475,-9.301469
1005.179688,-11.971257,-4.847108,-15.924686,-7.622873
1005.183594,-8.848692,-1.516402,-6.953993,-11.646802
1005.187500,-1.375387,-12.485416,-11.239565,-4.843826
1005.191406,-2.444438,-6.117732,-3.095346,-7.071880
1005.195312,0.329563,-8.884617,-10.529347,-1.644990
1005.199219,-4.697362,1.091529,8.011909,0.907031
1005.203125,1.166825,-6.257379,5.063762,3.398022
1005.207031,-0.193953,4.927063,1.816130,7.414857
1005.210938,1.508137,1.524545,3.461351,13.600134
1005.214844,8.693309,0.483788,13.422294,8.533919
1005.218750,10.672652,11.365151,1.519021,11.872835
1005.222656,6.961337,11.128847,5.022185,16.013809
1005.226562,11.537976,11.637892,18.269343,13.100034
1005.230469,9.557024,5.128073,11.726072,9.156654
1005.234375,6.844709,2.316679,17.565347,5.032223
1005.238281,8.825420,11.267036,4.450611,4.731152
1005.242188,4.665033,15.026581,0.732200,3.970649
1005.246094,12.600484,1.995449,5.498146,0.578318
1005.250000,0.156299,-4.713991,-1.285522,-2.395873
1005.253906,3.600938,-15.020330,-9.360544,1.929833
1005.257812,-0.710201,-8.759551,-4.019775,-2.369627
1005.261719,-2.612846,-8.656527,-7.646028,-5.226166
1005.265625,-5.822346,-13.007510,-8.409532,-9.843792
1005.269531,-12.717485,-4.931429,-6.224008,-7.821810
1005.273438,-13.024644,-7.584408,-11.137980,-9.554269
1005.277344,-5.577094,-9.926763,-10.506354,-9.417253
1005.281250,-12.662214,-10.642960,-9.936081,-10.149477
1005.285156,-10.906615,-10.774301,-5.613136,-9.209020
1005.289062,-4.927555,-9.296473,-14.000418,-9.829025
1005.292969,2.860227,-3.237417,-5.041016,-12.767770
1005.296875,-2.042259,-1.126025,1.169249,-5.624048
1005.300781,3.985382,-0.071603,-4.948393,2.527569
1005.304688,5.217856,4.153673,-2.455134,3.438472
1005.308594,5.645198,9.123122,10.980270,2.969670
1005.312500,10.543183,11.370011,8.143011,2.139106
1005.316406,8.880373,10.090426,-0.450093,9.266295
1005.320312,2.940503,21.147340,2.438725,14.977637
1005.324219,13.394161,14.283610,11.303845,8.252935
1005.328125,5.862617,10.458827,8.114465,4.057383
1005.332031,13.018722,11.764209,15.006655,12.237179
1005.335938,18.024444,11.394255,3.945678,10.887162
1005.339844,5.102417,4.422651,4.768906,2.467980
1005.343750,1.484492,5.689940,4.483453,-1.229505
1005.347656,-2.312517,8.696385,1.305619,6.605085
1005.351562,6.072186,10.420295,-5.612909,2.227095
1005.355469,-0.872518,-6.819983,-0.640667,-1.061606
1005.359375,-6.474903,-9.558115,-7.096617,-7.194740
1005.363281,-4.006086,-14.408990,-10.539540,-3.764009
1005.367188,-8.605436,-2.020075,-1.673260,-14.985278
1005.371094,-10.242616,-6.919608,-10.868614,-13.054198
1005.375000,0.792897,-7.852279,-13.739132,-9.940164
1005.378906,-12.561173,-16.021541,-11.730670,-5.707017
1005.382812,-13.467251,-4.621956,-6.660719,-8.165465
1005.386719,-2.647485,-2.177051,-8.253891,-4.807387
1005.390625,-3.606024,0.294796,-4.465817,-8.114640
1005.394531,-5.469712,-5.043380,-8.334545,-11.123183
1005.398438,8.957079,-1.026139,-1.587377,-3.835956
1005.402344,6.238815,6.925127,-2.239724,3.592639
1005.406250,-0.450445,3.702459,4.017618,6.206143
1005.410156,4.048675,7.503722,9.737969,8.834461
1005.414062,2.685312,5.875069,8.657308,9.535092
1005.417969,6.159947,13.681502,5.102694,11.847861
1005.421875,10.634544,9.220935,13.450794,8.310985
1005.425781,12.787651,10.007530,13.421205,16.162383
1005.429688,5.921785,-1.752971,12.438542,8.996042
1005.433594,10.425943,6.014845,7.165825,4.539976
1005.437500,5.740210,9.624977,14.644155,-3.056945
1005.441406,-0.850806,5.162533,3.100222,3.374330
1005.445312,2.708397,4.409936,10.693037,-0.465181
1005.449219,-3.567077,-3.258708,0.415649,-7.160658
1005.453125,-4.535641,-1.208047,-1.678089,-7.599143
1005.457031,-5.536281,-2.968780,-6.229919,-18.331946
1005.460938,-5.541390,-9.669865,-8.704740,-14.485189
1005.464844,-6.492397,-8.226844,-12.123187,-9.421647
1005.468750,-7.521230,-1.790206,-12.505838,-6.105382
1005.472656,-13.641501,-13.461256,-12.729676,-14.297204
1005.476562,-6.620517,-22.332017,-14.826159,-6.837887
1005.480469,-4.167955,-12.586750,-6.690495,-10.939416
1005.484375,-9.479554,0.114321,-5.863015,-2.921046
1005.488281,-10.369563,-6.388489,-0.928553,-3.381503
1005.492188,-9.668964,-6.093744,-3.969788,-4.688130
1005.496094,-0.794246,-1.405108,2.294434,-2.628924
1005.500000,4.972630,-5.219410,-2.369017,-0.589451
1005.503906,-1.891363,2.830632,0.430769,0.951294
1005.507812,1.658080,8.112255,1.891133,1.107334
1005.511719,3.566874,8.473774,2.832290,10.117463
1005.515625,0.530400,13.129181,12.811647,3.621326
1005.519531,15.213982,6.284218,8.528778,9.046864
1005.523438,5.953000,11.880895,10.195348,10.943937
1005.527344,11.379152,18.533301,8.318262,6.526972
1005.531250,12.298872,8.569087,10.267162,10.587899
1005.535156,7.233760,6.868025,11.772556,18.662125
1005.539062,6.754632,7.657882,1.774474,11.540041
1005.542969,5.450654,4.597448,8.216572,8.333371
1005.546875,3.867808,2.872536,-0.848409,5.719328
1005.550781,-0.030189,-2.448975,-3.698561,-1.003314
1005.554688,-1.695331,-1.158814,-1.510476,3.410860
1005.558594,-8.640393,-4.465979,-4.915296,-8.762024
1005.562500,-9.870737,1.857982,-5.685382,-10.825410
1005.566406,-12.445186,-14.608559,-7.285520,-4.769197
1005.570312,-17.236621,-7.026032,-7.248329,-9.445872
1005.574219,-9.397408,-12.564982,-7.437619,-11.346382
1005.578125,-7.770365,-13.055931,-4.185187,-8.253255
1005.582031,-2.928965,-5.103466,-3.843040,-6.841174
1005.585938,-10.547427,-4.261346,-7.220952,-4.231684
1005.589844,0.736617,0.755241,-4.909760,-5.565552
1005.593750,-6.257275,-5.874053,-2.169022,-5.218977
1005.597656,-4.447994,-5.212236,2.545818,-2.220123
1005.601562,-2.533198,1.047343,-5.360436,1.486307
1005.605469,1.622389,2.200582,-3.599147,-1.425223
1005.609375,5.076166,7.957288,2.135061,1.787093
1005.613281,3.693270,3.273969,4.366760,5.158472
1005.617188,6.182509,8.136484,11.381453,7.497252
1005.621094,6.050453,6.410772,9.252115,16.200873
1005.625000,2.998634,5.258015,10.208555,16.447218
1005.628906,6.040028,17.119531,11.091562,5.303377
1005.632812,5.049002,12.620821,13.876208,8.530448
1005.636719,0.934657,8.492966,12.089275,2.347283
1005.640625,1.340673,2.070809,7.662789,1.828108
1005.644531,8.926853,6.794006,7.335125,7.271024
1005.648438,-3.476628,-1.417508,-6.858495,3.709734
1005.652344,-2.443484,1.493248,3.470833,-2.715409
1005.656250,-10.213670,-1.343196,-5.300167,-11.401610
1005.660156,-3.211729,-8.057892,-5.449690,-1.534849
1005.664062,-6.021434,-5.269706,-7.585813,-13.760275
1005.667969,-10.169576,-6.559337,-10.184508,-15.223330
1005.671875,-15.868828,-6.336826,-9.346549,-9.421384
1005.675781,-4.606212,-2.774935,-6.718386,-1.946379
1005.679688,-6.360606,-15.440888,-5.578461,-10.795000
1005.683594,-8.169158,-3.753963,-12.834321,-6.727695
1005.687500,-13.276218,-7.600679,-4.439992,-13.011528
1005.691406,-9.351565,1.245751,0.349830,1.663685
1005.695312,-7.410932,-1.974200,-6.022159,-7.086133
1005.699219,11.964503,5.196907,-6.446194,1.942027
1005.703125,12.143547,-5.597194,1.186800,3.653791
1005.707031,5.138888,2.334845,6.977939,1.334349
1005.710938,7.349121,10.110636,10.854647,4.575542
1005.714844,6.581506,12.048724,5.419812,6.232190
1005.718750,11.498679,13.806766,7.769891,16.943008
1005.722656,10.231739,7.702990,13.174803,6.858756
1005.726562,7.225741,11.581559,14.256119,13.732447
1005.730469,7.442672,20.173760,8.692120,10.155757
1005.734375,8.891452,5.418827,4.708869,11.897197
1005.738281,1.347160,5.387841,6.138826,3.740929
1005.742188,0.030556,8.073449,12.248887,3.465046
1005.746094,-0.743588,-1.712636,-2.437914,0.455232
1005.750000,-2.480031,0.416385,0.105160,-3.186818
1005.753906,-0.766386,0.767548,-5.994217,-3.095263
1005.757812,-4.955479,-8.588178,-6.139072,-5.257324
1005.761719,-13.668379,-10.895601,-7.943332,-8.031365
1005.765625,-5.939304,-6.631045,-15.177164,-17.081024
1005.769531,-11.075439,-14.527434,-18.787003,-9.415073
1005.773438,-4.718654,-11.957862,-13.467651,-10.522503
1005.777344,-16.281050,-6.785255,-10.906575,-7.750290
1005.781250,-11.916919,-6.803480,-10.735532,-0.552253
1005.785156,-7.076061,-5.946475,-10.323777,-5.206030
1005.789062,-3.816423,-5.985509,-5.311015,-2.056658
1005.792969,-2.168606,-6.418802,-2.046352,4.079385
1005.796875,1.115739,0.266129,0.872313,-1.903164
1005.800781,3.993221,5.020604,0.004708,6.463927
1005.804688,-1.808529,6.580808,4.655681,-2.085263
1005.808594,3.031985,6.069534,9.039411,12.390897
1005.812500,8.602064,-0.774452,13.517633,6.296174
1005.816406,8.160354,10.793861,10.749055,16.049223
1005.820312,8.564558,11.762867,10.386690,14.282304
1005.824219,2.694934,4.767568,14.258255,15.280129
1005.828125,8.324188,5.566373,14.341582,9.886288
1005.832031,22.262039,5.491847,8.299778,9.395460
1005.835938,8.015634,4.592524,16.395202,8.484360
1005.839844,9.305488,2.561912,5.563835,8.943207
1005.843750,4.754079,11.263838,2.843573,3.763418
1005.847656,3.296730,1.817451,3.072129,3.011438
1005.851562,-6.034906,-0.849689,-0.978801,-3.143677
1005.855469,3.163890,-5.148733,-3.862465,-5.558697
1005.859375,-3.459991,-11.138563,-5.148839,-1.083284
1005.863281,-7.520385,-3.975974,-3.904217,-2.389605
1005.867188,-4.189695,-9.109759,-7.427575,-18.055802
1005.871094,-10.255546,-9.833398,-15.464303,-7.401789
1005.875000,-11.858839,-14.111541,-10.975137,-12.194107
1005.878906,-12.320149,-4.411987,-11.808274,-7.504637
1005.882812,-12.672406,-16.347429,-13.298862,-0.856948
1005.886719,-5.788120,-7.022528,-9.398449,-8.906570
1005.890625,-12.867678,1.741098,3.604722,-9.635759
1005.894531,-13.913521,-4.651387,-4.739179,-2.428312
1005.898438,-1.140190,-6.897411,5.472190,-11.709957
1005.902344,3.617021,8.022077,5.224745,1.175378
1005.906250,13.516171,0.759192,6.996250,-0.751505
1005.910156,3.456315,11.560105,2.031592,3.178945
1005.914062,10.596880,3.170324,4.470977,-2.100454
1005.917969,7.514572,11.176046,3.180599,10.074669
1005.921875,5.111130,9.636146,8.684088,10.207982
1005.925781,2.682755,10.965114,11.920650,17.707513
1005.929688,14.381304,12.568867,12.587160,14.606468
1005.933594,11.430318,6.703674,8.248013,14.216951
1005.937500,9.546584,8.876385,-0.909441,7.010324
1005.941406,1.670979,0.670890,1.718969,8.751582
1005.945312,-2.479867,3.966768,2.222638,3.953751
1005.949219,-0.398915,-1.523810,0.466550,13.333733
1005.953125,-7.069967,5.864543,0.109852,2.982138
1005.957031,-5.747412,-4.343848,-6.051681,-7.739072
1005.960938,-4.779341,-14.834335,1.532708,1.353510
1005.964844,-10.574374,-4.642549,-11.910139,-3.528517
1005.968750,-16.640008,-8.608268,-7.110247,1.414142
1005.972656,-12.862333,-9.211492,-8.888828,-7.049662
1005.976562,-5.072058,-11.055778,-7.822210,-8.946543
1005.980469,-1.886746,-7.697793,-7.964430,-7.625478
1005.984375,-6.177949,-5.906757,-5.244435,-4.675104
1005.988281,-4.133495,-4.583398,-13.163901,-11.903810
1005.992188,-3.341593,-8.102894,-6.835620,-6.631659
1005.996094,3.579778,-8.853853,-3.511204,7.109470
1006.000000,-4.915580,-1.181453,-6.961290,4.759268
1006.003906,-5.877731,5.264207,1.459209,5.433257
1006.007812,6.106621,4.808408,1.501904,8.583368
1006.011719,-0.626254,11.765554,8.559536,6.427645
1006.015625,12.750951,4.386167,12.636256,11.064636
1006.019531,8.834960,9.615868,13.013338,7.614636
1006.023438,4.679009,7.890187,16.253181,10.001860
1006.027344,9.120691,17.067614,10.033911,13.154249
1006.031250,11.553264,10.922352,0.762889,6.536974
1006.035156,5.490314,12.825367,4.804551,4.795680
1006.039062,4.109972,-0.981527,13.248558,12.834301
1006.042969,3.051480,-0.509982,3.107920,6.051329
1006.046875,5.759907,0.119423,-1.397100,0.256529
1006.050781,-1.834379,7.275515,4.809761,6.030186
1006.054688,-0.304555,-4.300379,-3.108797,9.650047
1006.058594,-0.638152,-5.530033,-9.232200,4.850571
1006.062500,-12.098262,-7.428094,-8.894226,-9.560439
1006.066406,-9.392838,-7.964402,-6.140848,-15.494734
1006.070312,-6.699941,-11.785639,-16.048917,-8.852629
1006.074219,-4.751224,-18.199102,-9.673096,-6.363875
1006.078125,-7.776981,-8.752465,-3.701416,-6.570753
1006.082031,-11.318666,-10.285640,-14.377103,-8.199523
1006.085938,-7.666201,-7.194841,-8.075312,-7.277706
1006.089844,-10.556318,-12.073146,-10.603421,-5.667281
1006.093750,4.251734,-8.349216,2.603345,-0.742413
1006.097656,5.933410,4.316142,1.507478,-0.289732
1006.101562,-4.537709,-1.788539,2.754592,-6.577563
1006.105469,2.369466,4.861335,7.538265,5.512051
1006.109375,4.254892,5.892385,10.969598,10.093926
1006.113281,3.780425,12.138504,6.406877,7.637165
1006.117188,3.983603,7.607544,15.530728,7.288347
1006.121094,6.664372,2.215220,11.202639,6.370591
1006.125000,11.273050,6.492122,7.996911,9.738739
1006.128906,8.379919,15.213774,1.227931,7.283283
1006.132812,11.564522,10.304895,12.530822,13.363687
1006.136719,13.650166,9.333655,6.192571,4.645458
1006.140625,4.313128,11.248847,8.093294,7.881891
1006.144531,10.926939,1.269097,-2.925856,0.738232
1006.148438,3.248991,8.359280,8.666781,4.362468
1006.152344,-1.584671,-1.536694,-0.415367,1.588550
1006.156250,-5.098329,-9.153679,-6.028045,-8.094239
1006.160156,-2.633949,-3.035338,-4.074212,-10.743273
1006.164062,-6.923508,-12.418732,-12.381365,-11.645775
1006.167969,-3.322442,0.825728,-3.524804,-12.796247
1006.171875,-11.200869,-6.744395,-11.166321,-13.503907
1006.175781,-11.128698,-11.208127,-8.951514,-13.568943
1006.179688,-15.846460,-11.855547,-13.876033,-6.391618
1006.183594,-11.010644,-3.593145,-12.896863,-6.523692
1006.187500,-0.130516,-0.699002,-8.415572,-4.243063
1006.191406,7.412439,-9.609304,-8.149792,-4.042382
1006.195312,-3.151939,1.823460,-4.944283,-2.100469
1006.199219,-2.680170,-2.776514,-1.833944,1.609265
1006.203125,1.984628,1.251975,-6.733170,1.320483
1006.207031,4.802649,-0.237313,0.125619,5.245958
1006.210938,4.763160,13.584508,3.862222,4.303620
1006.214844,5.306998,0.503890,8.671075,10.824491
1006.218750,7.583040,11.818410,4.733919,9.631189
1006.222656,6.341350,12.130955,19.342413,15.527043
1006.226562,11.643322,8.388237,9.183677,6.407505
1006.230469,13.928449,11.672325,10.284082,12.178539
1006.234375,0.816274,11.272442,11.172905,4.163366
1006.238281,7.071090,5.290005,5.469470,4.619745
1006.242188,2.034322,-2.920983,3.157366,1.126715
1006.246094,4.142569,4.457189,-6.719813,-1.545366
1006.250000,-1.887536,-6.453609,-4.686620,6.484123
1006.253906,-2.473338,-3.227022,-0.846866,2.399046
1006.257812,-2.978032,-4.187869,-6.335416,-7.213280
1006.261719,-10.791984,-8.851687,-6.348903,-8.530818
1006.265625,-8.686080,-14.065077,-15.582161,-13.280755
1006.269531,-14.187001,-4.324111,-10.939824,-7.104260
1006.273438,-13.076778,-12.311343,-6.051017,-6.125182
1006.277344,-5.408452,-12.725954,-9.617841,-7.934295
1006.281250,-7.029913,-10.107666,-13.147816,-9.401129
1006.285156,-7.536194,-4.149625,-12.178313,-11.173056
1006.289062,-10.324687,-7.761856,-6.843545,-9.379316
1006.292969,-2.999645,-1.458237,0.741834,-7.084602
1006.296875,3.087392,6.186587,3.131039,-6.462140
1006.300781,1.354637,-2.609640,-1.851784,3.677641
1006.304688,9.536647,5.605426,3.137276,9.537427
1006.308594,2.891830,4.959831,4.685831,11.542136
1006.312500,2.362128,5.996735,5.949376,8.913091
1006.316406,12.995949,9.778547,7.765903,3.149721
1006.320312,9.415592,5.338557,10.750139,8.867297
1006.324219,13.627486,8.036638,10.947629,7.825167
1006.328125,8.159356,2.181416,7.453059,0.796084
1006.332031,11.810005,13.590785,8.351151,0.537377
1006.335938,9.611137,7.873102,4.928829,6.637414
1006.339844,5.410952,11.225653,11.345417,6.090707
1006.343750,2.988900,0.516793,3.414475,3.783451
1006.347656,-4.106310,-2.553247,2.597377,2.731373
1006.351562,-12.060825,-1.979403,-4.649760,-4.427635
1006.355469,-6.805357,-10.646579,6.645834,-0.993514
1006.359375,-7.435028,-15.721096,-9.821855,-9.829083
1006.363281,-8.315850,-7.086423,-2.638281,-4.400260
1006.367188,-5.947377,-11.979262,-5.121180,-7.030768
1006.371094,-15.741295,-1.226015,-12.478712,-15.536518
1006.375000,-12.505248,-13.830208,-9.817949,-15.132119
1006.378906,-10.945578,-9.199881,-14.279761,-8.251955
1006.382812,-9.385281,-9.371586,-14.128917,-15.146571
1006.386719,-4.585620,-9.636580,-5.477908,-3.509422
1006.390625,-8.371048,-0.629755,-2.932949,-7.164886
1006.394531,4.043409,-3.644870,-0.995468,-5.781329
1006.398438,-1.910124,-3.756517,0.128425,-1.468665
1006.402344,1.425462,-2.406339,2.170341,-1.434334
1006.406250,2.670617,3.357223,1.659794,-6.650092
1006.410156,4.968808,4.643797,7.715110,12.834543
1006.414062,9.977228,7.752794,10.808465,1.407618
1006.417969,9.911550,15.581674,6.236446,8.349464
1006.421875,10.842939,3.068881,5.302819,10.695058
1006.425781,18.714837,6.252311,16.491828,13.511880
1006.429688,11.448953,10.283045,14.184996,9.147806
1006.433594,12.799204,4.439664,11.924783,15.491024
1006.437500,10.657086,10.115701,4.221850,4.088062
1006.441406,2.444316,15.616390,6.951451,3.856898
1006.445312,-0.098201,10.608395,5.811433,5.982792
1006.449219,-1.475840,-0.998077,-1.762137,3.047656
1006.453125,-4.839256,8.656777,-8.251368,-0.405606
1006.457031,-5.986615,-9.830461,-9.977614,-10.382677
1006.460938,-5.311726,-6.005266,-9.006791,-4.108090
1006.464844,-13.331819,-8.595366,1.020765,-3.648964
1006.468750,-11.266931,-13.728562,-5.629936,-10.036703
1006.472656,-13.254128,-16.349919,-6.091207,-12.357484
1006.476562,-15.796482,-7.168207,-4.329320,-9.759714
1006.480469,-12.254858,-13.191087,-8.866943,-10.804194
1006.484375,-16.093725,-9.404758,-10.721959,-8.798751
1006.488281,-0.345862,-0.229617,-5.813668,-12.558244
1006.492188,4.112142,-9.847952,-7.227630,-8.328436
1006.496094,-2.936228,1.696243,-4.723552,-2.757993
1006.500000,1.858700,4.366270,0.794762,-1.081696
1006.503906,-0.301651,-0.019710,8.331542,-8.141869
1006.507812,9.912857,8.213074,6.727434,9.708027
1006.511719,2.632518,6.584266,9.766113,5.811274
1006.515625,2.902248,10.539321,7.224042,7.631187
1006.519531,4.373762,9.457932,13.026186,11.616033
1006.523438,9.309836,3.492561,9.285651,5.391468
1006.527344,7.359370,12.104977,13.017738,7.457390
1006.531250,9.791786,5.912432,14.736947,7.542078
1006.535156,2.786644,13.716731,8.649685,3.815496
1006.539062,4.332145,1.067909,8.741902,11.223714
1006.542969,2.753488,5.922100,3.809228,4.638757
1006.546875,-0.246257,-3.021819,0.502262,1.761302
1006.550781,-9.057903,-2.549603,-5.239012,5.649731
1006.554688,-8.719975,-1.240175,-11.846246,1.261641
1006.558594,-7.026706,1.644427,-6.470090,-5.955251
1006.562500,-2.128640,-7.210082,-10.231537,-8.699275
1006.566406,-6.888163,-7.971636,-9.306058,-9.121157
1006.570312,-11.407520,-14.828905,-10.303633,-11.753630
1006.574219,-7.235281,-7.449500,-10.750583,-15.027668
1006.578125,-15.193663,-3.419057,-11.094428,-11.355997
1006.582031,-7.271907,-10.257520,-10.120331,-11.525145
1006.585938,-17.981613,-12.443909,-11.931927,-0.952734
1006.589844,-7.595584,-12.696039,-5.531512,-3.271125
1006.593750,-6.853551,-4.021696,-10.158121,-4.534017
1006.597656,1.931843,-8.254460,-1.993382,6.719799
1006.601562,-1.327839,5.788165,-2.885664,-2.382033
1006.605469,3.657654,3.670634,1.460422,0.225345
1006.609375,-0.082408,6.162636,13.208992,13.326242
1006.613281,5.783555,10.265356,5.191060,8.408886
1006.617188,5.576746,5.675438,11.189535,14.567794
1006.621094,4.770132,3.370227,14.598507,7.113695
1006.625000,6.240397,9.203407,8.134339,10.203718
1006.628906,-3.219245,11.234626,14.819487,11.191422
1006.632812,1.583047,9.359151,10.863818,4.818164
1006.636719,1.491658,-2.156098,11.080631,10.104581
1006.640625,6.301348,9.131201,4.134727,5.796811
1006.644531,-1.384412,7.182102,-4.514491,9.915654
1006.648438,7.570376,-2.341561,3.482031,7.096552
1006.652344,-4.157310,0.519344,0.352384,-6.459738
1006.656250,-3.800097,-1.434827,-4.846261,-6.891646
1006.660156,-14.414026,-9.195280,-6.279523,-3.580237
1006.664062,-11.312981,-16.371235,-13.760403,-9.301327
1006.667969,-8.115540,-10.277187,-7.890525,-0.176986
1006.671875,-10.037895,-9.483034,2.272402,-8.890490
1006.675781,-16.044597,-9.866389,-12.117878,-8.101307
1006.679688,-7.766069,-6.104380,-13.470861,-5.672570
1006.683594,-7.425132,-5.745459,-5.980154,-12.841521
1006.687500,-7.357853,-8.095382,-8.088849,-7.648828
1006.691406,-7.617150,-1.444487,-8.942338,-3.105390
1006.695312,-1.388689,-3.497888,2.775660,-1.206894
1006.699219,0.278710,-2.762959,-6.271917,-0.662585
1006.703125,1.610966,2.658873,9.777653,1.181995
1006.707031,0.708940,3.920262,1.766397,3.917745
1006.710938,13.247944,0.933367,15.781090,8.952318
1006.714844,5.585962,8.056309,13.638787,1.385462
1006.718750,2.382738,1.186380,11.777166,9.167876
1006.722656,14.950463,8.323506,22.129250,13.051206
1006.726562,9.185895,10.572127,17.056931,-0.710474
1006.730469,19.130946,13.061266,2.191424,1.260807
1006.734375,5.304738,7.812901,9.378028,9.337570
1006.738281,3.508428,2.976384,3.586019,10.887151
1006.742188,9.579830,-3.558026,10.066842,7.342521
1006.746094,-6.771980,1.541047,-0.921791,4.031405
1006.750000,7.400343,7.007244,0.894919,6.697087
1006.753906,0.704985,4.440827,2.118040,-4.242319
1006.757812,-7.759614,2.000027,-6.294572,-7.610478
1006.761719,-8.369686,-6.872299,-10.063257,-13.005851
1006.765625,-5.784141,-13.519535,-6.653494,-10.846791
1006.769531,-4.384687,-4.883113,-6.570209,-6.234538
1006.773438,-7.805547,-6.492008,-13.110354,-7.210642
1006.777344,-15.483178,-8.628658,-15.128081,-15.061180
1006.781250,-8.275920,-6.948090,-5.031323,-14.964738
1006.785156,-2.097678,-11.905895,-12.776420,-9.777168
1006.789062,-8.419616,0.341111,-7.528059,-10.447437
1006.792969,-5.048663,-1.979764,-10.459645,2.346815
1006.796875,-6.557014,2.967801,-1.183019,3.331338
1006.800781,-3.088358,-6.386730,-1.588907,-8.668631
1006.804688,7.508340,1.237418,0.471298,3.873181
1006.808594,4.815826,9.049669,2.703554,5.716018
1006.812500,3.411929,11.166090,-0.360531,11.506153
1006.816406,6.518684,10.778773,14.074165,6.860781
1006.820312,5.226424,7.981566,14.969861,8.311446
1006.824219,9.951323,7.269723,12.455542,15.072512
1006.828125,12.810874,4.084200,8.063678,14.724728
1006.832031,7.724459,9.621292,10.340287,13.282672
1006.835938,2.145392,3.313079,1.766775,9.761044
1006.839844,1.533479,7.081577,9.432618,10.100843
1006.843750,5.278307,7.646500,-2.521131,3.097772
1006.847656,-3.421642,3.149909,-4.701399,6.817346
1006.851562,1.330669,-1.188857,-3.054640,2.750831
1006.855469,-2.155643,-5.438564,0.361771,-0.343782
1006.859375,-5.828611,-7.600373,-4.121798,-5.919404
1006.863281,-8.195572,-11.988446,-9.516348,-4.283757
1006.867188,-4.021899,-6.465128,-14.145579,-24.245281
1006.871094,-14.865130,-2.578149,-11.898361,-6.859685
1006.875000,-14.261613,-14.822635,-9.696638,-10.707088
1006.878906,-9.271543,-6.784695,-5.195924,-14.213350
1006.882812,-0.987992,-9.518790,-12.073358,-9.748474
1006.886719,-7.466646,-2.295765,-3.627021,-5.248280
1006.890625,-6.036127,-7.069838,-2.709152,-4.459271
1006.894531,-9.821449,4.942598,-8.469357,-4.890042
1006.898438,8.815066,-3.779932,-3.790378,7.031242
1006.902344,13.088804,-4.028041,1.388077,-4.777995
1006.906250,2.028624,4.598966,2.336393,9.679129
1006.910156,5.717899,7.723909,0.773874,5.320143
1006.914062,2.043210,10.896821,9.406690,3.413399
1006.917969,16.882743,8.558027,11.991197,2.524500
1006.921875,11.478683,14.291974,9.182736,6.492126
1006.925781,14.508701,10.078607,15.913470,6.908932
1006.929688,5.978236,9.071736,6.005806,18.853460
1006.933594,6.394615,11.191620,14.103149,13.164273
1006.937500,4.142016,4.695761,8.003054,8.981453
1006.941406,3.662503,5.819015,1.415963,7.337144
1006.945312,9.401008,5.630020,6.230905,9.826893
1006.949219,0.609427,-2.062681,-4.533824,-2.467058
1006.953125,-4.143771,-1.644989,5.491598,-0.722827
1006.957031,-8.961235,-6.323495,-4.547774,-12.585775
1006.960938,-3.948865,-9.152056,-4.484507,2.825283
1006.964844,-6.918577,-5.574421,-15.052558,-9.200160
1006.968750,-4.801211,-11.833909,-15.990483,2.849420
1006.972656,-12.673703,-4.886408,-11.365010,-11.261959
1006.976562,-14.321209,-5.657801,-10.361917,-7.409752
1006.980469,-12.186899,-8.043258,-3.611179,-17.032808
1006.984375,-15.061125,-6.378491,-11.305475,-6.888779
1006.988281,-6.576220,-5.372879,-8.975035,-5.446649
1006.992188,-5.817539,-3.820911,-9.394690,-8.806317
1006.996094,-3.055317,-6.140360,-7.194246,-1.425528
1007.000000,-2.922272,-1.646740,3.952736,-0.992303
1007.003906,3.534897,8.402969,-1.169750,3.708604
1007.007812,5.952394,6.079960,9.899386,9.427634
1007.011719,3.762011,7.691415,10.891711,0.518711
1007.015625,5.988098,9.846269,6.752053,10.407100
1007.019531,3.431231,8.329138,11.429243,8.550376
1007.023438,18.142396,13.728580,9.147659,2.292174
1007.027344,6.737491,10.250099,11.646483,14.011331
1007.031250,7.301927,7.624246,10.130172,9.795476
1007.035156,10.835051,7.066217,6.768326,7.100535
1007.039062,16.767262,8.317182,3.865403,11.561232
1007.042969,-2.674443,0.129219,9.995352,8.380525
1007.046875,6.369638,-4.528142,2.761347,11.851061
1007.050781,-1.298157,8.323781,4.057382,0.137765
1007.054688,-5.633540,0.140807,-2.036270,-3.052496
1007.058594,-9.614375,-4.001107,-6.972783,-1.563478
1007.062500,-0.224801,-13.640025,-12.522279,-1.701195
1007.066406,-7.961612,-5.420004,-7.144526,-6.819755
1007.070312,-1.278408,-6.824614,-6.996020,-10.999910
1007.074219,-13.946285,-13.068483,-15.558456,-14.723593
1007.078125,-11.532788,-3.877427,-9.183503,-8.039765
1007.082031,-5.752575,-8.494531,-5.322771,-2.697602
1007.085938,-13.082725,-5.025344,-7.289818,-11.785607
1007.089844,-6.775774,-14.943389,-4.902408,-4.989908
1007.093750,-2.798822,-9.736444,-7.634412,-7.617607
1007.097656,4.664700,-3.969975,-3.740105,1.657450
1007.101562,3.026868,6.535486,-2.684674,-2.463740
1007.105469,9.701751,-4.073433,4.155885,-2.162085
1007.109375,5.463150,9.161088,2.646340,8.596051
1007.113281,11.842237,2.445527,2.011280,11.486250
1007.117188,10.667858,7.563062,6.331086,7.690046
1007.121094,10.051108,7.149834,12.254009,9.489789
1007.125000,13.286791,15.017505,9.092142,8.049348
1007.128906,12.122044,7.783287,6.295609,8.117310
1007.132812,8.590494,6.913661,5.022436,6.630952
1007.136719,4.674359,1.669895,2.485994,10.267787
1007.140625,5.289529,1.845520,8.879505,2.312528
1007.144531,5.603843,7.005284,7.574536,-1.103748
1007.148438,0.866054,-0.996485,-2.329540,-4.997099
1007.152344,-3.280732,-3.558736,-3.954201,-3.825427
1007.156250,-3.628339,-12.768673,1.247093,-2.235483
1007.160156,-0.299226,-3.805269,-7.296708,-9.699097
1007.164062,-7.614238,-7.179569,-2.560605,-5.190752
1007.167969,-10.088257,-15.733082,-8.611074,-9.291865
1007.171875,-7.699429,-16.965097,-6.522697,-12.877734
1007.175781,-11.869489,-10.008884,-12.341683,-8.171713
1007.179688,-7.554545,-8.312658,-16.612676,-11.255278
1007.183594,-5.335885,-4.053536,-8.536967,-4.189771
1007.187500,-5.188093,-14.729428,-3.482380,-11.200092
1007.191406,-3.170486,-4.909565,-13.678875,-3.378176
1007.195312,-5.172702,-6.163949,-6.435574,-3.548912
1007.199219,-5.228678,3.742610,0.889848,-2.727934
1007.203125,9.655168,5.414598,0.214373,-2.211517
1007.207031,5.757256,0.857774,2.124153,2.464551
1007.210938,3.058873,1.437569,11.332021,5.431638
1007.214844,3.167508,14.529093,15.287080,4.209595
1007.218750,11.114144,12.276039,7.069435,20.308703
1007.222656,21.196203,14.894463,8.834690,10.931606
1007.226562,18.902834,11.127634,11.729926,7.704371
1007.230469,6.193797,6.118671,10.587138,10.700401
1007.234375,9.537501,10.875195,6.579854,7.980130
1007.238281,10.359401,1.668685,9.416724,8.097364
1007.242188,4.431248,4.484369,2.694161,8.179814
1007.246094,0.988029,-0.481382,1.797349,3.072449
1007.250000,-5.848283,-0.727558,-5.004115,1.731235
1007.253906,-3.737415,-1.754090,0.767463,-11.407292
1007.257812,-5.993549,-7.647946,-3.554692,-2.888475
1007.261719,-3.715277,-8.001577,-9.183204,-13.081021
1007.265625,-4.465879,-13.094653,1.837943,-8.000132
1007.269531,-11.396531,-10.547463,-8.815704,-0.359259
1007.273438,-3.184605,-8.949820,-11.006210,-8.384013
1007.277344,-8.630336,-11.072461,-9.417559,-6.768836
1007.281250,-13.906549,-3.784986,-3.113399,-11.677765
1007.285156,-9.416634,-0.925354,-9.251349,-3.980173
1007.289062,-6.716564,-1.701792,-6.961941,-8.288275
1007.292969,-3.425275,-5.788770,0.258365,-3.385417
1007.296875,-3.856663,-3.694347,-6.191347,1.563853
1007.300781,-2.488584,-3.631144,-3.109054,-0.278612
1007.304688,1.636884,7.877486,4.351833,5.046644
1007.308594,9.751391,-1.250887,7.202531,8.380321
1007.312500,8.633852,6.121378,5.641841,5.051751
1007.316406,8.655863,12.191652,0.231655,9.299929
1007.320312,7.710674,9.132547,6.977105,13.481122
1007.324219,15.172224,4.223988,14.406564,11.910767
1007.328125,12.343157,8.862981,9.272696,0.532607
1007.332031,3.141962,10.785575,7.576059,7.545405
1007.335938,8.261557,7.501659,11.083780,8.061176
1007.339844,4.714284,9.193595,8.913535,-0.202596
1007.343750,4.610734,5.892878,1.624424,-2.720006
1007.347656,7.687357,2.741091,-2.190825,2.656780
1007.351562,1.520660,-1.900267,2.346262,-5.846033
1007.355469,-6.680778,-2.527007,0.617046,-0.525302
1007.359375,1.181241,-3.500019,-3.764218,-14.333763
1007.363281,-6.113605,-5.977350,-0.612250,-9.726518
1007.367188,-14.565552,-15.464024,-8.692570,-12.524432
1007.371094,-12.088393,-5.625234,-9.255576,-5.443810
1007.375000,-13.213235,-13.012270,-13.226908,-5.080040
1007.378906,-10.921491,-4.245292,-14.118707,-8.275468
1007.382812,-2.809667,-7.374150,-11.677350,-15.211313
1007.386719,-10.959611,-8.706755,-5.126700,-0.448491
1007.390625,-2.954726,-0.815328,-6.156630,-6.913315
1007.394531,-6.394517,0.117071,-4.517775,-3.041156
1007.398438,-1.331637,-7.664492,-4.080558,-1.783360
1007.402344,-0.342828,0.324167,4.509060,2.047106
1007.406250,10.273997,-1.351325,-6.186053,7.999175
1007.410156,1.095488,4.504061,2.670522,7.930254
1007.414062,6.579270,12.193997,6.192409,12.053590
1007.417969,5.263598,13.157283,14.998915,7.758511
1007.421875,11.370106,11.061293,10.681654,13.544727
1007.425781,4.748310,8.225908,14.706802,6.362183
1007.429688,3.205867,14.390736,10.380719,7.688499
1007.433594,14.698183,8.713312,10.245625,4.554681
1007.437500,9.679821,8.653752,7.790615,3.470742
1007.441406,0.413240,7.718908,6.201555,1.361881
1007.445312,5.672635,10.049576,-0.878969,3.152218
1007.449219,-2.389547,-1.730578,-2.709539,-4.317844
1007.453125,-3.431243,-0.994408,-3.741870,4.708345
1007.457031,0.625162,-6.763674,-3.307749,-5.496724
1007.460938,4.012845,-10.265648,-1.938670,-13.611360
1007.464844,-6.778882,-8.933475,-1.346967,-15.755353
1007.468750,-1.369326,-12.131050,-5.492875,-11.928040
1007.472656,-16.289044,-13.038643,-19.645537,-10.162694
1007.476562,-15.894929,-10.124525,-9.433880,-10.653216
1007.480469,-8.275835,-14.195424,-8.443924,-16.351581
1007.484375,-7.271228,-6.073840,-8.424872,-9.168828
1007.488281,-8.149762,-4.331033,-5.844455,-6.919271
1007.492188,-6.771964,-4.481503,-8.263676,-4.538939
1007.496094,-5.144123,-8.095577,-11.043176,-3.317545
1007.500000,-0.421101,-1.474665,-0.445027,2.958282
1007.503906,-0.127797,-0.679886,6.873433,7.649540
1007.507812,5.052323,2.535683,-1.352329,0.688721
1007.511719,5.301187,5.227266,12.054829,7.775514
1007.515625,8.445619,6.310392,9.004281,5.761311
1007.519531,5.299152,9.546649,11.037316,10.047385
1007.523438,3.961176,10.530118,9.855835,8.107998
1007.527344,9.061587,5.489215,8.253454,11.434371
1007.531250,11.445276,11.127890,9.205187,12.306039
1007.535156,11.580286,6.300072,0.769651,6.522981
1007.539062,4.735587,2.962604,11.952972,5.606487
1007.542969,3.170733,-2.081031,-0.846313,-2.456270
1007.546875,-0.658860,-0.859104,-2.623728,0.105754
1007.550781,0.530013,0.119369,1.104018,-0.491343
1007.554688,-7.351679,-8.329571,2.667843,5.445417
1007.558594,-6.401891,-5.441131,3.674960,-6.497402
1007.562500,-13.825563,-8.255509,-1.141292,-10.184175
1007.566406,-5.086449,-9.735186,-4.893962,-15.503305
1007.570312,-13.093212,-14.248053,-8.389898,-7.686284
1007.574219,-1.738198,-9.956051,-7.790131,-11.480702
1007.578125,-8.875108,-14.186732,0.573430,-9.941933
1007.582031,-11.255834,-15.761797,-17.758283,-3.675315
1007.585938,-11.074339,-7.056287,-1.900002,-7.417105
1007.589844,-5.113091,-6.208511,-13.259569,-5.460930
1007.593750,-2.488287,-0.537436,-4.547010,0.549018
1007.597656,-8.966769,-3.876925,-0.919011,1.387926
1007.601562,2.776961,2.218860,-0.026556,-1.054208
1007.605469,7.292794,0.330167,0.481736,6.004431
1007.609375,9.323643,8.352816,9.170281,8.760481
1007.613281,9.095550,4.084169,7.321805,5.030934
1007.617188,10.485879,14.573859,10.432982,8.605363
1007.621094,6.901513,0.660969,6.265634,10.133301
1007.625000,10.960158,6.630628,17.684908,6.707774
1007.628906,12.709002,4.836335,7.293655,9.467788
1007.632812,16.725738,2.707637,3.771784,11.516067
1007.636719,6.522852,-3.128744,10.093798,6.135815
1007.640625,7.888436,2.678116,1.341952,4.710360
1007.644531,9.412603,-0.773241,5.540894,1.827581
1007.648438,3.594739,1.837319,-3.546704,-5.556943
1007.652344,2.102838,-2.055326,2.297276,-4.959426
1007.656250,-0.364264,4.989784,-2.680029,-1.640015
1007.660156,-1.592442,-6.630385,-6.133955,1.226351
1007.664062,-8.030350,-7.921727,-3.792259,-14.647955
1007.667969,-9.852318,-5.758827,-10.326659,-6.733263
1007.671875,-2.096784,-8.664119,-8.833884,-11.965097
1007.675781,-6.778682,-3.002787,-7.124773,-1.365966
1007.679688,-14.690494,-13.535075,-12.924701,-8.982244
1007.683594,-16.721296,-8.248435,-14.932773,-11.744756
1007.687500,-9.670820,-5.057924,-10.435588,-8.616391
1007.691406,-14.491500,1.650431,-0.223712,-2.090829
1007.695312,-12.641011,-2.406778,-0.096564,-4.216734
1007.699219,3.937266,-3.728212,-5.209770,-2.531734
1007.703125,6.012923,0.076209,2.354219,9.114189
1007.707031,9.131621,1.908439,-0.224427,6.047099
1007.710938,7.039453,-1.060330,9.658632,11.880092
1007.714844,-0.051536,8.561104,13.020054,11.454777
1007.718750,7.830857,12.409731,3.589831,7.194863
1007.722656,7.074605,12.665073,14.198349,4.923592
1007.726562,10.445642,9.315386,6.709995,10.983168
1007.730469,10.675545,13.118615,6.537802,0.778890
1007.734375,6.908539,20.144451,4.762223,9.884199
1007.738281,9.866160,14.164282,3.661185,8.305957
1007.742188,0.612445,0.961370,1.295259,2.958735
1007.746094,4.415996,-1.914086,4.914049,6.603604
1007.750000,4.617285,-4.358799,-3.117577,1.733055
1007.753906,-1.720481,2.477887,-0.435585,1.742306
1007.757812,-3.402958,-7.730086,-4.176822,-10.281431
1007.761719,-3.593591,-10.439719,-3.980272,-5.322183
1007.765625,-7.416525,-5.558817,-8.446971,-9.530834
1007.769531,-15.076135,-5.881134,-2.521321,-5.228902
1007.773438,-7.837866,-10.195677,-7.970809,-6.206643
1007.777344,-3.557746,-9.444346,-9.253067,-15.012399
1007.781250,-10.426280,-11.916495,-16.205901,-6.667600
1007.785156,-6.086590,-13.073368,-7.184497,-9.307534
1007.789062,-9.727254,-5.869997,-5.922296,-7.892540
1007.792969,-2.593705,-1.572360,-1.502378,-3.179755
1007.796875,3.721088,-0.763418,-2.408267,-6.555602
1007.800781,2.531960,-3.858797,-3.897887,-0.933749
1007.804688,10.623853,2.555250,1.542334,10.917868
1007.808594,3.452057,2.401649,9.289157,4.297142
1007.812500,5.105221,1.993510,7.757383,1.327091
1007.816406,6.947134,9.114367,5.946890,12.935761
1007.820312,7.201353,9.085273,13.771089,11.807884
1007.824219,10.148213,11.141057,9.184697,7.274856
1007.828125,7.383117,9.084937,12.213006,12.050748
1007.832031,12.036098,4.627083,9.917162,8.563342
1007.835938,11.463566,10.309189,12.400939,8.168195
1007.839844,-1.364829,3.154644,3.264584,7.413044
1007.843750,7.611669,2.571345,-3.893254,4.166231
1007.847656,3.268051,2.026780,2.323655,1.877832
1007.851562,1.029821,-8.739399,-5.979385,-3.728078
1007.855469,-8.580685,-4.526262,-3.837896,-2.896016
1007.859375,-8.168406,-9.954720,-9.393127,-4.771005
1007.863281,-5.973064,-11.659350,-7.462242,-13.381715
1007.867188,-8.496982,-17.395385,-5.320131,-12.679741
1007.871094,-7.230923,-9.238688,-8.582397,-9.337186
1007.875000,-8.014248,-12.115581,-11.785510,-4.376377
1007.878906,-3.592248,-12.204550,-15.444305,-14.227420
1007.882812,-8.779932,-15.938106,-13.850416,-9.919757
1007.886719,-13.015958,-7.185278,-8.670176,-9.847718
1007.890625,1.969946,-12.573615,-4.295037,-4.032823
1007.894531,-11.349772,-13.141030,-2.829486,-2.799215
1007.898438,-1.596534,-1.138449,2.041711,-3.176322
1007.902344,4.806955,-1.942959,6.904976,0.379396
1007.906250,7.566815,-0.679615,3.055278,3.653258
1007.910156,-0.312415,4.586066,10.774198,4.000519
1007.914062,12.600081,8.012276,2.938056,10.509198
1007.917969,5.626869,1.905452,9.682554,7.172162
1007.921875,12.159842,13.762630,8.841790,10.166538
1007.925781,4.454414,11.758885,8.738499,15.005827
1007.929688,-1.248538,9.384184,9.708844,16.847903
1007.933594,7.504594,4.491615,6.118833,7.380576
1007.937500,5.653291,7.560211,8.965966,12.697343
1007.941406,-3.603966,-1.618407,8.158013,6.315891
1007.945312,1.737278,7.181589,2.605167,8.265036
1007.949219,-3.651651,-6.137410,-1.466324,6.828750
1007.953125,-6.525145,-1.316304,-1.890958,1.376042
1007.957031,-2.306446,-11.897623,-2.944976,-6.189593
1007.960938,-6.876633,-8.438125,-6.771762,-5.984643
1007.964844,-4.700618,-7.883109,-5.487706,-6.952029
1007.968750,-10.140640,-13.989369,-8.079550,-12.740393
1007.972656,-14.388192,-5.998180,-8.951974,-7.611490
1007.976562,-7.212737,-5.515609,-10.414726,-8.585302
1007.980469,-13.877895,-4.440215,-10.845827,-8.433316
1007.984375,-6.562553,-3.496519,-5.258537,-10.090879
1007.988281,-2.815428,-3.058287,-6.004159,-8.110014
1007.992188,-4.043276,-0.857816,-3.946817,-3.334231
1007.996094,-0.370859,-4.620639,0.400390,-4.216233
1008.000000,2.863681,0.992826,-7.408150,1.530493
1008.003906,1.093905,-1.224861,-1.408776,1.029312
1008.007812,4.217717,10.378637,2.434229,1.229134
1008.011719,6.866598,2.921715,12.323732,10.585234
1008.015625,13.239126,12.348953,4.897127,16.440280
1008.019531,13.953146,3.967940,3.136126,5.936592
1008.023438,15.851757,14.809265,6.029658,9.528457
1008.027344,5.950821,16.901902,10.884125,8.619091
1008.031250,8.485399,9.884451,4.633695,9.085617
1008.035156,12.467905,11.267682,14.048088,13.561002
1008.039062,3.418390,15.392511,-1.076101,9.940409
1008.042969,5.002356,5.733021,5.454554,0.638671
1008.046875,-1.694788,5.979047,0.717779,-5.716489
1008.050781,1.592273,-3.226876,-3.849322,-2.110345
1008.054688,-6.178937,-6.925197,-8.223105,-4.975847
1008.058594,-11.810393,-7.068789,-5.738341,-4.933588
1008.062500,-14.432049,-9.099290,-5.217040,-8.915400
1008.066406,-8.162263,-8.650333,-10.335624,-6.425072
1008.070312,-8.814953,-8.670205,-9.482955,-6.882922
1008.074219,-13.320202,-9.175124,-8.066548,-8.908719
1008.078125,-10.328874,-4.033501,-8.037046,-13.076813
1008.082031,-12.770297,-8.582789,-2.552197,-5.097295
1008.085938,-10.881698,-12.892003,-11.582015,-6.747501
1008.089844,-12.192261,-7.680822,-10.661326,-9.261625
1008.093750,-2.626925,-4.579966,0.663045,0.059765
1008.097656,0.437671,0.781401,-2.864013,4.132108
1008.101562,-1.408352,1.814859,-0.239159,-1.563288
1008.105469,2.944481,2.115786,2.124133,3.519221
1008.109375,7.920363,5.166516,-3.970228,7.756095
1008.113281,5.911902,4.686775,5.609390,7.468535
1008.117188,7.733361,14.483211,11.947429,3.993032
1008.121094,9.552887,5.912745,13.267593,11.295973
1008.125000,15.013735,5.198604,6.864536,14.469332
1008.128906,3.664545,11.238519,8.141247,4.514219
1008.132812,11.086469,7.510491,11.449234,11.449675
1008.136719,7.196087,6.077435,14.300317,9.043688
1008.140625,5.047356,0.912118,0.961512,1.899156
1008.144531,12.834032,4.896331,1.900740,3.135447
1008.148438,1.903877,3.511171,3.102364,1.080047
1008.152344,-0.002834,-6.787938,-2.849591,-1.557490
1008.156250,-6.102996,-9.705813,-5.701211,-4.360021
1008.160156,-6.904942,-7.942869,-5.150571,-2.869017
1008.164062,-4.624798,-7.138017,-10.682500,-13.135615
1008.167969,-6.818116,-13.009383,-5.486185,-12.921452
1008.171875,-10.005957,-8.568727,-11.086291,-9.555569
1008.175781,-12.735451,-4.607180,-13.477093,-17.164113
1008.179688,-17.614350,-12.506706,-12.163628,-4.225462
1008.183594,-4.525618,-16.119477,-9.904880,-8.107109
1008.187500,-13.175886,-8.551822,-12.563517,-7.018344
1008.191406,-6.185422,-11.310328,-5.800109,-6.901228
1008.195312,1.626423,-5.938993,-8.899298,0.318351
1008.199219,-4.122952,-4.785778,1.059358,-1.960018
1008.203125,4.040839,6.016822,4.580242,2.114638
1008.207031,-2.884237,7.711928,4.404183,2.579543
1008.210938,7.296819,4.483475,10.148339,5.035566
1008.214844,11.176025,5.172374,5.864344,5.915996
1008.218750,11.876940,6.657429,8.913949,14.449842
1008.222656,11.747696,12.576615,6.332493,11.951437
1008.226562,11.203605,8.050435,8.734644,3.778565
1008.230469,7.970124,10.837584,7.498743,6.675088
1008.234375,14.777613,9.560861,15.632620,2.791857
1008.238281,-1.660197,-2.525861,2.083251,6.052909
1008.242188,-0.275704,0.194242,16.349867,6.243439
1008.246094,1.865483,4.452429,3.858654,1.546620
1008.250000,1.493504,6.476023,0.891147,1.469920
1008.253906,3.055116,-1.663052,-3.830991,-5.513570
1008.257812,-4.635798,2.208662,-3.633025,-4.822282
1008.261719,-3.131803,-0.516893,-2.760422,-15.342430
1008.265625,-7.009353,-7.155754,-13.407308,-2.801763
1008.269531,-12.827556,-13.272840,-12.645482,-5.730427
1008.273438,-8.811237,-16.752088,-5.985413,-11.324045
1008.277344,-11.701138,-10.305307,-8.577973,-10.764066
1008.281250,-6.073195,-6.557299,-13.106711,-8.994179
1008.285156,-13.016127,-1.605541,-4.196505,-12.010531
1008.289062,-5.255345,-13.707027,-0.428095,-1.909427
1008.292969,1.958910,-1.499993,-9.466557,1.521120
1008.296875,-1.171070,-5.559208,-5.644806,7.825495
1008.300781,-5.024811,-3.357143,0.785282,0.695088
1008.304688,5.695404,-7.300096,5.209008,1.707186
1008.308594,4.806112,13.849104,3.695674,6.100846
1008.312500,5.129245,6.228123,9.052028,12.328025
1008.316406,12.267584,12.198912,5.480025,9.144743
1008.320312,5.698407,17.496519,10.171352,11.238358
1008.324219,12.067289,18.275629,9.750364,9.648843
1008.328125,7.625696,-3.038588,8.566659,9.580596
1008.332031,-1.193792,8.940815,9.268569,8.325090
1008.335938,6.546814,5.618681,4.274534,5.991851
1008.339844,-0.305404,2.609328,5.590313,10.193325
1008.343750,0.509574,6.136403,10.397397,3.647685
1008.347656,0.448867,6.885600,4.814783,-1.357876
1008.351562,-1.846619,4.772398,-4.422108,4.921038
1008.355469,-4.813534,-0.236133,-6.746166,2.748178
1008.359375,-4.644865,-5.795273,-1.223375,4.527847
1008.363281,-8.170572,-7.218614,-3.484265,-9.206641
1008.367188,-0.691677,-7.530713,-16.324784,-10.562550
1008.371094,-16.538222,-14.495105,-1.525960,-9.413579
1008.375000,-14.690934,-17.547990,-14.218626,-8.207924
1008.378906,-11.823679,-11.570127,-9.529057,-11.627404
1008.382812,-7.429793,-11.685474,-3.326608,-10.231437
1008.386719,-4.791233,-5.720803,-6.206882,-8.157020
1008.390625,0.408494,1.767604,-10.095372,-1.314727
1008.394531,-11.605378,-2.773066,-7.385100,-9.704158
1008.398438,3.923197,-5.491791,-9.358162,3.283764
1008.402344,0.799886,2.518389,-2.772497,3.396740
1008.406250,12.072168,-0.682160,12.553147,2.769545
1008.410156,11.275945,10.264395,1.891733,5.974996
1008.414062,12.197393,9.218913,12.819911,4.275444
1008.417969,11.125691,16.387630,12.082820,3.714206
1008.421875,8.049462,8.086104,13.312406,7.446288
1008.425781,5.069187,10.028742,13.935312,9.877910
1008.429688,10.052072,9.678419,9.986460,6.573102
1008.433594,1.982077,6.427390,9.567313,6.367310
1008.437500,6.816065,11.600120,-4.080676,5.413850
1008.441406,0.093565,7.408914,2.562732,4.837271
1008.445312,-4.730030,-0.181509,6.014848,9.704742
1008.449219,3.890040,4.777520,1.148968,4.591936
1008.453125,-4.407333,-5.737181,-4.184171,-2.998507
1008.457031,-7.039052,-4.365323,5.145042,-10.774266
1008.460938,-4.026686,-5.186774,-4.370143,-4.916650
1008.464844,-17.053214,-7.243102,-6.293213,-1.782800
1008.468750,-1.061728,-9.759260,-12.570577,-12.385401
1008.472656,-10.175388,-15.744738,-6.104281,-10.241615
1008.476562,-13.328652,-10.620023,-4.685780,-13.869165
1008.480469,-7.945212,-3.064036,-3.351689,-13.725233
1008.484375,-4.997726,-7.821410,-13.539880,-11.929076
1008.488281,-8.600315,-6.091471,-7.671396,-5.341985
1008.492188,-7.043597,-4.471179,2.203093,-0.428006
1008.496094,-5.618134,-0.047229,1.497731,-3.772381
1008.500000,-0.679849,1.801495,-1.251313,1.945563
1008.503906,-4.404432,14.027709,5.433076,7.847556
1008.507812,7.184931,4.382879,4.211055,3.128357
1008.511719,7.427670,4.797981,2.945599,3.145929
1008.515625,9.193329,3.637541,15.598422,2.626615
1008.519531,13.280197,9.524153,7.389850,3.879472
1008.523438,7.781578,7.489304,7.544769,10.851460
1008.527344,10.332887,8.146123,5.725129,2.436825
1008.531250,1.896234,10.928079,2.919974,16.596169
1008.535156,5.938172,9.179744,7.873000,11.443965
1008.539062,1.458497,6.085957,5.584986,1.768289
1008.542969,-2.208352,-1.779562,5.538232,8.144284
1008.546875,4.905942,3.998189,3.031766,3.287128
1008.550781,4.902018,-2.594240,-1.306697,-1.932749
1008.554688,-3.804843,-10.919194,-0.964529,3.460804
1008.558594,-7.098676,-5.191571,-7.731395,-2.085332
1008.562500,-12.673052,-8.472283,-8.635141,-8.712864
1008.566406,-4.037075,-8.795767,-8.657435,-12.075375
1008.570312,-10.810421,-8.341738,-4.140347,-13.946266
1008.574219,-6.949952,-10.405892,-2.107164,-11.282902
1008.578125,-14.353800,-6.342978,-5.509308,-1.667395
1008.582031,-12.433842,-5.075722,-8.760784,-9.562841
1008.585938,-8.346201,-11.844209,4.084532,-8.102132
1008.589844,-1.806053,-9.513220,-7.574840,-4.548416
1008.593750,-10.923400,-7.648244,-7.638352,-11.713065
1008.597656,-1.714343,-1.894877,-2.046331,-2.177988
1008.601562,-3.248088,5.077837,3.105520,2.479452
1008.605469,1.020445,0.713789,4.292899,1.221697
1008.609375,12.002478,6.578977,12.894507,-3.145169
1008.613281,9.943717,3.301606,-0.202602,2.378279
1008.617188,-0.413972,12.180332,9.917400,9.349536
1008.621094,12.487159,14.073359,12.156594,8.385153
1008.625000,12.536298,7.792203,9.694412,8.944568
1008.628906,8.437029,10.521404,10.883998,16.502873
1008.632812,15.403720,10.941653,12.926752,13.047962
1008.636719,9.700432,9.227346,7.067466,14.608177
1008.640625,7.534432,2.123248,7.778265,-0.785307
1008.644531,0.557209,3.615700,1.006557,6.548225
1008.648438,6.138114,-1.574733,1.568682,-3.421525
1008.652344,-0.701893,3.135873,1.428582,6.178348
1008.656250,-0.247009,2.653070,1.267679,-12.437098
1008.660156,-2.285547,-9.482366,-5.968531,-1.981597
1008.664062,-10.993714,-7.157962,-8.803035,-4.969406
1008.667969,-13.926806,-11.685242,-12.315771,-7.896040
1008.671875,-13.174267,-7.996691,-6.301281,-0.214331
1008.675781,-12.894895,-8.777949,-18.577616,-10.611165
1008.679688,-8.185172,-4.181441,-12.682559,-7.958255
1008.683594,1.059534,-2.376439,-5.388178,-16.480455
1008.687500,-10.165246,-9.637222,-11.000515,-7.776319
1008.691406,-2.233112,-8.079870,1.741876,-5.527031
1008.695312,4.125609,-2.710751,-13.027847,-8.112716
1008.699219,-3.354420,-0.228495,3.376162,-3.677886
1008.703125,5.320557,1.303767,5.116816,1.891242
1008.707031,1.506501,4.063030,7.634302,2.553482
1008.710938,11.705765,6.714528,8.063196,13.421828
1008.714844,10.560314,7.217682,1.797828,0.447907
1008.718750,9.534176,5.722973,14.838115,9.266858
1008.722656,8.515532,16.695793,6.984852,13.441889
1008.726562,11.030715,10.145797,4.725196,8.530778
1008.730469,9.282264,1.476603,14.609495,14.873527
1008.734375,6.797054,9.607875,6.768619,14.549239
1008.738281,5.631997,4.986822,9.059819,3.107258
1008.742188,6.804621,0.192757,7.455486,12.780255
1008.746094,-5.757034,3.411104,-4.103927,-2.787197
1008.750000,-4.638944,-0.665001,-6.311481,0.340062
1008.753906,4.073466,-9.030657,-10.089763,-4.353079
1008.757812,-6.369585,-2.029745,-7.222908,-5.562174
1008.761719,0.261156,-9.001295,-9.764220,-6.596233
1008.765625,-8.473623,-12.066553,-11.440265,-15.654249
1008.769531,-7.470199,-3.941615,-11.063333,-9.678568
1008.773438,-9.153830,-9.188242,-6.746794,-4.664309
1008.777344,-4.190893,-2.501167,-12.975729,-8.272343
1008.781250,-13.734921,-8.827375,-4.379322,-8.962575
1008.785156,0.814043,-12.983619,-15.182919,-9.269573
1008.789062,-3.849399,-10.870688,-8.999569,-4.619657
1008.792969,2.897434,-8.105661,-2.702584,-4.942094
1008.796875,0.937779,-10.419120,3.756293,-1.281512
1008.800781,0.751252,-1.683120,-4.012002,-4.570060
1008.804688,2.944803,3.991523,2.457042,2.337990
1008.808594,10.918694,3.279743,9.179795,0.349144
1008.812500,8.666622,-0.964660,3.332958,0.830382
1008.816406,7.793367,11.189820,4.817793,8.264123
1008.820312,13.693643,9.417410,6.093601,8.096143
1008.824219,7.653271,8.658580,15.427688,10.400101
1008.828125,11.141090,7.443385,15.125267,3.532637
1008.832031,7.523158,12.406752,5.743327,9.685525
1008.835938,5.679710,9.663376,4.633117,2.155900
1008.839844,0.299353,9.684654,7.679469,4.861400
1008.843750,2.690353,-0.942913,5.510511,-2.854415
1008.847656,1.936439,-5.907095,2.094918,8.047662
1008.851562,-5.639979,1.281469,-4.511086,0.632516
1008.855469,5.278648,-3.553117,-5.245676,-9.797292
1008.859375,-4.484540,-13.090930,-5.062959,-7.958142
1008.863281,-6.744744,-8.613071,-5.722811,0.870385
1008.867188,-12.163029,-17.468578,-12.912934,-3.574162
1008.871094,-10.591590,-10.460360,-11.470496,-9.323906
1008.875000,-6.485956,-14.131357,-10.990325,-7.892045
1008.878906,-10.791048,-10.031746,-7.161357,-13.018181
1008.882812,-7.358899,-6.595702,-15.426329,-11.671848
1008.886719,-9.190521,-10.545248,-8.342132,-9.447672
1008.890625,-7.281638,-3.604895,-3.668129,-2.084674
1008.894531,-3.547816,-2.796381,7.890665,-12.582856
1008.898438,-2.300066,-1.294039,-1.203054,6.256547
1008.902344,8.074844,-2.244301,1.892919,-3.608725
1008.906250,1.940506,0.448480,2.450785,5.470911
1008.910156,11.644552,5.173590,6.974879,11.004252
1008.914062,10.670404,18.455223,9.362884,6.586649
1008.917969,10.760453,6.912969,3.725965,5.922035
1008.921875,12.507099,14.557322,6.967867,10.393168
1008.925781,12.788630,7.064663,14.473848,14.365280
1008.929688,10.613857,6.361044,1.308675,12.638427
1008.933594,2.677593,10.981825,10.490715,-0.492392
1008.937500,9.775790,1.856358,8.154558,6.434942
1008.941406,3.691226,8.958530,8.866754,1.433491
1008.945312,-1.319339,-0.515462,5.955590,8.004086
1008.949219,-0.767418,-1.816141,4.461281,4.456976
1008.953125,-5.322274,4.829193,-7.291570,-4.807409
1008.957031,-1.287910,-7.999602,-7.943438,-5.031027
1008.960938,-8.324829,-4.795056,-2.023525,-6.539601
1008.964844,-7.187709,-9.194585,-13.344725,-6.101306
1008.968750,-9.328069,-8.097507,-6.352861,-5.827467
1008.972656,-5.781766,-3.716848,-16.867790,-9.078024
1008.976562,-5.116246,-14.977603,-10.193505,-16.046877
1008.980469,-6.900728,-13.117348,-9.768873,-0.349174
1008.984375,-7.059968,-9.198317,-6.431257,-15.963934
1008.988281,-9.716447,-11.468990,-3.731606,-9.640445
1008.992188,-4.952737,-4.948659,-10.052849,-7.695544
1008.996094,-3.698036,0.164211,-5.887782,-4.511252
1009.000000,1.957035,4.192203,-4.888234,12.330961
1009.003906,7.079374,3.405353,-0.459641,-4.125171
1009.007812,4.397675,6.758433,4.293565,5.041811
1009.011719,2.238764,9.271226,4.841465,7.257243
1009.015625,9.682597,3.905914,11.365356,0.659613
1009.019531,4.830445,8.983288,8.697590,15.447148
1009.023438,5.304389,13.221437,7.563785,-1.042368
1009.027344,2.950750,5.572370,15.996724,10.876414
1009.031250,8.823619,10.316123,11.494732,5.796503
1009.035156,11.171758,9.050714,14.125613,6.968384
1009.039062,4.888913,8.421063,5.262394,9.761602
1009.042969,6.097480,3.697036,2.872575,6.217874
1009.046875,2.291623,4.285673,3.101618,0.371929
1009.050781,-2.297798,1.398574,0.196949,7.448087
1009.054688,6.401303,-6.207299,-9.790949,0.471839
1009.058594,-0.399904,-2.440186,-3.486248,-0.842643
1009.062500,-9.793028,-9.196967,-0.775027,-10.855699
1009.066406,-2.290417,-6.543693,-8.489568,-9.291140
1009.070312,-12.156504,-11.430328,-6.455280,-16.198417
1009.074219,-13.201343,-11.767889,-6.215353,-10.542366
1009.078125,-9.710296,-12.326557,-15.034221,-11.692168
1009.082031,-8.023347,-5.393228,-17.003433,-5.708798
1009.085938,-9.097252,-6.895777,-10.546786,-6.411106
1009.089844,-4.014710,-16.592435,-1.778430,-2.334810
1009.093750,-6.573229,-2.048553,-5.200400,-14.372012
1009.097656,4.744239,-0.797939,0.699303,-8.549996
1009.101562,-0.947382,-1.860238,2.391160,2.251864
1009.105469,5.904199,0.933036,1.385646,4.092097
1009.109375,0.736402,-2.110276,2.175339,10.887289
1009.113281,9.368588,12.471320,11.247020,7.787818
1009.117188,10.824021,6.228985,8.023040,5.889169
1009.121094,9.945484,4.226352,6.449666,9.880364
1009.125000,2.299716,10.320056,11.377706,10.036706
1009.128906,9.135820,9.022324,17.879010,2.238221
1009.132812,6.803050,15.249426,11.193904,5.805646
1009.136719,10.078402,-0.039685,9.022698,2.655472
1009.140625,2.232517,8.986195,4.803023,4.692445
1009.144531,5.674303,2.916273,1.637679,-5.664811
1009.148438,-2.517014,3.333729,10.153178,3.667880
1009.152344,-4.381837,-4.102334,3.992225,0.439068
1009.156250,-2.914460,-9.887021,-2.814079,-8.895013
1009.160156,-13.209795,-7.978983,-14.055188,-2.293049
1009.164062,-3.171127,-13.990005,-11.807553,-8.355144
1009.167969,-9.454489,-12.089171,0.360358,-14.071216
1009.171875,-7.625411,-7.139945,-5.286803,-9.608979
1009.175781,-12.612432,-7.448596,-13.518262,-10.861402
1009.179688,-9.124876,-3.575948,-2.993398,-11.804105
1009.183594,-5.020784,-5.372468,-10.379710,-13.724015
1009.187500,-3.073948,-10.503441,-11.702968,-8.127387
