timestamp,TP9,AF7,AF8,TP10
1000.000000,5.992662,3.954815,-3.724850,-1.166573
1000.003906,1.592732,6.322225,-1.600428,12.364289
1000.007812,6.193729,5.656617,6.594043,9.166080
1000.011719,6.488909,2.211067,5.655556,6.509868
1000.015625,5.609956,9.997405,10.650708,5.998351
1000.019531,11.175811,6.246309,7.958877,7.129745
1000.023438,-0.101640,11.478698,8.349208,9.356372
1000.027344,10.583346,12.349003,9.201248,10.111130
1000.031250,9.542656,19.147448,11.638621,13.891904
1000.035156,14.172798,-0.792857,7.853294,10.816375
1000.039062,5.768115,5.846405,1.317999,3.792005
1000.042969,-0.224577,-2.156549,-2.484839,1.898607
1000.046875,3.808004,-2.141113,3.312428,-1.930023
1000.050781,2.476675,3.188334,3.218569,-5.020783
1000.054688,-5.913895,-0.881774,6.835766,-5.416091
1000.058594,-2.545428,-4.619619,-4.001739,-9.173234
1000.062500,-1.861589,-5.369336,-14.019140,-11.093918
1000.066406,-11.456419,-11.851936,-7.095243,-8.273567
1000.070312,-16.442505,-13.425953,-8.850363,-13.140114
1000.074219,-5.236446,-15.814734,-8.341152,-11.527110
1000.078125,-17.123374,-11.901783,-7.062471,-1.064887
1000.082031,-3.673477,-4.253243,-10.383046,-1.672778
1000.085938,-7.386275,-7.284885,-5.494638,-10.959456
1000.089844,-3.372705,-11.369447,-2.468058,-10.983088
1000.093750,0.484878,-3.767706,-6.161938,-5.086702
1000.097656,2.431204,0.132988,-5.121368,2.981325
1000.101562,-4.623593,5.032981,-3.707186,-2.116525
1000.105469,2.776300,-0.017774,-2.102522,4.785368
1000.109375,12.126883,1.312617,3.744119,3.094173
1000.113281,12.798194,11.766099,8.222925,8.939430
1000.117188,9.672701,11.469131,12.174989,5.767563
1000.121094,10.930168,8.938099,7.964657,9.158032
1000.125000,6.022802,8.888215,5.814195,8.681068
1000.128906,6.553653,7.291861,10.500184,12.134558
1000.132812,11.039761,6.724881,11.219057,12.363868
1000.136719,6.116047,9.238718,5.237385,8.550533
1000.140625,4.717335,4.499903,-0.732169,4.837951
1000.144531,4.490002,3.970228,3.727893,3.602089
1000.148438,7.495719,6.384566,3.210577,2.450444
1000.152344,1.914391,-5.969455,1.779619,0.450755
1000.156250,0.651366,-7.239087,0.925978,3.815645
1000.160156,0.290526,-5.227115,-10.906672,-5.345278
1000.164062,-7.370683,-6.532402,1.962455,-9.676201
1000.167969,-9.468449,-3.121383,-8.517633,1.957239
1000.171875,-8.686738,-21.553321,-13.223336,-13.444038
1000.175781,-11.277665,-11.526217,-6.894090,1.081382
1000.179688,-9.212471,-3.889410,-5.856556,-9.781457
1000.183594,0.043075,-7.848785,-6.802181,-9.147651
1000.187500,-11.729761,-3.143635,-8.180289,-7.015858
1000.191406,-2.471515,-0.510388,-2.927897,4.666995
1000.195312,1.936304,-0.384124,-1.474447,-3.895207
1000.199219,-8.289514,8.724535,-3.092764,7.006852
1000.203125,8.647433,-0.084271,10.664013,-2.526929
1000.207031,-4.614875,-2.194925,2.178591,6.169791
1000.210938,10.295219,-1.105313,7.908485,10.831321
1000.214844,3.298436,6.233765,12.880477,9.477438
1000.218750,5.164981,11.733201,4.573288,8.312652
1000.222656,17.204586,13.515113,15.340885,17.190696
1000.226562,9.522177,15.286530,9.722789,15.560164
1000.230469,-0.700383,16.219939,8.692324,-0.280160
1000.234375,11.792728,7.269410,7.740708,10.082886
1000.238281,4.536598,4.688014,3.937418,5.546920
1000.242188,7.879558,9.607189,3.937857,0.880882
1000.246094,4.695153,4.164365,6.523795,-0.648744
1000.250000,-3.649137,6.462515,-7.356580,0.184234
1000.253906,1.575543,0.255033,1.053937,-6.076080
1000.257812,-7.626268,-7.224021,-1.907698,-8.045690
1000.261719,-2.149742,-7.927017,-11.164985,-8.222208
1000.265625,-5.073595,0.854871,-5.545730,-8.463738
1000.269531,-10.026192,-6.830302,-10.233385,-5.876550
1000.273438,-9.826445,-12.782824,-7.292038,-14.876484
1000.277344,-12.395095,-6.570625,-3.764095,-9.371402
1000.281250,-4.875085,-15.086566,-8.502645,-4.376460
1000.285156,-9.231827,-11.452431,-1.196282,-14.837603
1000.289062,-0.265048,-7.382642,-1.143150,-4.628010
1000.292969,-6.509388,1.847553,-3.724672,-1.576034
1000.296875,-6.034810,-4.860664,-1.293882,-4.149977
1000.300781,-2.727045,-2.841804,-0.804972,-1.386089
1000.304688,4.975979,1.114886,-2.146331,7.581768
1000.308594,7.774512,7.401949,1.417517,8.443160
1000.312500,10.145517,5.268722,3.390007,9.204455
1000.316406,13.086237,3.489406,3.372963,8.588506
1000.320312,10.121302,4.664833,0.299056,17.070151
1000.324219,15.706311,17.201783,8.093856,10.363771
1000.328125,15.986547,13.590979,7.728883,11.115818
1000.332031,5.916416,6.472207,7.569186,9.413236
1000.335938,5.693049,4.488273,14.192897,1.964289
1000.339844,10.420178,4.845536,-1.039046,6.921031
1000.343750,-5.211220,1.962341,9.716050,7.361951
1000.347656,0.751158,2.951155,0.574505,-1.605388
1000.351562,-1.349145,7.721997,-2.605521,2.023148
1000.355469,-4.122368,-7.086167,-5.071088,2.708974
1000.359375,0.458386,-4.660888,-7.748238,-6.885531
1000.363281,-9.763037,-8.970737,-13.736970,-4.978451
1000.367188,-8.213551,-12.035296,-1.675305,-9.785953
1000.371094,-6.815767,-10.587634,-9.553993,-12.428278
1000.375000,-5.630510,-9.885464,-5.653012,-15.189331
1000.378906,-5.675369,-5.073593,-9.009708,-6.596291
1000.382812,-13.283264,-3.422152,-7.374345,-12.251266
1000.386719,-9.330347,-7.111737,-3.403934,-7.610369
1000.390625,-5.794716,-8.310630,-1.872021,-0.945986
1000.394531,-5.918005,-1.837832,-1.624659,-6.272334
1000.398438,6.420921,1.852517,4.058920,-3.481194
1000.402344,1.357952,1.134096,-3.007552,3.717463
1000.406250,4.278988,2.650429,5.345595,2.140145
1000.410156,5.384935,11.250894,3.208173,4.521406
1000.414062,9.279383,11.725041,1.298761,9.897408
1000.417969,-0.601822,6.101166,8.225668,11.600774
1000.421875,11.631412,9.686517,9.227573,8.373327
1000.425781,8.266934,10.219349,16.451886,10.788162
1000.429688,1.091037,9.337600,9.774967,9.153304
1000.433594,1.945705,12.959775,2.324795,4.850059
1000.437500,5.046036,9.673873,5.048228,-0.390289
1000.441406,9.851798,4.201798,2.856946,4.244424
1000.445312,5.148055,3.746538,2.362354,3.720798
1000.449219,-0.820661,-0.406767,6.251149,-4.754318
1000.453125,-10.764386,-3.639816,0.801923,1.145511
1000.457031,-7.459529,-2.842426,-12.698260,-1.096381
1000.460938,-4.433310,-13.819043,-8.168469,1.301586
1000.464844,-9.804216,-10.134357,-8.011320,-5.936406
1000.468750,-2.819246,-8.343245,-13.166902,-9.903482
1000.472656,-12.857391,-10.283974,-10.470894,-9.702112
1000.476562,-9.907926,-8.231934,-8.724389,-17.238906
1000.480469,-11.307997,-4.167576,-5.687560,-9.775198
1000.484375,-9.816551,-12.839300,-4.010612,-3.434169
1000.488281,-6.610393,-11.700599,-0.210602,-3.531444
1000.492188,-8.234176,-1.843454,0.565217,-14.657786
1000.496094,2.537809,-0.581588,-6.143529,-1.219381
1000.500000,0.131266,-1.494082,-7.687474,-3.251217
1000.503906,4.921505,7.791262,7.872573,2.595420
1000.507812,3.226726,-1.456157,7.029858,7.564239
1000.511719,11.819323,12.158380,4.665801,9.684335
1000.515625,7.332630,13.243128,8.256131,9.236572
1000.519531,5.382151,4.126325,7.397655,10.296994
1000.523438,10.912669,9.582822,7.387701,16.939770
1000.527344,12.565718,15.719239,9.018919,10.163865
1000.531250,5.256602,17.799881,9.068346,9.526490
1000.535156,4.225602,9.444766,14.193955,9.021870
1000.539062,-4.374451,2.768779,-3.631378,9.131947
1000.542969,1.647107,2.522554,2.288912,4.512930
1000.546875,6.191120,1.282726,4.173576,4.677617
1000.550781,-1.072739,-6.341968,6.268690,-1.579619
1000.554688,-0.525912,-2.902170,-4.259488,-8.152610
1000.558594,-12.416382,-4.721269,5.404474,-0.755056
1000.562500,-8.918109,-1.308796,-4.968953,-1.458744
1000.566406,-6.290744,-8.642747,-1.140874,-13.615830
1000.570312,-14.218620,-13.074596,-9.968773,-5.568986
1000.574219,-13.604770,-19.206459,-14.369093,-7.939464
1000.578125,-5.568723,-10.950237,-14.686068,-21.830883
1000.582031,-10.017369,-3.533370,-7.721377,-10.471269
1000.585938,-13.828366,-12.951964,-7.464603,-6.385533
1000.589844,-3.350023,1.714277,-5.253125,-14.696340
1000.593750,-1.882865,-3.097934,-0.317480,-6.004894
1000.597656,5.941733,0.551981,2.928635,-1.509801
1000.601562,-0.062219,-2.343662,4.549259,2.210846
1000.605469,1.277069,9.511485,-3.599558,5.882837
1000.609375,5.453368,7.171266,11.800883,2.745329
1000.613281,10.087960,7.969590,14.616576,1.609333
1000.617188,-1.034687,14.597026,7.522743,13.318457
1000.621094,14.290402,8.556885,9.414526,0.430900
1000.625000,1.459339,9.641966,11.882132,11.061360
1000.628906,16.007087,9.201913,11.656118,15.296953
1000.632812,12.586988,10.910086,7.521163,11.384999
1000.636719,1.280832,0.285557,8.633892,7.660604
1000.640625,7.937483,3.391395,5.018794,13.177707
1000.644531,2.734020,0.343794,0.640035,-3.654120
1000.648438,-2.174707,-0.821729,-3.728068,-7.307502
1000.652344,7.017791,-0.081753,7.488815,-4.367349
1000.656250,-3.660810,-3.588471,-4.737546,0.836855
1000.660156,-2.254033,-10.934126,-4.730644,-9.991198
1000.664062,-6.857869,-11.817146,-5.402639,-7.200213
1000.667969,-11.294111,-11.435225,-8.899315,-9.257257
1000.671875,-4.555207,-9.433104,-15.576361,-18.067548
1000.675781,-6.007119,-7.403133,-9.922365,-5.510618
1000.679688,-3.544808,-13.120825,-10.512858,-9.289449
1000.683594,-8.514950,-7.867686,-10.768510,-4.350237
1000.687500,-3.342584,-12.281748,-13.571149,-5.592440
1000.691406,-6.378509,-3.867175,-10.693447,-4.670733
1000.695312,-5.637236,-1.915329,-6.143882,-1.833881
1000.699219,-0.822633,-7.211037,-10.305669,-0.659586
1000.703125,6.792577,4.532667,3.109248,4.087651
1000.707031,2.594322,8.169920,3.705840,4.544646
1000.710938,7.480796,12.564753,8.385915,1.997698
1000.714844,16.806198,9.304350,0.606689,9.504020
1000.718750,8.153996,14.694932,10.092275,9.790041
1000.722656,4.737366,7.585435,11.584123,0.758799
1000.726562,10.818365,10.988853,12.981542,11.436092
1000.730469,14.386937,11.982379,4.589729,13.382090
1000.734375,10.052697,7.785253,10.805638,10.677604
1000.738281,6.762648,16.119936,13.804233,2.716524
1000.742188,4.537790,4.172288,-1.978735,9.600586
1000.746094,-0.013260,-4.118926,1.174990,10.142869
1000.750000,2.037602,-5.310300,-1.836061,5.238345
1000.753906,-9.844474,-6.741718,-1.626437,-8.081723
1000.757812,-2.660025,-5.612977,-6.732318,5.141589
1000.761719,-5.757243,-12.443902,-0.830710,-18.837072
1000.765625,-7.862829,-3.753206,-2.067613,-9.488851
1000.769531,-10.908847,-14.410014,-7.267361,-10.026749
1000.773438,-18.271307,-2.468085,-10.764711,-3.028371
1000.777344,-15.202398,-10.203214,-6.973087,-2.532265
1000.781250,-13.687361,-9.583018,-9.056308,-10.773615
1000.785156,-9.598189,-7.818477,-8.917608,-2.200875
1000.789062,1.753757,-2.775679,-5.863566,-7.104914
1000.792969,-10.485573,-0.868231,-3.391841,-2.483327
1000.796875,4.247559,-3.793183,5.151315,-13.479995
1000.800781,7.285670,-4.585349,4.652709,2.022771
1000.804688,13.722362,6.017111,5.887267,-1.005961
1000.808594,8.527280,9.204250,7.897760,7.748944
1000.812500,2.947812,4.812989,9.404149,7.788832
1000.816406,3.879456,-0.110459,17.869998,9.821403
1000.820312,5.989067,11.571163,15.654496,12.665458
1000.824219,9.022777,9.468040,5.859500,10.286224
1000.828125,13.358143,10.547662,7.527738,13.911423
1000.832031,6.412582,10.710425,20.578990,10.160801
1000.835938,5.638866,6.524936,12.416865,5.192022
1000.839844,8.440841,3.803493,-0.860070,0.658865
1000.843750,-0.196273,-3.478776,4.736314,2.268072
1000.847656,2.952806,4.665344,6.433763,5.418941
1000.851562,-1.173050,-7.043219,-2.684828,2.728888
1000.855469,4.133823,-4.094990,0.361044,0.121083
1000.859375,-9.617538,-3.757429,-5.692103,-16.494712
1000.863281,-6.743130,-8.848870,-1.333589,-6.835045
1000.867188,-3.816607,-8.682062,-11.914769,-10.718970
1000.871094,-14.916790,-2.033632,-8.417660,-13.142886
1000.875000,-14.600717,-9.459519,-17.836135,-11.080448
1000.878906,-11.878722,3.849981,-2.181083,-11.590258
1000.882812,-3.960817,-5.399959,-5.036821,-7.701134
1000.886719,-15.974750,-3.852698,-9.251281,-6.624456
1000.890625,-5.158508,2.036316,0.295812,-7.982260
1000.894531,7.189914,-3.300633,2.161442,-12.169593
1000.898438,6.497170,-10.077437,0.058863,-3.434975
1000.902344,5.088622,2.827074,-0.706317,6.467578
1000.906250,11.852187,5.246320,1.000300,-0.381473
1000.910156,6.239738,4.776301,9.675024,-1.801261
1000.914062,7.583340,6.242388,1.145136,8.082815
1000.917969,11.517439,15.443638,16.099812,5.771259
1000.921875,8.193398,12.335634,17.397550,8.355181
1000.925781,7.282395,6.009885,5.894936,12.876321
1000.929688,6.295737,13.445511,10.134012,12.036463
1000.933594,13.125674,10.602134,6.664993,4.792997
1000.937500,7.192788,7.739515,8.171217,5.307804
1000.941406,4.425755,3.344856,4.162317,12.949655
1000.945312,3.070317,-4.215546,0.191823,-2.800096
1000.949219,-2.441952,4.884969,-3.257515,-1.916227
1000.953125,-0.971531,-13.551441,3.032944,-5.023598
1000.957031,-8.959369,-2.619906,-0.931692,-8.048197
1000.960938,-11.034543,-10.317249,-9.880325,0.775626
1000.964844,-2.149460,-4.041514,0.042983,-5.002114
1000.968750,-7.044374,-13.373757,-13.576068,-9.546968
1000.972656,-14.817295,-18.214562,-11.828864,-12.133117
1000.976562,-6.564805,-9.770925,-12.157076,-12.341476
1000.980469,-5.699408,-11.526617,-6.696788,-2.034569
1000.984375,-6.788533,-7.295853,-2.701070,-3.388663
1000.988281,-12.913575,-5.932096,-6.889475,-5.760908
1000.992188,-2.423527,-1.333830,-1.815054,0.672083
1000.996094,-5.315854,-2.560727,-1.383506,-6.661303
1001.000000,-2.466210,0.026532,3.149951,3.873053
1001.003906,-6.183588,13.153766,0.518126,8.491373
1001.007812,7.981400,-3.731385,-2.846168,9.884405
1001.011719,8.692429,8.526856,12.786505,11.301913
1001.015625,11.950163,14.032514,-1.127539,8.374758
1001.019531,9.858096,18.858769,8.813433,9.410667
1001.023438,16.626202,10.951928,16.080311,15.303103
1001.027344,16.260939,15.317000,13.446318,6.689302
1001.031250,2.531655,3.686245,6.287458,9.934642
1001.035156,6.838543,8.792912,7.685477,2.806488
1001.039062,5.124801,10.090804,8.178939,-0.391828
1001.042969,0.260516,7.274968,3.236851,11.040716
1001.046875,3.035715,0.747637,-3.403622,0.588667
1001.050781,-1.414294,-1.978198,-2.719596,2.065455
1001.054688,-6.024524,0.144001,0.780890,-2.111171
1001.058594,-5.682013,-2.205860,-3.896388,-5.988204
1001.062500,-10.763412,-6.722339,-3.617391,-11.733611
1001.066406,-3.400897,-5.469633,-9.441083,-7.695511
1001.070312,-11.963180,-8.878729,-7.517789,-9.874712
1001.074219,-13.524238,-14.413389,-9.626253,-10.626589
1001.078125,-13.965374,-9.391060,-7.010828,-12.950778
1001.082031,-11.029884,-11.291352,-15.284425,-7.709424
1001.085938,-8.657119,-8.615314,-8.715242,-8.390152
1001.089844,-10.093866,-7.639044,-1.734054,-5.993877
1001.093750,-7.115526,-4.103695,-10.255853,-9.847366
1001.097656,-3.953796,-7.985260,-10.209467,0.877839
1001.101562,-0.393954,0.985880,2.214074,3.686227
1001.105469,3.316108,6.292833,8.969294,6.225487
1001.109375,-0.229137,10.295580,9.290405,1.676687
1001.113281,16.659844,10.932290,6.592843,4.946669
1001.117188,-2.136635,6.297309,17.907174,7.918608
1001.121094,15.099302,5.912113,9.641232,10.537186
1001.125000,15.169538,8.141227,8.988751,8.813403
1001.128906,13.343760,3.845448,6.617069,9.914929
1001.132812,14.418867,16.973811,7.468335,7.670297
1001.136719,3.400835,1.318564,4.468978,7.243420
1001.140625,-2.025822,4.231690,6.337700,5.122662
1001.144531,9.735626,4.788245,9.704109,0.201457
1001.148438,-2.113790,10.630935,-0.295816,-0.360259
1001.152344,3.504088,-6.697693,-0.127576,4.195222
1001.156250,-1.781487,-4.758452,-3.730935,-0.623772
1001.160156,-12.020278,-10.171972,-3.795432,-9.599709
1001.164062,-14.475776,-12.552385,-6.430550,-4.396060
1001.167969,-12.161741,-14.537869,-12.169572,-8.031973
1001.171875,-8.967265,-4.197972,-9.733842,-8.436020
1001.175781,-5.542807,-5.792731,-9.505428,-8.492234
1001.179688,-5.680949,-8.732702,-9.094107,-4.142116
1001.183594,-0.258122,-6.833183,-9.433235,-12.004955
1001.187500,-10.635547,-8.359327,-0.846290,-11.279127
1001.191406,-1.257230,-8.735706,-5.100637,-3.801063
1001.195312,-6.759245,-7.095964,0.043733,1.409990
1001.199219,-1.679270,-4.041739,0.884689,-1.549505
1001.203125,0.191147,-1.328884,-1.066263,1.867620
1001.207031,3.984551,2.793623,9.802498,6.808194
1001.210938,7.347214,8.884357,8.307911,11.030431
1001.214844,18.639495,6.480304,9.622646,8.504031
1001.218750,11.313723,11.131731,6.871610,0.261992
1001.222656,11.467520,16.241175,13.043716,10.793754
1001.226562,14.292317,9.957076,5.742815,3.464784
1001.230469,8.489669,4.505038,7.073196,9.779072
1001.234375,5.909359,3.186762,4.689252,9.252633
1001.238281,4.562670,0.978165,3.956872,10.296382
1001.242188,1.962755,5.772768,5.961545,2.778774
1001.246094,2.781071,1.516462,2.329068,6.266080
1001.250000,4.146622,-0.360288,-0.887461,-4.344679
1001.253906,-1.630901,2.981181,-6.605019,-5.437775
1001.257812,-8.927320,-8.803673,-7.482203,-4.758151
1001.261719,-6.518485,-0.857337,-14.101226,-5.113416
1001.265625,-8.786645,-8.204570,-3.262087,-14.522590
1001.269531,-19.476211,-8.711746,-16.897121,-11.632818
1001.273438,-7.545558,-9.267925,-8.385286,-8.380570
1001.277344,-6.148272,-9.095752,-4.950242,-9.736791
1001.281250,-11.331468,-9.375497,-11.216296,-1.385227
1001.285156,-1.980193,-7.560937,-16.357231,-9.786970
1001.289062,-3.244078,2.213992,-5.777660,-4.483843
1001.292969,-10.106916,-3.992212,3.024957,0.220883
1001.296875,0.224353,1.884481,-5.672860,-7.109517
1001.300781,-1.028475,-2.535681,-4.924110,-0.474882
1001.304688,0.865330,-4.472823,1.068314,2.152960
1001.308594,5.196150,7.028763,6.348827,1.920985
1001.312500,9.660045,16.990979,15.279125,7.350124
1001.316406,14.344203,11.090580,13.201790,11.548688
1001.320312,7.978394,12.680874,13.245622,8.804160
1001.324219,12.473631,11.066610,8.829547,10.748137
1001.328125,3.532132,10.875731,13.191435,12.718592
1001.332031,4.337123,7.734831,13.463476,8.994992
1001.335938,3.929180,7.201035,2.702034,7.408687
1001.339844,4.233508,16.642424,6.848491,5.649475
1001.343750,-0.828061,4.798523,3.128805,2.192850
1001.347656,0.172690,4.718690,2.266507,-3.450778
1001.351562,1.217704,-6.036555,3.544462,-5.834089
1001.355469,-6.975180,-3.933208,-9.524454,-6.576250
1001.359375,-10.208304,0.236843,-2.739022,-8.562012
1001.363281,-5.632063,-10.710793,-6.213270,-3.630844
1001.367188,-6.562506,-5.138424,-7.892637,-9.193653
1001.371094,-14.273540,-2.158899,-9.337740,-19.135041
1001.375000,-2.375130,-17.183743,-12.384034,-11.073721
1001.378906,-4.048915,-12.232260,-9.648817,-11.848764
1001.382812,-6.799450,-15.755815,-10.880204,1.088785
1001.386719,-10.578200,-8.760415,-15.133794,-12.087203
1001.390625,-4.609830,-5.078933,-12.336571,-10.888791
1001.394531,-4.624205,0.714310,-10.837100,-5.449925
1001.398438,3.405149,-5.598575,5.423988,1.219189
1001.402344,4.851766,1.437502,2.388558,-0.342458
1001.406250,5.211485,1.018990,-3.661573,-0.163285
1001.410156,15.070575,-2.174858,5.308943,8.060507
1001.414062,9.333376,11.722772,9.418018,2.620021
1001.417969,7.679901,10.153898,11.533313,11.493489
1001.421875,4.483815,16.165589,11.008618,12.995129
1001.425781,13.447880,12.090221,7.243978,16.017114
1001.429688,5.384067,1.752069,11.720636,13.586474
1001.433594,6.529238,7.635112,4.257050,14.884226
1001.437500,6.052483,6.529946,9.153224,6.749042
1001.441406,6.764171,10.347174,8.709713,2.256489
1001.445312,2.062559,-3.010685,5.023771,4.350172
1001.449219,-7.617492,2.280112,0.106257,4.836922
1001.453125,0.075217,2.189509,1.489664,-6.123359
1001.457031,-0.153185,-4.431248,-5.151557,-2.667887
1001.460938,-3.897600,-6.868063,-9.921024,-11.162786
1001.464844,-15.238051,-0.863616,-3.933599,-6.802468
1001.468750,-13.485028,-7.520389,-7.120241,-5.038101
1001.472656,-3.323949,-9.417407,-9.139916,-10.135783
1001.476562,-8.503589,-7.041095,-14.141631,-7.209908
1001.480469,-6.092222,-15.047943,-7.451133,-5.273671
1001.484375,-4.283699,-9.604256,-7.442328,-6.673881
1001.488281,-10.855286,-4.315277,-18.128959,-11.520561
1001.492188,-1.653207,-12.655374,-1.495851,-5.594998
1001.496094,-2.149816,4.607069,-2.802780,-8.713545
1001.500000,2.004709,-3.173283,1.971599,-5.231501
1001.503906,-2.706193,1.966872,8.213117,-2.225721
1001.507812,6.536210,7.006931,10.024222,7.368925
1001.511719,9.465299,2.333630,6.975205,7.686152
1001.515625,7.661873,8.699163,8.684185,12.018144
1001.519531,5.486589,5.458228,15.709961,5.345163
1001.523438,7.138527,12.393031,8.938237,14.247582
1001.527344,10.449985,15.880395,16.867670,12.960552
1001.531250,13.859997,16.479813,4.187901,14.425794
1001.535156,5.095279,6.964586,5.661667,11.975367
1001.539062,8.886915,2.516841,11.168205,1.049665
1001.542969,4.738657,4.867584,3.294545,4.821494
1001.546875,3.619316,3.483408,0.415359,-1.236736
1001.550781,2.405629,3.967335,-4.256780,-0.141448
1001.554688,0.587621,-2.958592,-2.085418,-3.014883
1001.558594,-9.779539,-4.424367,-10.138748,-5.399867
1001.562500,-14.820759,-2.859699,-7.308309,-13.092891
1001.566406,-11.150842,-1.532648,-14.627576,-13.934134
1001.570312,-5.735142,-8.802182,-12.345437,-15.493240
1001.574219,-9.883614,-5.172724,-12.406984,-9.346530
1001.578125,-7.365175,-7.326644,-4.513005,-8.969892
1001.582031,-7.016326,-11.201007,-14.318818,-3.393592
1001.585938,-9.857836,-5.786483,-9.846411,-4.487247
1001.589844,-7.802938,1.093624,-4.241418,-11.248086
1001.593750,0.996080,-3.155777,-5.320563,-0.371282
1001.597656,-3.729184,-1.476391,-4.666271,1.581432
1001.601562,1.712216,1.858644,10.287696,4.185636
1001.605469,0.447298,1.525190,1.740352,2.210614
1001.609375,-1.071973,9.718695,4.345403,3.174486
1001.613281,5.344766,17.587436,2.625909,9.370024
1001.617188,12.452632,7.298189,-2.959180,10.145498
1001.621094,5.058495,10.910718,6.792489,6.241878
1001.625000,6.168104,14.217473,11.081277,7.450171
1001.628906,3.375685,8.313849,6.038244,4.693812
1001.632812,12.670836,7.472322,10.356774,4.450306
1001.636719,18.007848,8.725106,6.722015,9.091100
1001.640625,3.001295,-0.298545,3.228350,4.392848
1001.644531,3.715716,3.993300,6.303162,-2.196746
1001.648438,5.684349,3.827992,-1.538298,2.713413
1001.652344,8.730715,-3.619903,-4.174903,0.148083
1001.656250,-8.201991,-6.443015,-5.540220,-6.026347
1001.660156,-0.276333,-9.648770,-6.218215,-4.207653
1001.664062,-18.968502,-8.853212,-8.309041,-10.037147
1001.667969,-7.784220,-12.209619,-7.441507,-7.957502
1001.671875,-10.989606,-4.162912,-10.895401,-7.740994
1001.675781,-8.314820,-11.532758,-11.090001,-11.148813
1001.679688,-12.313350,-11.377290,-6.148143,-13.946129
1001.683594,-7.924509,-9.347179,-7.938885,-2.467895
1001.687500,-9.584284,-7.008213,-8.504277,-6.893948
1001.691406,-1.363202,-2.595469,-7.448178,-5.187977
1001.695312,-1.577976,-0.788027,-3.800748,0.120729
1001.699219,-2.819394,1.359764,-0.656246,4.750253
1001.703125,0.819106,-3.655987,0.503461,2.830181
1001.707031,2.214189,4.829755,12.016735,7.934561
1001.710938,1.750343,5.215912,13.060172,3.951502
1001.714844,5.364432,10.867206,8.288074,14.004147
1001.718750,11.515255,9.503547,9.314809,10.960379
1001.722656,10.459075,11.767147,0.137939,2.411499
1001.726562,7.792812,9.811728,12.472852,15.092379
1001.730469,5.919513,12.309019,8.915112,8.179633
1001.734375,10.196441,12.140472,8.172515,7.990002
1001.738281,5.941003,8.378753,3.691178,0.766193
1001.742188,10.165058,1.758230,-3.793814,5.398797
1001.746094,-1.189553,-0.149330,6.327634,-0.704305
1001.750000,-0.735253,1.031570,0.707146,0.529313
1001.753906,-0.147340,-1.340371,-8.709768,-3.107597
1001.757812,-0.609128,-6.495720,0.358240,-2.103766
1001.761719,-6.997785,-6.328148,-2.705411,-8.322349
1001.765625,-5.469715,-4.772504,-6.477181,0.233667
1001.769531,-10.930958,-16.069506,-8.125239,-9.768554
1001.773438,-1.779557,-9.381831,-10.413258,-8.676401
1001.777344,-15.700402,-5.367723,-3.255417,-14.022087
1001.781250,-3.037469,-7.551870,-2.566504,-16.127716
1001.785156,-6.466219,-8.963336,-0.870098,-0.413616
1001.789062,-5.735851,-9.308093,-6.722465,-9.302962
1001.792969,-6.362923,-6.636420,-4.768796,-0.256170
1001.796875,-2.378281,2.628372,-7.687538,-0.016116
1001.800781,2.443691,-4.558088,4.721363,-0.265329
1001.804688,-3.890095,-8.522595,-1.544546,2.966674
1001.808594,5.776451,-1.406871,2.726643,3.446827
1001.812500,12.609218,1.030797,7.592859,7.388396
1001.816406,11.323866,13.502576,6.841665,10.856440
1001.820312,3.622418,17.698703,20.772663,12.831683
1001.824219,13.403253,7.886895,2.630753,14.518738
1001.828125,14.494391,14.422751,9.545084,15.085092
1001.832031,12.026456,12.995915,9.127156,4.402400
1001.835938,7.144976,11.354122,8.472775,11.679351
1001.839844,6.825061,3.365266,6.222481,0.059210
1001.843750,-0.562103,9.476814,8.360785,-0.281770
1001.847656,1.375994,-5.189710,-0.124479,3.661805
1001.851562,8.737020,6.132238,4.624880,-0.320611
1001.855469,-0.167324,-4.515578,-3.342092,-5.787064
1001.859375,-8.300088,0.770066,-6.481325,-8.245035
1001.863281,-12.456302,-9.581262,-9.230704,-2.996779
1001.867188,-7.606774,-3.945150,-7.579796,-9.283438
1001.871094,-9.368366,-4.915064,-1.285035,-7.888387
1001.875000,-12.862868,-7.963271,-3.224310,-12.386629
1001.878906,-9.093664,-9.369467,-5.820138,-14.691866
1001.882812,-7.145407,-10.639642,-3.446961,-14.436578
1001.886719,4.104696,-13.859635,-6.205989,6.335652
1001.890625,-3.278775,-3.401141,-11.026309,-0.203005
1001.894531,-3.975527,-2.685033,0.110439,-1.703656
1001.898438,-0.744322,6.778426,-6.896333,-1.390703
1001.902344,4.494302,2.019255,-0.735148,-0.491836
1001.906250,9.440940,8.913302,2.673349,8.816005
1001.910156,7.609166,6.319040,6.011017,6.519503
1001.914062,5.547711,7.475273,7.466441,8.337368
1001.917969,11.736243,6.751504,9.624438,5.432975
1001.921875,15.168801,10.153503,6.465916,12.478263
1001.925781,8.291229,13.926080,11.947528,9.918664
1001.929688,11.298159,17.931119,13.478157,6.004149
1001.933594,-2.337170,9.379318,15.760065,16.227994
1001.937500,10.336517,-4.465656,-2.416667,5.119677
1001.941406,3.699226,3.643227,8.870460,6.670554
1001.945312,3.824015,1.778197,1.486201,-1.542230
1001.949219,2.671085,2.801833,-2.616699,7.332059
1001.953125,5.510629,0.179121,1.080966,-4.830838
1001.957031,-2.433546,-2.962618,-6.622715,-0.871238
1001.960938,-8.375926,-7.396190,-6.725815,-3.018198
1001.964844,-12.162191,-8.139167,-3.465502,-15.555109
1001.968750,-18.595399,-3.376488,-13.877323,-8.513806
1001.972656,-9.668405,-2.960727,-6.956756,-11.257426
1001.976562,-16.292995,-6.758891,-10.708694,-9.555551
1001.980469,-4.810222,-13.714514,-3.292961,-14.118337
1001.984375,-13.220532,-12.565544,-5.274805,-4.054721
1001.988281,-12.272370,-1.671721,-4.027026,-5.670114
1001.992188,-7.382573,-7.908070,-4.702341,-5.926802
1001.996094,-3.301903,1.431597,-2.156258,4.423470
1002.000000,-5.937164,-1.183846,-1.685715,-11.690933
1002.003906,-2.236254,2.584342,-1.164997,2.141271
1002.007812,-0.801727,7.878326,7.439986,-2.352524
1002.011719,4.276628,8.508417,13.487803,-1.462076
1002.015625,9.415278,15.388452,9.771021,10.714176
1002.019531,16.135364,22.002276,14.067058,10.611976
1002.023438,12.159670,11.672812,8.034806,9.516151
1002.027344,12.684905,11.050822,9.519593,16.254116
1002.031250,6.068633,9.969934,8.563324,10.745266
1002.035156,2.203084,-0.657326,9.110120,5.236938
1002.039062,13.917777,5.969554,0.440812,5.737607
1002.042969,8.984299,-1.750737,5.074360,9.624794
1002.046875,-1.703753,2.967125,-4.956540,3.037316
1002.050781,-3.737518,-6.359998,-0.611820,9.503516
1002.054688,-1.480157,2.114132,-6.658756,-1.473699
1002.058594,-4.536836,-16.501631,-4.680391,-4.815406
1002.062500,-11.468374,0.699816,-3.403110,-14.704377
1002.066406,-8.034434,-1.015517,-6.342074,-9.811269
1002.070312,-11.246759,-8.113808,-12.334150,-11.785003
1002.074219,-3.004418,-19.450686,-11.550113,-1.296904
1002.078125,-13.241342,-13.670346,-9.173834,-10.553509
1002.082031,-5.382721,-8.266053,-5.018003,-9.405748
1002.085938,-15.415514,-9.075147,-0.776972,-5.574535
1002.089844,-6.275343,-4.074978,-5.997102,-1.754976
1002.093750,-1.317924,-2.556024,0.954359,2.656665
1002.097656,0.315016,-3.696202,-5.563464,-0.126503
1002.101562,2.040386,-1.069965,6.555172,7.150456
1002.105469,7.813672,7.745301,-3.262734,8.228318
1002.109375,-0.092072,9.177733,-0.520488,1.986343
1002.113281,8.681223,3.316137,6.285385,10.170083
1002.117188,11.427437,7.293925,11.760367,5.129247
1002.121094,9.021068,5.380716,13.650774,10.043631
1002.125000,6.287721,16.085423,6.690074,5.166542
1002.128906,7.821649,12.482008,8.249164,13.703886
1002.132812,4.326625,12.020694,10.868869,6.682466
1002.136719,10.426312,2.161264,10.616143,8.269982
1002.140625,5.033136,-2.361344,4.025884,0.879460
1002.144531,9.525226,-0.152745,8.007355,5.846360
1002.148438,-2.164742,8.185570,3.676121,4.483715
1002.152344,-2.479475,6.645708,4.641976,2.451213
1002.156250,-4.308522,-4.388733,-6.491231,-3.134309
1002.160156,-12.683561,-2.858153,-16.673225,-2.481307
1002.164062,-11.290075,-8.969176,-5.161478,-13.872759
1002.167969,-9.463434,-11.938049,-7.343905,-6.257640
1002.171875,-11.741136,-4.270640,-6.771374,-6.720817
1002.175781,-13.820993,-6.208802,-10.344070,-8.528853
1002.179688,1.002894,-9.069148,-13.883569,-7.418346
1002.183594,-4.958710,-10.717899,-7.125653,-7.418427
1002.187500,-11.392586,-2.655737,-13.355812,-5.524813
1002.191406,-8.219089,-2.750687,0.632745,-1.400020
1002.195312,-2.741149,-5.324886,-0.212122,-4.649129
1002.199219,-2.389418,-4.670006,3.877218,-0.378035
1002.203125,-9.601515,-0.620963,5.346488,-2.066512
1002.207031,12.234867,6.339752,0.948800,2.431069
1002.210938,7.339634,4.567919,8.508931,8.761607
1002.214844,3.504703,11.047490,6.672719,13.915707
1002.218750,-0.449904,10.853578,10.337504,11.914047
1002.222656,13.175378,4.078870,12.141688,19.771400
1002.226562,10.659296,6.717388,11.227058,12.661462
1002.230469,13.532983,8.574140,3.325457,19.412173
1002.234375,1.621672,9.214144,5.964437,7.117342
1002.238281,5.928510,7.091901,6.381629,12.725419
1002.242188,2.342427,-7.736943,7.629158,7.827078
1002.246094,1.261412,6.988284,4.829543,3.170368
1002.250000,2.579827,6.118027,0.367317,3.846075
1002.253906,-3.907247,-2.817389,-4.428101,0.308237
1002.257812,-9.220268,-5.944167,-7.445681,-2.179362
1002.261719,-4.336249,-5.339759,-3.204403,-7.590844
1002.265625,-11.875869,-16.098193,-6.601372,-11.587348
1002.269531,-16.371820,-11.425406,-19.719995,-7.103794
1002.273438,-11.026942,-8.978447,-10.167585,-11.837760
1002.277344,-4.065950,-3.177250,-6.528732,-11.618211
1002.281250,-6.220262,-10.143131,-5.360976,-0.170165
1002.285156,-5.619044,-10.685052,-5.807005,-10.508922
1002.289062,-13.979604,-8.055380,-4.694209,-11.599522
1002.292969,-3.362956,-4.859930,-5.617174,-2.068682
1002.296875,0.177026,4.276736,-7.320835,-3.322493
1002.300781,-0.052497,-0.437522,1.212090,-1.194143
1002.304688,-0.270330,5.787156,-0.723629,3.225770
1002.308594,6.587224,7.784269,4.923310,1.392165
1002.312500,4.695615,5.762380,6.602567,3.197072
1002.316406,7.484549,14.909470,5.003669,7.568656
1002.320312,14.959115,9.633539,12.117651,3.460143
1002.324219,9.113150,9.682996,7.471740,5.512387
1002.328125,2.802414,4.147336,11.238570,10.721888
1002.332031,0.343776,13.428770,14.136286,12.246832
1002.335938,9.511380,8.751123,10.584864,11.347314
1002.339844,4.368607,6.741022,4.891999,5.410486
1002.343750,3.182854,8.700472,8.690043,7.314614
1002.347656,-5.959947,-0.278211,1.455745,0.411475
1002.351562,3.068363,-5.761123,0.647623,0.583109
1002.355469,-4.977735,0.124025,-3.005419,-1.522634
1002.359375,-5.016429,4.267616,-3.876718,-6.053565
1002.363281,-7.511635,-10.849027,-10.713073,-10.311496
1002.367188,-7.817346,-8.917070,-7.522780,-4.176303
1002.371094,-14.703648,-4.517012,-7.636499,-11.081879
1002.375000,-14.283812,-8.185909,-5.217065,-0.646828
1002.378906,-7.290243,-11.706828,-2.819597,-15.047354
1002.382812,-4.155164,-3.865727,-9.322454,-11.152309
1002.386719,1.504088,0.058215,-13.267575,-6.597243
1002.390625,-6.776125,-4.413774,-0.825168,-8.592235
1002.394531,-8.192101,-0.844593,-3.829491,-7.118254
1002.398438,-3.943641,-1.419017,-7.199667,-0.582761
1002.402344,2.546684,-8.041865,0.991013,3.809978
1002.406250,0.540833,3.948610,-3.767491,4.246740
1002.410156,4.887381,7.660195,4.224224,5.139406
1002.414062,10.810251,10.466952,3.876829,3.078276
1002.417969,0.273569,13.254904,9.607128,12.003095
1002.421875,11.901789,8.084789,11.344101,15.816123
1002.425781,11.606627,5.321250,6.712800,7.031630
1002.429688,17.549836,4.016599,17.499396,12.780456
1002.433594,4.171676,10.575641,5.720535,11.988570
1002.437500,1.796989,2.875770,7.679759,7.187173
1002.441406,3.640511,6.686995,7.314782,7.470944
1002.445312,9.961620,0.649260,10.857069,1.503269
1002.449219,-0.521931,10.634404,-2.801941,-8.040581
1002.453125,0.705526,3.752285,-4.432331,-6.076403
1002.457031,-6.863463,-5.472229,-2.195649,-7.569326
1002.460938,-2.699510,-6.995895,-5.885998,2.150445
1002.464844,-5.121121,-8.830929,-21.642059,-7.923158
1002.468750,-8.182816,-8.587516,-10.975508,-8.941117
1002.472656,-7.877553,-18.629375,-7.390828,-8.257941
1002.476562,-10.644653,-9.177673,-3.871294,-12.001892
1002.480469,-8.428200,-1.351238,-2.081126,-5.598796
1002.484375,-0.638471,-3.359322,-9.931819,-10.492253
1002.488281,-9.422449,0.896163,-8.488730,-9.947600
1002.492188,-8.114642,-9.284212,-11.422797,-2.260045
1002.496094,5.787780,-4.826005,-5.784847,-5.445076
1002.500000,-5.845157,-0.635075,1.824321,-4.866150
1002.503906,2.971559,6.071161,7.523169,3.523117
1002.507812,2.788463,14.078941,4.470999,5.512442
1002.511719,7.391410,7.622100,17.353235,5.416068
1002.515625,16.001880,3.989510,10.853165,17.093285
1002.519531,5.845150,9.900507,12.614897,11.904648
1002.523438,18.360557,10.772790,8.071870,12.437618
1002.527344,10.274018,10.776606,11.099098,7.453309
1002.531250,6.811362,4.640039,13.088950,7.720275
1002.535156,9.025493,14.533840,10.481471,7.870417
1002.539062,3.804891,-4.663365,4.162164,-1.566199
1002.542969,6.297747,8.600609,4.780415,4.912115
1002.546875,-6.919938,-0.509951,4.882650,-5.794149
1002.550781,-7.563606,-4.521690,4.105985,1.662821
1002.554688,-6.339913,-2.188980,-5.262992,-1.750593
1002.558594,-7.123971,-9.353603,-1.989424,-4.139974
1002.562500,-1.959884,-13.160421,-7.658538,-1.991711
1002.566406,-2.850794,-7.421220,-9.497042,-10.949317
1002.570312,-5.784765,-13.941052,-1.323444,-15.534941
1002.574219,-4.601123,-8.771112,-16.057665,-10.882685
1002.578125,-13.520155,-10.376017,-6.189677,-1.210514
1002.582031,-7.874413,-3.923799,-14.457394,-14.917992
1002.585938,-12.940100,-16.818662,-10.206762,-6.172559
1002.589844,-5.748930,-7.473930,-5.579291,4.062785
1002.593750,-5.438617,-0.256347,-9.090281,3.980844
1002.597656,-1.407066,-1.711103,-2.557219,-2.203865
1002.601562,1.565070,9.239366,9.312427,2.529520
1002.605469,4.634092,0.476810,8.009246,11.148603
1002.609375,5.267281,9.729105,8.521803,6.233413
1002.613281,5.575913,-0.177232,5.591837,11.302802
1002.617188,11.738464,9.848435,13.525015,7.522314
1002.621094,13.752884,16.559185,6.341416,12.156724
1002.625000,4.665089,13.210035,3.113021,7.168866
1002.628906,8.989955,6.233730,11.450028,0.350342
1002.632812,5.497391,7.924525,9.534127,4.548272
1002.636719,5.805677,11.855238,12.994483,8.244415
1002.640625,-0.011424,9.534399,11.304858,-0.580545
1002.644531,-4.782315,5.882382,11.494203,5.193667
1002.648438,2.817112,4.825755,-5.396836,-2.570644
1002.652344,-4.317982,2.645471,-1.424534,-5.563245
1002.656250,-1.532797,-7.472637,-1.857198,-3.945685
1002.660156,-6.593768,-6.971774,0.448503,-13.291195
1002.664062,-7.689887,-6.380313,-0.400493,-7.955618
1002.667969,-9.514788,-12.856697,-12.923175,-12.649279
1002.671875,-7.721287,-11.930557,2.739878,-9.114792
1002.675781,-11.973967,-16.299875,-13.324827,-10.946197
1002.679688,-12.574348,-11.778737,-13.087237,-11.981728
1002.683594,-10.119942,-9.706917,-11.048514,-9.146613
1002.687500,-2.454132,-3.088471,-6.567522,-8.538123
1002.691406,-2.888891,-1.265396,-8.675256,-9.187023
1002.695312,-1.737980,-11.014182,-5.550509,-3.221132
1002.699219,3.776599,-8.566249,-0.784884,-6.468242
1002.703125,4.966260,5.213733,1.538829,0.358746
1002.707031,9.827272,-0.715300,4.234785,3.984680
1002.710938,-1.253584,6.997557,2.063457,8.938088
1002.714844,5.902436,13.981920,8.135150,5.692435
1002.718750,9.833176,5.518162,8.215181,12.187090
1002.722656,13.584500,7.166688,22.460635,7.101029
1002.726562,15.255389,15.370127,6.979895,14.682428
1002.730469,11.014859,9.114355,8.307237,8.837209
1002.734375,12.106082,6.917136,7.913735,6.386668
1002.738281,9.557080,15.076709,5.357151,3.178128
1002.742188,-3.667635,2.936032,6.150472,1.934814
1002.746094,-5.407948,1.407437,1.916009,8.386258
1002.750000,1.436428,-4.733107,-3.806434,-8.347801
1002.753906,4.497462,0.168620,-1.458249,-7.355987
1002.757812,-5.531000,-2.196008,-7.138315,-6.539005
1002.761719,-2.379513,-7.346352,-2.466375,-10.157461
1002.765625,-15.484546,-4.183806,-10.180679,-17.796922
1002.769531,-10.357027,-0.840267,-6.185699,-11.686384
1002.773438,-8.327381,-10.314491,-15.174030,-8.433187
1002.777344,-7.637165,-10.115872,-11.155672,-7.760477
1002.781250,-9.810042,-12.122950,-10.638779,-7.732811
1002.785156,-12.411195,-14.977773,-4.019809,-2.227516
1002.789062,-7.269092,0.659351,-12.577234,-4.062443
1002.792969,-8.846645,-5.778477,-5.394013,-5.039294
1002.796875,1.804289,6.094429,-3.209716,-5.090871
1002.800781,4.979820,-1.126185,0.802247,1.241454
1002.804688,3.813902,8.874731,8.787490,10.660845
1002.808594,6.740433,11.169448,3.593864,10.115831
1002.812500,5.850677,4.180448,3.972813,-2.683125
1002.816406,5.254938,6.517115,2.916416,12.657272
1002.820312,13.507007,6.749897,5.664819,10.648453
1002.824219,6.923770,7.726316,7.584825,4.879018
1002.828125,15.412431,5.857618,7.878910,12.090343
1002.832031,6.696104,6.772895,19.334627,11.621960
1002.835938,6.367992,12.278483,16.980954,13.716931
1002.839844,12.198033,13.707828,7.959981,1.946710
1002.843750,-0.459977,2.317441,6.345788,7.596768
1002.847656,2.609507,6.585594,-4.950818,1.847545
1002.851562,-4.461636,5.494566,-0.737021,3.922062
1002.855469,1.780273,3.728704,-7.750097,-4.300394
1002.859375,-7.543897,-4.908183,-13.808030,-8.226538
1002.863281,-2.518971,-5.941612,-12.063917,-7.801789
1002.867188,-7.551854,-2.596054,-7.983372,-8.343863
1002.871094,-12.767296,-13.173304,-5.563722,-11.200998
1002.875000,-8.338839,-6.561470,-13.167069,-7.532904
1002.878906,-7.472982,-7.619153,-12.217162,-6.945609
1002.882812,-12.196103,-9.564714,-16.857513,-7.049751
1002.886719,-11.743168,-7.518226,-16.804824,-11.227664
1002.890625,-4.563568,-2.962771,-9.193909,-4.240305
1002.894531,-3.565497,-6.745014,-4.639651,1.547453
1002.898438,-2.382963,6.681375,1.077005,-2.366853
1002.902344,1.182251,-1.626071,0.542245,4.184293
1002.906250,6.996944,5.071692,6.037051,5.239082
1002.910156,9.284641,6.491346,2.698661,6.229218
1002.914062,10.843937,7.733021,-2.237810,4.301064
1002.917969,3.449737,10.117577,7.713669,17.049069
1002.921875,6.708366,5.986750,11.674096,14.218622
1002.925781,12.868752,14.326158,9.860393,10.271585
1002.929688,7.513964,7.577025,10.765707,11.618302
1002.933594,2.621889,10.063091,5.134531,13.976671
1002.937500,8.670453,10.187374,9.041657,5.403183
1002.941406,8.834400,6.681769,0.497751,7.015334
1002.945312,-4.443571,0.225210,4.720288,7.250923
1002.949219,-0.483945,0.618383,0.043322,6.233424
1002.953125,-1.527086,-4.119956,-1.962922,2.964914
1002.957031,-8.567106,-9.814759,-2.793311,-2.892856
1002.960938,-12.351483,-6.526722,-10.714599,-3.549721
1002.964844,-13.130617,-7.078101,-18.410290,-9.988545
1002.968750,-11.109565,-8.486845,-9.729349,-8.997058
1002.972656,-8.613034,-7.214529,-10.965478,-8.422642
1002.976562,-10.294378,-13.795845,-7.684299,-12.602809
1002.980469,-11.228797,-10.857847,-14.255493,-10.412416
1002.984375,-11.147099,-3.867898,-14.601740,-5.949993
1002.988281,-2.517870,-8.779262,-4.342279,-3.773556
1002.992188,-1.396544,-2.513146,-11.004119,-7.073488
1002.996094,-2.970008,-2.959693,-6.500167,-10.556307
1003.000000,-4.318215,8.671552,-6.245270,-1.444219
1003.003906,2.567196,1.194606,5.647617,1.559741
1003.007812,5.353974,11.383072,-6.026367,4.734317
1003.011719,4.586436,3.294952,5.740147,10.477509
1003.015625,12.698710,7.169568,11.855642,1.000847
1003.019531,8.777193,5.117606,10.116928,15.364310
1003.023438,11.552538,17.629741,13.877020,14.919434
1003.027344,7.136212,14.786615,7.121877,15.404728
1003.031250,7.015731,14.805859,12.665805,3.555936
1003.035156,6.488196,7.156248,11.993280,4.324977
1003.039062,4.846112,10.763462,17.245822,4.501516
1003.042969,1.337593,-2.999401,2.273008,0.869069
1003.046875,1.158659,-0.303196,4.518762,2.443927
1003.050781,-2.658634,2.201962,-2.130727,2.737781
1003.054688,2.566776,-10.626819,-2.168247,-6.310231
1003.058594,-9.228483,-7.331402,2.584039,-9.238820
1003.062500,-9.522230,-9.338498,-5.852217,-10.890779
1003.066406,-1.194857,-11.872624,-8.110574,-6.481363
1003.070312,-11.295488,-11.516488,-1.473302,-11.505367
1003.074219,-14.631282,-6.744120,-6.205752,-15.698770
1003.078125,-3.153376,-8.207031,-11.504601,-17.352439
1003.082031,-17.851423,-9.258674,-8.566604,-8.939923
1003.085938,-5.967631,-5.457442,-6.973035,-16.385807
1003.089844,-6.853184,-7.862187,-6.858668,-11.846102
1003.093750,-5.658428,-6.026414,-9.742443,-3.387092
1003.097656,0.066638,-0.893080,1.370645,-5.501405
1003.101562,11.485272,1.454743,1.792023,-1.390947
1003.105469,1.298089,0.851671,2.947041,1.017124
1003.109375,10.731100,6.023489,12.415472,3.513070
1003.113281,12.172647,2.483573,3.339980,16.987643
1003.117188,8.347293,7.357798,11.823398,4.311936
1003.121094,5.881599,6.847019,12.771624,8.773258
1003.125000,11.423629,12.732374,8.813410,14.073965
1003.128906,12.770087,4.176341,14.971740,9.743600
1003.132812,10.187026,10.008551,5.694476,5.549776
1003.136719,9.779065,11.432854,8.411296,-0.466718
1003.140625,14.949888,2.206107,6.748624,3.445131
1003.144531,6.186713,0.296181,10.378411,5.583133
1003.148438,0.271281,-1.541193,2.157603,4.323173
1003.152344,-1.890127,-6.472968,-4.595692,-3.747515
1003.156250,-2.445547,-5.671493,2.332252,-6.148661
1003.160156,-11.558726,-5.794740,-2.680872,-3.418972
1003.164062,-14.044574,-9.429965,0.585050,3.500078
1003.167969,-6.316668,-5.532251,-7.834838,-7.236429
1003.171875,-10.010172,-11.002917,-10.821834,-8.313635
1003.175781,-14.918854,-10.557588,-15.744565,-9.752155
1003.179688,-13.066076,-0.207543,-7.960955,-10.908139
1003.183594,-3.649927,-5.157759,-11.529217,-10.065764
1003.187500,-0.050830,-6.031007,-11.463141,-8.977652
1003.191406,-4.830399,-4.516801,0.585935,-6.352981
1003.195312,1.312954,-2.294717,-8.474010,-1.423597
1003.199219,6.173715,-6.042719,2.584771,0.799353
1003.203125,-2.355816,3.725596,10.176876,2.432599
1003.207031,7.928501,3.795672,3.347946,2.107276
1003.210938,4.295817,5.893550,8.838357,9.724386
1003.214844,9.920484,5.486853,12.078567,14.471980
1003.218750,2.633996,12.011317,10.514148,7.686193
1003.222656,12.976723,10.739478,9.906985,1.652782
1003.226562,10.379386,12.889167,15.404025,4.045242
1003.230469,8.119383,4.419756,13.226641,5.788268
1003.234375,18.203810,6.899966,11.468176,-1.103496
1003.238281,8.461744,6.546727,14.354469,10.767623
1003.242188,0.633883,-7.130120,4.314040,1.517624
1003.246094,-4.119512,1.792393,-0.616278,1.983586
1003.250000,5.578754,-0.770095,11.165097,-6.343171
1003.253906,1.451391,-4.901121,-3.222292,4.186828
1003.257812,1.685296,-5.853761,-2.765908,-7.998617
1003.261719,-8.826470,-7.520916,-6.682731,-11.501583
1003.265625,-10.931224,-14.236970,-1.724727,-10.342338
1003.269531,-7.448266,-17.093098,-15.979011,-12.398643
1003.273438,-4.819169,-8.934941,-9.538617,-4.934931
1003.277344,-15.169289,-11.174976,-5.035929,-12.160735
1003.281250,-3.489913,-3.377583,-8.581007,-14.297547
1003.285156,-10.832140,-11.819680,-14.505624,-11.516910
1003.289062,-2.122481,-8.660206,-3.230035,-7.828695
1003.292969,-7.109576,-6.781984,-5.961728,-4.205299
1003.296875,-6.019152,-7.414659,3.638401,-0.426037
1003.300781,1.794120,1.742493,-5.062095,2.110817
1003.304688,6.389710,4.687756,-0.572604,12.451264
1003.308594,2.181505,5.907839,8.864818,14.182460
1003.312500,2.955033,17.128433,11.704603,5.589268
1003.316406,10.978784,10.533731,6.759028,7.360555
1003.320312,9.591616,13.869784,2.986052,11.754447
1003.324219,10.009065,2.912532,9.940730,8.334374
1003.328125,10.930873,10.170150,12.164785,15.994342
1003.332031,7.893762,-0.045279,8.897168,8.837644
1003.335938,6.651147,7.390851,5.773666,3.456861
1003.339844,11.750563,-0.038540,6.552970,10.097206
1003.343750,3.532887,2.065272,2.116417,12.087358
1003.347656,-4.459827,-0.085650,6.846525,0.987466
1003.351562,-0.530815,0.643197,3.204791,3.006045
1003.355469,-5.759100,-2.959661,-1.990071,-1.758825
1003.359375,-5.402513,-9.308667,-4.543336,0.486614
1003.363281,-14.382733,0.092598,-11.692871,-7.650689
1003.367188,-8.025186,-11.018304,-12.264661,-7.586187
1003.371094,-11.697657,-0.575712,-14.095949,-9.146026
1003.375000,-8.500997,-6.004468,-9.935537,0.910779
1003.378906,-8.553199,-8.438448,-18.716526,-3.569387
1003.382812,-9.349197,-12.885468,-9.370256,-2.504100
1003.386719,-10.339653,-12.197974,-5.447152,-8.355082
1003.390625,-13.412153,-5.623680,-2.829044,-6.247200
1003.394531,4.539643,-3.440248,-2.132170,-2.779535
1003.398438,1.501713,5.126938,-1.414327,-5.556792
1003.402344,1.052193,3.161486,1.920695,2.114396
1003.406250,-0.167873,2.474972,12.219795,12.379321
1003.410156,0.621204,2.000612,6.303513,5.427157
1003.414062,10.277880,12.068565,-0.353184,12.411457
1003.417969,6.166060,16.997467,4.718064,5.303794
1003.421875,3.296000,12.543295,8.818744,15.609868
1003.425781,9.955446,11.994506,11.721390,7.126148
1003.429688,12.012629,11.248924,10.990397,14.297503
1003.433594,4.856123,7.122324,3.405984,5.491749
1003.437500,4.796989,8.615599,4.303940,9.116270
1003.441406,7.234807,0.548913,-3.705456,12.107086
1003.445312,7.763918,-2.228193,1.172621,3.909502
1003.449219,1.111211,2.026889,4.391888,-5.463853
1003.453125,-8.772260,1.930049,-4.587992,2.666376
1003.457031,-1.666143,-5.314913,-7.607887,-11.612613
1003.460938,-3.859967,-5.838811,-2.598851,-14.128334
1003.464844,-2.988385,-9.771954,-17.522348,-9.402777
1003.468750,-14.492183,-7.783878,-6.706096,-10.823097
1003.472656,-4.818579,-15.055555,-12.791981,-8.125737
1003.476562,-8.538437,-9.350971,-7.541705,-16.073408
1003.480469,-11.716241,-16.476607,-9.213018,-7.454002
1003.484375,0.527080,-8.584969,-7.642366,-10.312509
1003.488281,-9.890778,-4.532173,-1.604724,-4.572107
1003.492188,-7.205182,-8.361855,-2.708358,-10.723322
1003.496094,-8.721072,-1.905806,-8.167418,-3.846037
1003.500000,-4.482140,4.956901,-4.901231,3.838590
1003.503906,4.463784,1.302877,-0.054161,8.777473
1003.507812,12.389935,-1.013811,10.053879,6.437764
1003.511719,5.315764,4.879852,6.385521,8.672617
1003.515625,7.259549,11.083356,2.430188,7.431306
1003.519531,14.565439,9.947951,5.227385,5.845877
1003.523438,17.023119,10.626620,14.720686,11.758791
1003.527344,6.295022,5.235645,10.731427,11.358043
1003.531250,7.848737,16.204105,8.523436,10.323899
1003.535156,3.008785,0.750051,11.101036,13.223885
1003.539062,-1.096860,3.530352,0.187138,5.227868
1003.542969,10.354839,0.699807,1.986265,-2.325810
1003.546875,-1.206075,5.007650,3.028692,-0.750786
1003.550781,5.543619,-5.465653,-1.784644,8.893440
1003.554688,-9.039897,0.969887,-3.448599,0.436508
1003.558594,-4.170488,-6.229373,-10.425451,-6.059621
1003.562500,-8.065932,-0.776001,-12.524655,-4.259864
1003.566406,-13.845991,-10.342542,-5.244526,-6.249608
1003.570312,-17.185918,-2.429110,-9.342259,-13.448411
1003.574219,-5.723365,-12.942389,-13.905695,-9.501730
1003.578125,-12.605844,-15.025053,-12.763714,-15.895956
1003.582031,-6.144172,-6.028654,-10.807311,-7.934507
1003.585938,-3.304641,-4.546187,-9.496513,-8.229886
1003.589844,0.080957,-6.154363,-10.644004,-1.963891
1003.593750,-9.916689,2.186002,-1.315095,3.847734
1003.597656,-6.301287,-2.421642,0.557930,3.544494
1003.601562,-0.078152,-4.290133,-3.264750,-5.506926
1003.605469,8.710646,3.014922,6.788069,5.450543
1003.609375,9.826184,8.953985,5.410295,6.302740
1003.613281,0.104155,11.751326,4.857239,12.510588
1003.617188,13.648937,6.253103,9.145243,2.863976
1003.621094,11.114206,11.538216,12.988183,10.984158
1003.625000,15.103348,2.280016,9.419715,8.190412
1003.628906,16.551747,7.513576,8.904433,6.410189
1003.632812,1.938379,6.091410,9.798199,11.831053
1003.636719,3.435231,2.269299,8.399735,7.571763
1003.640625,8.562567,5.472908,12.174140,4.561028
1003.644531,4.066103,3.487500,8.431395,5.478435
1003.648438,0.267771,7.175228,4.767546,-1.066890
1003.652344,-1.326805,-0.462659,-2.119263,1.342029
1003.656250,-0.963102,0.794767,-1.193474,-6.677053
1003.660156,-5.744088,-3.716157,-7.777506,-5.308962
1003.664062,-8.871972,-10.433707,-7.408759,-10.068334
1003.667969,-9.279349,-3.110411,-11.456322,-13.657938
1003.671875,-10.385482,-9.685631,-4.130636,-9.922386
1003.675781,-7.322045,-7.929317,-15.626519,-15.063038
1003.679688,-10.566617,-14.414980,-8.896404,-9.499359
1003.683594,-11.042836,-4.802855,-7.261352,-4.223183
1003.687500,-10.946087,-3.514935,-7.524080,-10.910101
1003.691406,0.390341,-3.193179,-3.979225,-5.954770
1003.695312,-1.657358,-3.799164,-0.951581,-3.810733
1003.699219,1.491624,6.783446,6.329996,-3.548194
1003.703125,4.811828,-0.182279,-2.061672,1.945412
1003.707031,2.864681,3.255132,7.541910,3.316131
1003.710938,4.334040,5.274081,12.099243,4.319066
1003.714844,2.018759,5.376637,4.224016,7.606059
1003.718750,6.322497,6.478387,11.510844,14.683918
1003.722656,11.172101,10.652847,12.126468,9.413388
1003.726562,5.429400,4.675446,11.575745,8.821151
1003.730469,8.408014,6.563543,12.288268,11.020420
1003.734375,4.519590,3.478770,10.210430,4.553434
1003.738281,1.081448,5.961469,6.084643,8.626575
1003.742188,4.310212,0.131825,7.356880,16.039240
1003.746094,1.364306,-3.648580,3.495415,2.161418
1003.750000,-5.071666,-4.460599,4.897804,0.337336
1003.753906,-3.126835,0.316383,-5.985312,-7.610274
1003.757812,-8.741060,-10.356745,0.002883,-8.234489
1003.761719,-16.318176,-6.479133,-5.967981,-5.720350
1003.765625,-6.213801,-0.688558,-9.433019,-13.135444
1003.769531,-11.973029,-7.877586,-4.403918,-8.882109
1003.773438,-7.269798,-17.754765,-8.071726,-7.796170
1003.777344,-9.559610,-3.715845,-7.803158,-10.817317
1003.781250,-14.634561,-10.505397,-12.009046,-11.403376
1003.785156,-12.617310,-1.453025,-7.918368,-3.877705
1003.789062,-2.331399,-16.796742,-7.783204,-3.451857
1003.792969,-4.870667,-9.151025,-5.261848,-0.574503
1003.796875,-3.314174,3.260494,5.441264,0.395435
1003.800781,5.614214,-2.686301,6.216672,-2.050967
1003.804688,5.084405,1.722139,2.158558,5.978948
1003.808594,7.214184,12.355920,0.032301,4.477461
1003.812500,0.926008,-6.333928,9.567633,-0.415077
1003.816406,14.994383,7.923625,11.266153,10.861267
1003.820312,4.489801,9.895676,3.353995,10.053820
1003.824219,10.154658,5.186463,10.319481,6.020234
1003.828125,10.923259,9.243892,14.648292,12.486990
1003.832031,13.669565,4.611102,11.964512,14.084546
1003.835938,10.150159,4.737948,5.351573,11.742758
1003.839844,6.524712,1.036583,5.669801,1.017334
1003.843750,6.250438,-2.191692,4.796009,0.801507
1003.847656,3.413979,1.161786,-0.267407,6.591847
1003.851562,-1.470616,-4.841100,-1.134710,-8.352757
1003.855469,3.963079,-2.633922,-4.962421,-5.043487
1003.859375,-8.109989,-9.517815,-7.336559,-3.364874
1003.863281,-9.318274,-4.043800,-13.548352,-5.357841
1003.867188,-3.754359,-11.792320,-2.348317,-8.095624
1003.871094,-22.353145,-9.396178,-12.944422,-4.113357
1003.875000,-11.175336,-10.563457,-2.265671,-9.661546
1003.878906,-5.766977,-13.580642,-5.963188,-16.118172
1003.882812,0.811065,-9.943033,-14.483844,-14.099669
1003.886719,-9.350704,-12.628238,-6.418972,-4.911233
1003.890625,-3.834352,0.867409,-0.619761,-6.026248
1003.894531,1.658768,1.324016,1.473970,-3.052132
1003.898438,6.859321,-0.749593,-0.808716,-1.157720
1003.902344,-0.382623,1.531452,1.563015,-0.880905
1003.906250,9.640417,1.200691,5.981584,11.374497
1003.910156,7.704530,4.406726,3.650921,-0.207288
1003.914062,9.062928,4.745730,7.945751,3.497838
1003.917969,8.597381,15.296379,11.321263,5.795797
1003.921875,12.955538,10.713018,4.991486,10.735015
1003.925781,7.765317,11.239152,3.225436,13.022834
1003.929688,10.656424,9.839534,13.834680,5.522991
1003.933594,1.970474,10.913911,4.817026,3.992569
1003.937500,8.631065,7.588192,2.387763,-0.446861
1003.941406,4.892902,5.647888,4.095079,6.869650
1003.945312,1.576614,2.196660,4.799921,4.355703
1003.949219,-2.956081,4.476748,-5.438398,3.224374
1003.953125,-5.047938,-2.377898,-0.140262,-10.075889
1003.957031,-3.072843,-7.276894,-3.571175,-4.248712
1003.960938,-6.052890,-7.088437,-0.554927,0.296863
1003.964844,1.044080,-9.509871,-8.127970,1.451693
1003.968750,-11.399190,-7.419678,-11.790554,-11.627570
1003.972656,-4.402080,-13.513103,-16.098192,-7.155264
1003.976562,-4.181103,-9.359489,-5.004214,-6.387389
1003.980469,-4.809566,-11.545716,-5.468862,-17.888010
1003.984375,-12.086458,-13.303514,-15.577172,-9.458947
1003.988281,-3.957128,-11.111352,-4.197363,-9.481973
1003.992188,-7.175157,-4.694009,-1.535623,-5.753429
1003.996094,-3.385345,-0.704808,-2.067156,-5.584690
1004.000000,0.712371,-0.400716,1.473463,1.047641
1004.003906,2.167875,-5.272789,7.707281,-5.126195
1004.007812,6.719107,3.405822,0.481866,-1.000755
1004.011719,14.354159,9.213370,5.290124,13.938448
1004.015625,8.599970,1.507333,11.882818,6.388138
1004.019531,10.936489,15.617663,6.544982,6.969368
1004.023438,8.848754,12.912539,-0.951035,7.388910
1004.027344,7.690455,16.444028,9.695862,17.260974
1004.031250,11.184442,10.414742,11.740392,7.380110
1004.035156,7.912912,7.839300,5.931088,12.628132
1004.039062,-0.997050,4.785689,10.739647,8.103630
1004.042969,-0.557110,-1.946904,0.077730,0.121027
1004.046875,8.161922,-3.082945,3.016737,2.715220
1004.050781,0.032103,1.524397,-2.258871,1.301120
1004.054688,0.326388,-5.267388,-2.672731,-4.350078
1004.058594,-12.077964,-9.921883,-2.838249,0.815145
1004.062500,-7.919992,-13.743075,-9.202252,-11.100073
1004.066406,-7.770828,-12.522925,-2.854243,-1.106477
1004.070312,-8.306945,-0.520435,-6.770428,-15.124058
1004.074219,-10.024959,-10.724707,-6.712556,-12.165132
1004.078125,-6.298359,-10.128738,-10.051856,-9.643022
1004.082031,-9.532606,-12.093101,-6.981304,-11.819330
1004.085938,-6.920567,-0.601025,-5.653083,-2.950524
1004.089844,-13.008887,1.056943,-12.641205,-0.841464
1004.093750,1.223418,-8.865528,-6.841519,-3.093331
1004.097656,-6.263603,1.724934,-4.220359,-5.199009
1004.101562,-5.311308,1.027712,5.053176,-0.498498
1004.105469,1.916038,11.943546,-0.011401,0.315829
1004.109375,2.192893,3.316563,-1.245587,0.521366
1004.113281,7.068826,7.337272,4.853948,6.519445
1004.117188,6.485926,13.140462,5.393491,5.982434
1004.121094,11.281912,10.338015,11.106366,10.094350
1004.125000,12.558326,12.292926,20.491427,5.864711
1004.128906,13.681732,6.970599,14.310954,2.807889
1004.132812,2.483312,5.928550,14.152409,9.343592
1004.136719,6.091883,10.657803,13.901269,2.695238
1004.140625,0.465076,11.349309,8.532735,7.785817
1004.144531,10.460825,1.804626,4.449753,-0.351460
1004.148438,1.860072,-1.304446,2.872877,0.717804
1004.152344,3.432094,6.308232,1.532562,3.106892
1004.156250,-2.654354,-5.899794,-8.700835,-2.886549
1004.160156,-4.960030,-7.388391,-0.333222,1.318993
1004.164062,-9.527285,-7.235626,-4.844484,-13.834295
1004.167969,-11.762540,-15.189770,-9.320718,-1.520312
1004.171875,-12.530021,-7.834024,-11.174465,-18.092973
1004.175781,-7.544136,-4.830852,-10.521266,-12.254259
1004.179688,-16.886687,-9.473852,-14.094133,-4.975118
1004.183594,-2.386559,-4.549735,-8.700021,-10.273825
1004.187500,-4.437127,-4.586140,-9.498030,-5.337681
1004.191406,-10.699282,-4.650965,-6.917761,-5.832414
1004.195312,-2.736133,-2.739524,2.352087,-11.383424
1004.199219,0.620793,-0.855138,-1.365807,1.389252
1004.203125,-1.008042,0.471972,4.863433,2.525936
1004.207031,3.187946,8.547803,4.662127,8.802592
1004.210938,4.301477,8.194513,7.500954,-3.904347
1004.214844,17.508560,7.725290,0.750665,16.874432
1004.218750,10.941220,5.264820,3.988575,8.173853
1004.222656,14.082192,8.215826,7.089963,11.894843
1004.226562,10.513593,9.345024,13.094841,7.717210
1004.230469,5.542018,15.343303,18.274533,2.781904
1004.234375,10.038149,8.139914,10.503446,10.771522
1004.238281,6.806327,8.574102,7.221961,11.581473
1004.242188,9.368949,1.343565,-0.308285,7.861776
1004.246094,2.455066,5.761973,4.440009,-2.311188
1004.250000,5.163094,5.236522,-0.280009,-4.301276
1004.253906,4.299538,-5.698262,3.348513,-2.822423
1004.257812,-8.992695,-3.090247,-0.532514,-3.200049
1004.261719,-11.467928,-5.045401,-0.890627,-6.102605
1004.265625,-5.624818,-11.538257,-10.420121,-11.105540
1004.269531,-3.222271,-14.555143,-2.649143,-5.783339
1004.273438,-14.788798,-17.510341,-8.844483,-10.176452
1004.277344,-8.626358,-11.506824,-7.861683,-12.196271
1004.281250,-8.414610,-6.816901,-14.443447,-6.385271
1004.285156,-10.606272,-10.410612,-10.064251,-4.249502
1004.289062,-9.482399,-6.929715,-2.735219,-3.677218
1004.292969,-3.289332,-7.392166,-6.045681,-0.999392
1004.296875,-6.897326,-1.486000,-1.681784,1.977899
1004.300781,-0.492881,-4.786053,4.973980,-1.990622
1004.304688,4.583801,2.478713,6.076241,12.586170
1004.308594,11.245900,7.890522,12.138925,4.520397
1004.312500,9.940935,7.225663,10.865711,0.937777
1004.316406,6.613650,11.843238,5.258601,10.110774
1004.320312,9.687660,13.116156,11.046212,8.373827
1004.324219,11.523460,13.155372,4.408846,4.689412
1004.328125,7.183583,9.402116,10.221164,7.158515
1004.332031,8.950517,15.590938,1.027587,7.728185
1004.335938,7.886487,6.066909,8.333167,7.032130
1004.339844,6.978923,3.970989,10.900670,7.703745
1004.343750,0.178587,2.124879,11.556694,6.592902
1004.347656,3.478256,3.551678,-1.350486,-3.067445
1004.351562,0.432298,9.260027,-3.203467,4.565595
1004.355469,-10.091895,-7.087285,-6.322956,-4.983445
1004.359375,-3.914481,-7.786209,-9.932359,-6.417483
1004.363281,-2.179137,-6.043512,-12.153275,-5.557020
1004.367188,-20.062450,-8.805650,-8.621424,-18.533854
1004.371094,-0.335455,-5.033191,-9.895854,-6.249628
1004.375000,-9.266448,-10.271478,-16.223369,-3.321092
1004.378906,-10.018705,-2.764102,-11.955027,-6.431752
1004.382812,-10.363611,-4.494159,-9.439649,-9.085387
1004.386719,-6.872374,-8.415381,0.291748,-11.396457
1004.390625,-7.297266,-6.815875,-4.195041,-9.798674
1004.394531,-0.688346,-4.846432,-1.741484,-6.212613
1004.398438,0.023225,-10.468839,-4.664843,-4.116202
1004.402344,-0.033503,-3.050409,9.916932,1.476169
1004.406250,-3.017372,2.105929,11.273694,-2.707232
1004.410156,-1.463887,7.107699,5.467667,-1.055730
1004.414062,3.992550,5.537123,11.179703,5.221946
1004.417969,3.140950,3.499396,5.833004,6.418250
1004.421875,9.496206,16.576816,4.519076,7.930985
1004.425781,17.641168,12.478648,11.482996,0.058748
1004.429688,14.451775,15.453207,7.761481,9.784242
1004.433594,10.546734,1.630247,10.102193,7.202934
1004.437500,11.018323,4.433521,7.635053,3.671557
1004.441406,-2.329344,1.394612,10.366138,8.235558
1004.445312,1.398266,3.287041,6.944029,7.186316
1004.449219,-1.280444,-0.528502,0.430432,-1.073149
1004.453125,-3.627936,-3.003657,-0.749723,0.855473
1004.457031,-7.458442,-13.550246,-3.646895,-5.343267
1004.460938,-5.668838,-4.825812,-11.367548,-7.242379
1004.464844,-8.901638,-6.040706,-7.204284,-7.384741
1004.468750,-7.231381,-7.414578,-6.040608,-5.721027
1004.472656,-12.680406,-11.192313,-9.995819,-9.855579
1004.476562,-6.356740,-5.531336,-10.095592,-19.389860
1004.480469,-5.880886,-13.534029,-15.895986,-5.317935
1004.484375,-4.724028,-9.192016,-14.112056,-5.158715
1004.488281,-10.397994,-7.801449,-4.284145,-4.092835
1004.492188,-9.859981,-8.112316,-11.120359,-1.784359
1004.496094,-5.241606,-4.261725,-1.391610,1.430117
1004.500000,0.472085,-5.614098,4.505503,-8.890867
1004.503906,2.839331,4.253744,0.869747,0.180592
1004.507812,9.598144,-1.935982,2.541955,7.094421
1004.511719,5.616315,5.224216,12.923720,5.372102
1004.515625,11.502514,2.885645,7.914212,19.628495
1004.519531,11.504054,13.153021,9.614335,4.529113
1004.523438,10.693402,16.470349,6.368182,7.318284
1004.527344,15.030295,7.687688,12.289123,13.845886
1004.531250,14.710288,6.484244,14.986503,9.651960
1004.535156,7.468423,13.831568,9.049986,9.905851
1004.539062,11.167739,2.330949,13.082365,14.970400
1004.542969,9.271292,-1.483351,-0.930125,8.315085
1004.546875,-2.997316,1.856791,6.064164,-3.560795
1004.550781,3.918470,-3.696041,1.338584,-4.066887
1004.554688,-4.504019,6.056082,0.981075,-6.697932
1004.558594,-5.141469,-9.669230,-4.873281,-1.724204
1004.562500,-10.990425,-7.536746,-9.903361,-5.076649
1004.566406,-7.504406,-13.064661,-6.878770,-8.024975
1004.570312,-12.451671,-9.725059,-15.747506,-0.730908
1004.574219,-9.842564,-7.488995,-9.522766,-6.173981
1004.578125,-12.644622,-1.080523,-14.602616,0.481418
1004.582031,-8.122754,-15.512104,-6.068413,-11.694315
1004.585938,-11.505431,-12.452222,-8.414371,-10.591671
1004.589844,-10.250792,-5.208090,-6.160000,-6.195909
1004.593750,-5.173214,-1.202580,-1.780501,-2.742566
1004.597656,-0.022622,0.468030,-6.103511,-1.856161
1004.601562,-0.032646,2.395672,-1.713555,6.188012
1004.605469,0.827784,4.421850,3.032078,-5.793834
1004.609375,10.092199,11.164379,8.780701,3.353342
1004.613281,7.669611,6.409257,9.092044,1.319147
1004.617188,16.603100,12.686991,12.824871,10.378345
1004.621094,13.772217,8.236397,6.124363,5.766262
1004.625000,11.715901,11.165979,9.972770,8.172736
1004.628906,16.452562,14.067284,17.770765,4.226175
1004.632812,1.920168,9.715915,9.207683,6.610910
1004.636719,5.746179,10.101880,5.087977,12.789217
1004.640625,8.497647,0.752889,-1.201834,7.086764
1004.644531,6.089306,-0.284541,-1.102215,8.539424
1004.648438,1.233473,-2.460535,3.619547,6.214428
1004.652344,-3.071924,-4.030927,0.379272,-0.630663
1004.656250,-5.535065,-2.215427,-6.971385,-1.601536
1004.660156,-2.380940,-4.244151,-4.689833,-8.705654
1004.664062,-7.523433,-5.306799,-20.439609,-4.618474
1004.667969,-11.231240,-16.199632,-11.716058,-4.759839
1004.671875,-6.245042,-11.671172,-15.030393,-7.371144
1004.675781,-9.779316,-11.248812,-7.725154,-12.921728
1004.679688,-10.212397,-7.884757,-13.044670,-8.659389
1004.683594,-0.188010,-6.016852,-6.014995,-11.463456
1004.687500,-6.632553,-11.584321,-2.031181,-11.428589
1004.691406,-5.955046,-1.425510,-8.870721,-6.279585
1004.695312,-8.010269,-6.247801,-2.707343,3.636222
1004.699219,4.365654,-7.828999,-2.002874,4.182156
1004.703125,-1.750376,-4.031555,3.347357,0.626596
1004.707031,1.866268,6.270889,11.427323,-2.642969
1004.710938,0.000654,12.000985,9.104028,6.816362
1004.714844,9.159148,6.746319,7.395284,11.475965
1004.718750,7.010790,2.835599,5.457544,4.715626
1004.722656,7.866582,4.094859,10.943054,13.689687
1004.726562,11.437282,14.849129,8.188937,11.712924
1004.730469,11.965157,12.593738,11.745256,16.582359
1004.734375,9.974202,16.508750,9.052605,4.360220
1004.738281,6.884163,7.813643,11.397062,5.890091
1004.742188,-4.651872,7.434714,12.599158,7.289950
1004.746094,-0.950578,5.773468,7.642636,0.623134
1004.750000,2.244507,2.610939,-3.109866,6.700623
1004.753906,-2.982824,0.425910,2.455280,-2.052317
1004.757812,-5.766940,0.580327,-5.097761,-10.386515
1004.761719,-11.954729,-9.417655,-2.656840,0.096415
1004.765625,-9.632923,-3.295054,-12.431979,-10.617227
1004.769531,-9.535322,-5.398750,-8.590960,-4.410722
1004.773438,-14.704348,-10.030310,-11.289791,-12.523478
1004.777344,-7.726765,-3.869861,-6.632827,-11.758544
1004.781250,-10.175201,-11.127762,-9.541780,-11.012090
1004.785156,-3.693643,-4.748288,-17.180268,-7.765158
1004.789062,-8.899216,-12.907139,-4.472285,-2.455423
1004.792969,-1.590979,-4.813716,-5.722588,-7.811213
1004.796875,-0.509721,-5.543261,-1.757284,-1.852999
1004.800781,5.299942,3.537673,2.027754,8.924270
1004.804688,3.586873,1.901718,6.582868,6.147252
1004.808594,-3.117371,6.073336,6.495249,12.903600
1004.812500,14.283019,10.668932,4.943913,10.389585
1004.816406,13.077789,12.075508,9.403763,12.135376
1004.820312,16.604515,10.511847,5.503061,11.214427
1004.824219,12.004718,13.670585,9.466980,15.887142
1004.828125,7.640891,6.159112,17.343701,12.392691
1004.832031,11.186078,6.339691,10.270985,15.980661
1004.835938,8.098840,9.368505,14.406415,8.157157
1004.839844,10.162296,14.069364,4.051288,8.054819
1004.843750,6.402825,6.567757,-0.097912,8.240413
1004.847656,-1.054921,-0.630866,0.686277,-1.293343
1004.851562,-5.258472,-5.633165,-5.345687,-0.847264
1004.855469,1.221775,-7.194484,-9.216748,-11.609887
1004.859375,-10.397206,-7.963000,-6.555706,-7.625149
1004.863281,-3.646994,-9.336790,-11.199164,-7.533603
1004.867188,-6.039455,-8.186185,-6.584395,-6.849916
1004.871094,-13.394501,-15.951241,-11.601745,-7.435922
1004.875000,-13.108405,-14.062515,-10.760520,-8.144951
1004.878906,-8.679701,-7.041590,-10.740590,-6.222265
1004.882812,-11.382695,-15.257003,-8.140690,-10.948434
1004.886719,-5.309205,-12.144548,-8.758848,-1.526263
1004.890625,-6.046293,-3.706968,3.179748,-12.996748
1004.894531,2.279793,-2.663436,-5.983804,-5.777268
1004.898438,0.844014,3.995918,-3.674455,3.573171
1004.902344,4.888633,0.458037,3.829832,3.610350
1004.906250,0.781046,2.185992,6.327989,4.014041
1004.910156,4.034330,-0.627519,3.415886,3.045826
1004.914062,5.992397,7.318334,14.157621,12.224557
1004.917969,17.096835,3.291510,0.166175,11.322951
1004.921875,7.885487,8.372271,3.588694,11.507770
1004.925781,4.249404,12.056341,16.791286,8.000552
1004.929688,14.462711,7.165490,10.675550,5.943468
1004.933594,6.302357,6.343567,4.336957,9.409230
1004.937500,3.000292,-0.766458,5.446686,2.751166
1004.941406,-2.413760,6.472273,3.178589,2.932593
1004.945312,5.034129,5.642717,-0.698917,6.456619
1004.949219,-4.077382,1.034064,2.427563,4.794021
1004.953125,-2.078411,-11.459742,0.783162,-2.698037
1004.957031,-3.356251,-5.718048,-2.813681,-3.505967
1004.960938,-9.902200,-5.923585,-8.969564,-3.318920
1004.964844,-4.303110,-14.473949,-7.606021,-13.192221
1004.968750,-12.777940,-0.919014,-8.787621,-11.362610
1004.972656,-2.635385,-9.096672,-8.814445,-9.849341
1004.976562,-9.883123,-9.483796,-13.855680,-10.401095
1004.980469,-5.344599,-1.282056,-8.037405,-15.153285
1004.984375,-3.077462,-4.391733,-4.895910,-7.812014
1004.988281,-10.344286,-5.211415,-6.777764,-2.638695
1004.992188,-7.362716,-6.151044,-0.593604,-7.779418
1004.996094,-4.912829,-1.224574,-6.206751,-3.222866
1005.000000,5.040710,-4.416761,-1.549403,-0.788301
1005.003906,7.707366,4.343575,8.260901,0.326504
1005.007812,8.172289,7.809112,7.212887,3.522208
1005.011719,7.392835,7.870957,9.649717,3.708396
1005.015625,-2.805218,4.124638,8.290502,0.847634
1005.019531,7.673948,3.902185,10.091649,7.689374
1005.023438,9.126367,13.375531,3.403142,11.846984
1005.027344,12.576506,9.069829,11.940327,5.763440
1005.031250,11.271313,7.207329,13.925442,12.593219
1005.035156,7.776166,9.858313,7.738588,1.315144
1005.039062,3.801993,9.202109,8.072291,9.126735
1005.042969,-1.113851,3.871350,2.944835,0.748508
1005.046875,2.699236,2.029119,-2.979723,-7.268655
1005.050781,-3.369858,-1.746157,-0.014262,2.929386
1005.054688,-3.396526,4.950371,-3.431033,1.316692
1005.058594,-11.156609,-0.587805,-7.564498,1.143682
1005.062500,-8.525039,-6.012309,-9.935304,-9.600057
1005.066406,-3.908307,-9.341782,-7.159019,-6.420287
1005.070312,-4.963670,-15.671112,-9.618660,-4.188785
1005.074219,-8.255166,-8.772844,-9.182719,-16.724090
1005.078125,-10.221433,-6.197975,-0.083955,-13.064648
1005.082031,-10.056800,-8.869020,-12.597318,-11.352523
1005.085938,-7.955053,-3.458308,-8.810437,-1.641161
1005.089844,-11.160643,-7.453966,-11.389121,-9.999690
1005.093750,-3.563237,-7.220412,-4.619051,-4.784503
1005.097656,-1.059329,-1.937762,-4.388091,-1.419504
1005.101562,-4.802183,-2.268583,1.478275,-1.692135
1005.105469,7.052028,-0.338829,-1.244327,-7.810382
1005.109375,9.140617,9.108975,1.466894,-1.486244
1005.113281,12.396368,9.522376,8.200574,9.899703
1005.117188,3.351167,7.250098,9.657220,13.633500
1005.121094,10.643777,6.957870,12.781987,8.211609
1005.125000,11.351488,8.985202,5.275008,11.526516
1005.128906,8.127774,7.735035,7.002575,10.948414
1005.132812,13.388064,5.112023,6.606865,14.129169
1005.136719,4.399427,9.376982,6.922902,6.998578
1005.140625,4.778652,1.661418,3.327657,7.083871
1005.144531,0.800189,-1.291755,-0.470539,3.261377
1005.148438,-1.849696,3.069635,-1.575382,1.809054
1005.152344,-9.599197,4.700003,6.540133,-6.627376
1005.156250,-1.350809,2.132378,-8.318994,-3.828327
1005.160156,2.226222,-8.717309,-4.789180,-11.573123
1005.164062,-3.574515,-6.492271,-6.430090,-1.269700
1005.167969,-15.687732,-9.888330,-8.485058,-6.063879
1005.171875,-5.945201,-12.150203,-13.190627,-5.044945
1005.175781,-8.664732,-11.299770,-15.004872,-6.204891
1005.179688,-11.641742,-9.782683,-7.500672,-15.079285
1005.183594,-4.698619,-9.633522,-13.981723,-8.232165
1005.187500,-4.869345,-13.715936,-9.037550,-15.142942
1005.191406,-6.756503,-0.157565,-0.092361,-11.875729
1005.195312,-6.175254,-5.446602,-4.513358,-3.831529
1005.199219,-0.775504,-1.931762,-2.301243,2.393252
1005.203125,4.568088,-4.106117,4.983603,2.102870
1005.207031,4.498765,4.442238,-3.109716,3.257824
1005.210938,3.812782,6.919391,8.817934,2.826307
1005.214844,8.776293,8.165406,4.555602,7.124366
1005.218750,9.176136,14.476106,7.863927,12.746870
1005.222656,7.779207,13.679657,12.270216,6.423952
1005.226562,12.811994,7.186866,12.057530,5.130825
1005.230469,7.854154,4.479246,9.490612,9.796767
1005.234375,13.064683,5.310080,9.921686,9.275323
1005.238281,3.086313,1.360232,9.936772,5.336549
1005.242188,9.797079,8.177863,3.542766,0.455319
1005.246094,3.359777,1.203840,1.030405,7.434686
1005.250000,-1.221862,0.557784,-1.670095,-0.055073
1005.253906,-1.930590,-8.775689,2.923417,-1.290768
1005.257812,-2.868194,-5.705868,-5.420112,-7.351496
1005.261719,-4.749415,-7.773618,-8.481883,-4.952332
1005.265625,-9.280151,-8.900996,-12.339968,-8.270467
1005.269531,-11.931026,-1.691547,-7.905937,-7.549979
1005.273438,-12.442711,-9.310700,-12.177073,-15.210519
1005.277344,-14.150422,-7.087083,-9.698122,-10.101263
1005.281250,-8.279721,-11.011024,-6.988889,-7.782347
1005.285156,-16.716406,-11.495676,-6.079862,-4.087841
1005.289062,-5.295414,-10.229101,-7.173900,-2.836864
1005.292969,-8.340083,-7.332452,3.749209,-0.582774
1005.296875,-5.134017,-3.971964,-7.749358,1.054971
1005.300781,1.860129,-0.749521,0.108250,-0.547549
1005.304688,5.455909,-1.643822,1.342955,-0.057466
1005.308594,8.601915,9.371458,10.227434,1.323604
1005.312500,9.684712,5.223994,6.175059,3.476311
1005.316406,6.331933,12.058114,11.250506,10.360601
1005.320312,10.734477,14.120744,8.880126,9.667717
1005.324219,5.014094,14.755689,6.687570,5.438254
1005.328125,8.825776,12.807197,7.044870,8.816483
1005.332031,8.656146,12.917322,18.887049,2.251819
1005.335938,9.975753,7.615523,10.811027,8.126807
1005.339844,4.712678,2.874508,2.820803,4.602981
1005.343750,1.374145,6.470118,8.211407,1.554525
1005.347656,2.134388,0.177610,2.381326,1.936207
1005.351562,1.767442,-0.972152,4.457532,-1.658433
1005.355469,-8.194381,-6.369083,-0.754422,-3.836599
1005.359375,-5.755243,-2.103547,-10.857352,0.278430
1005.363281,-9.807502,-10.447931,-1.208168,-7.334463
1005.367188,-10.582279,-10.261393,-14.401738,-8.231488
1005.371094,-16.095371,-3.262265,-10.571704,-13.121483
1005.375000,-15.283007,-5.606719,-11.118908,-5.501377
1005.378906,-7.706917,-5.405855,-8.596554,-3.046747
1005.382812,-7.227823,-7.861850,-10.663555,-15.350330
1005.386719,-6.407154,-13.480121,-9.115128,-13.662978
1005.390625,-0.124195,-6.044118,-5.375045,-2.232420
1005.394531,-8.769672,-0.102369,-0.948590,-1.686006
1005.398438,2.444367,1.688674,1.802974,2.293988
1005.402344,1.729196,8.497313,8.406560,1.193917
1005.406250,2.815744,6.062299,2.251466,10.495420
1005.410156,6.063883,8.114742,7.284896,4.159308
1005.414062,14.927505,8.195405,6.645595,5.610111
1005.417969,11.953716,4.680482,15.865044,3.689940
1005.421875,6.389734,13.620513,9.702083,6.548399
1005.425781,12.152739,7.318388,15.369862,7.902553
1005.429688,9.049030,6.965137,5.960430,4.276140
1005.433594,8.258298,12.854825,12.917136,11.460065
1005.437500,6.341698,13.346466,8.296549,8.196646
1005.441406,-3.164070,13.173700,10.809922,16.209651
1005.445312,-7.738129,4.757353,1.510340,1.907432
1005.449219,1.893076,-5.494248,3.560043,2.880283
1005.453125,-3.964384,0.796515,-2.477207,-1.369581
1005.457031,-10.296598,-2.284098,-3.067821,1.366158
1005.460938,-7.488247,-0.899037,-5.280950,-6.307418
1005.464844,-8.203107,-9.589791,-7.987192,-5.969946
1005.468750,-9.210729,-0.202732,-12.158578,-8.836748
1005.472656,-10.136381,-10.290378,-8.534482,-11.959028
1005.476562,-13.377721,-10.932737,-8.956064,-14.300378
1005.480469,-5.565389,-14.128512,-6.904171,-10.654827
1005.484375,-9.059968,-4.344313,-7.410263,0.365726
1005.488281,-8.500843,-9.689693,-6.513717,-10.697815
1005.492188,-1.585306,-5.984887,-3.393047,-6.645249
1005.496094,1.294820,-4.770943,-4.858418,-3.190176
1005.500000,5.624126,5.906508,3.408042,-1.831869
1005.503906,0.271854,-2.714377,4.252446,-2.615001
1005.507812,5.116008,2.608429,3.854170,2.032741
1005.511719,6.466460,4.811466,12.252917,3.964318
1005.515625,1.811054,9.735513,12.061593,8.009737
1005.519531,13.734082,8.212706,11.118569,10.725829
1005.523438,11.217376,10.804103,13.024455,8.693733
1005.527344,14.393706,7.257866,3.339152,11.756311
1005.531250,7.033606,15.277113,10.603745,8.399437
1005.535156,4.775899,8.265946,9.834776,9.771087
1005.539062,3.872015,11.056882,2.335083,8.470507
1005.542969,2.330088,4.730863,6.927209,7.413994
1005.546875,4.677914,0.856139,11.733874,-2.062448
1005.550781,-1.108568,-1.501812,3.121768,-0.223643
1005.554688,-4.932162,-8.195949,1.434317,4.893342
1005.558594,-6.680228,-3.359192,-3.833748,-6.777986
1005.562500,-9.581044,-5.066671,-6.739773,1.460026
1005.566406,-0.728296,-15.828023,-8.209707,-10.228246
1005.570312,-9.981927,-13.200166,-10.448173,-12.177627
1005.574219,-13.334367,-12.848212,-2.896129,-12.202884
1005.578125,-7.239215,-8.064893,-8.346658,-13.774680
1005.582031,-5.573868,-9.780433,-12.327852,-11.861579
1005.585938,-15.253531,-4.891694,-11.547790,-7.914420
1005.589844,-5.886323,-5.172886,-7.312152,-4.219651
1005.593750,-2.076558,0.652488,-5.435219,-7.841173
1005.597656,-5.085582,-4.784876,-0.108264,-4.374484
1005.601562,-9.537448,0.168114,8.335691,0.483685
1005.605469,3.704525,3.145758,6.487263,-4.501700
1005.609375,3.100678,1.878394,5.706808,0.432002
1005.613281,3.169574,10.627638,9.928202,11.726869
1005.617188,8.041988,5.846521,8.842248,10.690122
1005.621094,4.575037,10.853536,-1.167974,11.840002
1005.625000,18.512781,0.440264,3.087470,15.287893
1005.628906,9.561018,1.366743,10.677402,13.219491
1005.632812,15.296030,10.894846,8.965637,10.465729
1005.636719,5.376089,5.340013,13.711033,10.290806
1005.640625,3.281160,5.726572,7.399252,10.483469
1005.644531,9.192159,9.126660,1.556187,6.819118
1005.648438,-3.519053,2.565531,-0.233552,2.700353
1005.652344,-2.829643,-1.331333,-2.673105,0.899247
1005.656250,-3.321029,-5.289628,-3.731343,1.448444
1005.660156,-7.645593,-4.819446,-14.521211,1.162331
1005.664062,-6.266038,-17.032928,-9.780176,-7.724092
1005.667969,-11.593078,-6.893634,-8.372920,-12.953382
1005.671875,-11.320776,-11.642819,-6.998816,-10.241045
1005.675781,-5.945332,-7.728633,-8.352188,-7.151091
1005.679688,-7.339825,-8.329690,-7.433846,-8.567247
1005.683594,-10.423888,-7.907563,-1.664596,-6.305934
1005.687500,-3.750078,-5.130827,-14.874463,-11.513010
1005.691406,-10.917840,-7.514741,-6.503423,-4.727645
1005.695312,-0.787936,-2.889389,-1.680469,-8.127871
1005.699219,1.865516,-0.209735,3.994811,-2.908669
1005.703125,1.978100,6.519041,-5.234929,0.223086
1005.707031,4.219751,9.616143,2.447486,10.949395
1005.710938,8.112673,5.988493,4.891797,3.181598
1005.714844,12.141624,15.423357,1.737323,10.787175
1005.718750,10.143491,0.355806,3.508044,13.233765
1005.722656,6.798617,6.860042,11.165095,11.124485
1005.726562,11.005739,6.931794,9.891367,4.840561
1005.730469,10.187155,1.325997,2.951379,15.495116
1005.734375,4.030730,5.322615,4.159851,13.375682
1005.738281,9.254526,8.187025,0.774729,12.475628
1005.742188,-5.459282,4.740224,-2.174115,4.726688
1005.746094,-0.314346,8.797903,8.413018,3.213203
1005.750000,4.702460,-6.560058,-0.610496,3.272813
1005.753906,-0.277328,-0.030602,-0.217381,1.772042
1005.757812,-7.680321,-10.614466,-1.491777,-1.580348
1005.761719,-9.070023,-12.411857,-7.164339,-5.531026
1005.765625,-8.063670,2.932122,-9.086189,-11.383164
1005.769531,-5.554389,-9.812444,-12.180592,-5.596513
1005.773438,-11.923854,-20.067119,-13.931542,-4.908881
1005.777344,-11.910312,-7.081702,-8.978233,-17.151960
1005.781250,-7.674781,-9.002525,-15.873780,-13.017422
1005.785156,-14.663098,-12.542719,-8.231590,-3.687902
1005.789062,-5.206577,-4.262922,-4.718741,-5.564665
1005.792969,-5.415927,-7.473500,-9.512740,-2.415040
1005.796875,0.847825,-0.678106,5.085233,1.890951
1005.800781,-1.886343,0.111197,-6.021820,2.658365
1005.804688,2.683486,6.869987,-2.408421,5.448823
1005.808594,4.389282,7.362279,3.983941,2.492397
1005.812500,11.548067,6.107477,2.808261,6.663767
1005.816406,3.461397,12.756272,5.063908,8.269758
1005.820312,9.064597,12.946495,6.065487,10.273760
1005.824219,10.813468,8.888409,17.334717,5.021956
1005.828125,15.227312,5.282650,10.529457,9.222288
1005.832031,6.860776,17.709965,6.372665,12.141810
1005.835938,8.921647,6.872139,8.487517,13.261515
1005.839844,7.302744,3.207415,6.478245,9.578591
1005.843750,8.818582,0.623017,9.268716,4.470045
1005.847656,1.849967,3.354354,0.108664,4.721494
1005.851562,3.818909,-1.612339,-5.100468,-3.295136
1005.855469,-4.143756,-3.932482,1.071449,-4.352493
1005.859375,-2.957449,-4.636420,-9.541733,-10.632034
1005.863281,-1.368341,-2.776467,-9.842247,-11.587383
1005.867188,-6.072843,-13.712620,-12.380145,-9.968528
1005.871094,-4.843202,-5.287181,-9.016435,-15.081814
1005.875000,-8.641046,-7.369222,-7.541946,-12.711549
1005.878906,-9.289486,-9.218620,-7.804108,-5.856500
1005.882812,-5.826626,-8.075111,-9.377029,-8.749373
1005.886719,-2.957735,-10.875691,-1.358194,-4.436620
1005.890625,3.875946,-2.006955,-3.794685,-7.836226
1005.894531,-5.412180,3.889194,-1.307105,-6.480654
1005.898438,1.093570,2.777017,2.165754,4.472146
1005.902344,-2.824700,-2.135683,3.393086,-2.398430
1005.906250,7.641691,0.896104,8.911354,7.029333
1005.910156,1.775553,2.579641,2.461606,8.472115
1005.914062,7.747000,0.258513,8.078478,12.417572
1005.917969,10.757035,13.430701,14.163737,5.165561
1005.921875,11.468202,15.390430,15.340040,16.496351
1005.925781,7.985077,9.210238,7.065616,12.988912
1005.929688,15.668016,9.085377,0.915533,8.381250
1005.933594,10.270911,10.761202,7.592458,14.188688
1005.937500,8.337104,2.716613,-1.744865,3.714394
1005.941406,10.544459,4.474346,4.588201,8.567821
1005.945312,-3.944437,1.378462,-4.425538,11.257007
1005.949219,-0.358199,-2.201052,-0.305408,1.402812
1005.953125,-5.636286,-2.630861,-6.684758,-4.818223
1005.957031,-1.035463,-3.157660,-11.279882,-0.414815
1005.960938,-12.000418,-7.451113,-6.241524,-8.462634
1005.964844,2.832119,-10.805703,-12.477607,-7.416729
1005.968750,-5.641243,-8.568861,-10.358319,-12.291737
1005.972656,-12.686691,-11.084763,-5.645514,-11.723458
1005.976562,-12.823300,-7.669210,-12.287988,-9.647747
1005.980469,-8.591679,-9.860907,-7.679952,-0.078798
1005.984375,-7.375826,-3.127276,-0.973015,-6.315110
1005.988281,-11.941403,-1.841895,-8.232374,-8.177357
1005.992188,-2.565210,2.542787,-6.463229,-9.327711
1005.996094,-4.176335,-0.750031,-1.116505,3.047932
1006.000000,3.537262,-1.317241,6.095785,0.734261
1006.003906,-3.325504,1.292715,-6.723575,3.253338
1006.007812,7.535271,-0.380082,2.030929,0.216727
1006.011719,9.694129,4.933815,9.681448,10.399761
1006.015625,12.012966,11.582686,8.278677,10.625418
1006.019531,11.387181,5.116556,3.225342,9.455786
1006.023438,11.250344,12.439969,11.189893,15.211651
1006.027344,8.003802,9.417118,10.945119,8.513620
1006.031250,9.991051,14.333472,12.608935,7.271414
1006.035156,9.477966,7.995942,12.963183,5.278061
1006.039062,6.212418,4.407582,4.479789,2.003588
1006.042969,6.895589,3.967402,4.940414,6.376750
1006.046875,2.263391,5.082210,4.919781,0.757018
1006.050781,-5.144501,-2.501228,-2.700418,-1.254674
1006.054688,-5.158524,2.645470,-2.405970,-6.761626
1006.058594,-11.701034,-5.022898,-8.053140,-9.588324
1006.062500,-3.679585,0.216829,-16.372667,-2.161362
1006.066406,-2.864922,-11.812372,-9.622256,-13.867291
1006.070312,-11.446008,-8.460239,-12.103455,-6.034027
1006.074219,-10.849996,-9.241545,-3.569385,-15.167939
1006.078125,-12.005628,-8.451514,-9.324779,-3.473413
1006.082031,-7.590154,-16.357947,-10.758173,-10.775340
1006.085938,-10.697521,-2.619730,-4.188446,-15.368589
1006.089844,-7.807774,-2.214860,-5.773580,-6.305453
1006.093750,-3.431407,1.771352,-0.720392,1.863791
1006.097656,-4.406224,-3.660869,-5.382254,4.681922
1006.101562,5.166531,-0.077109,1.512345,-1.169974
1006.105469,0.187804,-1.690368,-1.671357,5.523918
1006.109375,-2.310453,11.857715,7.867968,2.389779
1006.113281,13.267705,8.299407,8.217766,2.863286
1006.117188,9.039817,6.014269,11.350970,4.075668
1006.121094,8.822245,14.808288,9.159191,8.801861
1006.125000,12.345452,7.195215,9.820240,9.761129
1006.128906,7.718806,11.256807,4.948874,15.046758
1006.132812,0.300097,13.933911,5.923016,8.490537
1006.136719,3.623502,6.749199,4.911848,7.529652
1006.140625,9.155380,11.278281,8.901327,5.826046
1006.144531,8.202940,3.135203,-3.311567,7.466393
1006.148438,-2.289871,3.608522,-0.796831,-0.088306
1006.152344,3.150370,-0.462300,1.801402,5.313592
1006.156250,-1.738281,-7.098619,2.505902,-13.859491
1006.160156,-1.750092,-6.477596,-10.382157,-5.363197
1006.164062,-3.524649,-12.118373,-9.556002,-8.666077
1006.167969,-18.038264,-7.068370,-10.241280,-10.587463
1006.171875,-6.281159,-15.090577,-9.341201,-12.897820
1006.175781,-6.395194,-10.192572,-13.885807,-8.965826
1006.179688,-7.718388,-19.882680,-9.819732,-19.156329
1006.183594,-7.023176,-7.305019,-10.010404,-17.326814
1006.187500,-3.589926,-8.918620,-6.121367,-5.420205
1006.191406,-4.954849,-7.087532,-7.106368,-0.822331
1006.195312,-6.471173,-7.097868,4.742534,5.738037
1006.199219,2.932406,-4.797474,4.823196,11.882216
1006.203125,-0.172389,-10.679964,-1.770392,2.907008
1006.207031,3.285926,5.680037,-2.396802,2.333611
1006.210938,7.691289,4.767256,3.679390,6.054502
1006.214844,3.795340,10.022113,3.951014,11.685383
1006.218750,9.902095,3.735686,11.157113,8.337721
1006.222656,14.084309,8.512978,11.992938,11.668012
1006.226562,3.036619,7.658703,11.940490,8.599219
1006.230469,6.913891,9.624520,5.170993,12.013408
1006.234375,6.320578,8.186935,6.250751,3.976010
1006.238281,7.642028,4.945928,7.714177,3.401344
1006.242188,6.105759,9.721757,-0.531882,6.361764
1006.246094,0.931640,0.471453,5.192111,2.938001
1006.250000,7.128041,-6.888580,-0.710826,6.860947
1006.253906,-3.342904,0.996684,-5.632315,-9.195863
1006.257812,0.038778,-10.209460,-8.798465,-7.007169
1006.261719,-11.696932,-9.163767,-6.199900,-2.809005
1006.265625,-16.941961,-7.161061,-7.971794,-12.715132
1006.269531,-17.571515,-13.281396,-8.231761,-12.601013
1006.273438,-6.956090,-7.892661,-12.872926,-6.499665
1006.277344,-11.158870,-14.102530,-10.575556,-6.999466
1006.281250,-10.185909,-11.327146,-3.386143,0.675029
1006.285156,-9.145624,-5.054550,-7.691605,-8.687758
1006.289062,-7.405012,-7.850857,-0.101621,-11.368733
1006.292969,-2.861149,1.144007,-2.444616,-6.062042
1006.296875,-2.309452,-1.562390,-5.565623,-4.087644
1006.300781,5.843986,2.302545,0.828360,0.550025
1006.304688,-2.530816,10.303600,1.641329,1.204418
1006.308594,11.273812,1.881603,2.377525,9.007940
1006.312500,10.500839,3.352726,0.720447,6.564043
1006.316406,9.062389,7.441569,16.322373,7.220136
1006.320312,5.871525,11.331116,13.241261,2.164737
1006.324219,9.692620,6.124906,10.934209,7.180667
1006.328125,10.971438,10.350274,8.465905,10.621792
1006.332031,15.875864,12.989492,11.293503,11.260027
1006.335938,10.408477,7.142363,10.351935,5.153931
1006.339844,6.400107,3.695662,8.749907,5.497430
1006.343750,6.574096,6.699147,2.584420,4.340949
1006.347656,5.664612,-0.315364,8.295894,4.961196
1006.351562,-5.766658,-0.480124,2.751588,-1.473329
1006.355469,-4.144727,-5.524518,-0.561655,-4.842353
1006.359375,-10.092146,-5.792025,-10.978298,1.445779
1006.363281,-3.845975,-10.279344,-10.874673,-11.334063
1006.367188,-8.037808,-3.689763,-16.499600,-9.690391
1006.371094,-14.064924,-8.750859,-11.922224,-21.609618
1006.375000,-15.476144,-7.114139,-13.937239,-13.415752
1006.378906,-10.042237,-9.846817,-13.467391,-8.957477
1006.382812,-9.180457,-6.317927,-5.306822,-1.852378
1006.386719,-6.642153,-4.064342,-9.858263,-9.942725
1006.390625,-7.856798,-3.235744,2.283573,-2.093127
1006.394531,-6.497228,-10.156443,-2.014883,-5.270867
1006.398438,-7.134401,-0.634174,-1.578097,-5.816730
1006.402344,-0.317920,4.294333,-0.182289,-0.279066
1006.406250,3.045345,1.760880,5.679533,-0.465850
1006.410156,8.925663,4.238960,4.623686,8.113250
1006.414062,12.139639,9.189239,3.442739,6.001661
1006.417969,5.747161,10.585110,7.428594,5.286875
1006.421875,5.763819,9.589242,9.916827,13.789419
1006.425781,10.503606,9.943658,7.234371,8.481615
1006.429688,11.017678,11.485475,14.081230,13.944522
1006.433594,6.464106,10.324429,16.350312,11.483022
1006.437500,8.087867,11.778119,1.618394,2.509423
1006.441406,2.335736,9.603097,4.532809,5.144337
1006.445312,-0.194909,7.579055,-0.431059,10.599950
1006.449219,1.212695,3.056780,-1.527114,2.409737
1006.453125,-5.223412,-7.486605,0.327697,-12.965135
1006.457031,-4.343194,-7.623109,-3.182525,-10.707529
1006.460938,-8.789337,-1.400586,-2.022296,2.175611
1006.464844,-9.381882,-7.348373,-5.918611,-6.339102
1006.468750,-16.049138,-9.898806,-9.248727,-4.700466
1006.472656,-3.161734,-13.586422,-5.947012,-6.977475
1006.476562,-12.350237,-11.297505,-5.411427,-12.917837
1006.480469,-16.750389,-5.621739,-7.862091,-14.144543
1006.484375,-9.243699,-7.647374,-10.428865,-3.637246
1006.488281,-12.093915,-8.516117,-7.100195,-10.871285
1006.492188,-5.216711,-10.653541,-4.857332,-4.587104
1006.496094,1.698833,-6.715262,-4.650470,-3.640523
1006.500000,-4.061892,3.373943,-1.813002,-1.698642
1006.503906,3.864999,3.470858,-2.452229,1.603241
1006.507812,3.418414,5.406915,9.107521,4.973101
1006.511719,11.800220,8.657570,11.157732,6.130816
1006.515625,5.224724,8.813760,8.329884,7.753892
1006.519531,10.748945,8.347261,3.271960,13.410935
1006.523438,14.443956,6.666898,5.691381,12.615726
1006.527344,1.949069,6.734287,12.332321,10.003976
1006.531250,12.705352,5.395870,7.718052,1.332562
1006.535156,12.356867,-0.960629,3.981922,8.761018
1006.539062,3.722102,11.541908,-0.428418,4.275124
1006.542969,-2.231461,-2.335654,2.864321,1.937394
1006.546875,5.723478,7.330222,3.836453,3.224713
1006.550781,-3.726037,5.877729,0.513445,1.490713
1006.554688,-1.346680,-3.705853,-8.120198,2.883416
1006.558594,-6.853145,-7.528905,-4.033218,-9.341456
1006.562500,2.091836,-8.413767,-8.424479,-0.764745
1006.566406,-9.861076,-12.224391,-15.065034,-8.165205
1006.570312,-10.583171,-12.977557,-11.978256,-3.845334
1006.574219,-2.105829,-12.266896,-8.489212,-16.274327
1006.578125,-6.861713,-6.173456,-9.618579,-12.723138
1006.582031,-2.854539,-3.521778,-12.187695,-13.100708
1006.585938,-6.082870,-9.339961,-2.874180,-11.263111
1006.589844,-1.895836,1.245658,-9.817542,-3.363543
1006.593750,-4.421751,-5.480270,-1.442200,-2.703029
1006.597656,-3.500548,0.402422,3.328060,-0.423148
1006.601562,4.337337,-3.544647,-1.692329,-5.152930
1006.605469,2.801687,7.147932,3.811272,-2.761715
1006.609375,7.365877,6.561839,11.298146,3.893797
1006.613281,8.512575,5.889944,5.202755,1.923971
1006.617188,11.845004,16.622825,5.394939,1.408643
1006.621094,5.954989,10.730611,8.245897,11.965343
1006.625000,8.143738,14.361018,11.976388,13.467464
1006.628906,11.241343,7.532767,2.203043,7.471617
1006.632812,10.171928,9.259760,10.517447,8.577886
1006.636719,9.516373,4.569580,3.158960,11.775140
1006.640625,8.878882,8.241123,2.084997,10.096846
1006.644531,0.762822,8.579935,1.641609,7.826168
1006.648438,2.139290,-5.943902,6.055881,-1.022385
1006.652344,-11.340224,-1.258760,0.023651,0.560644
1006.656250,-2.017396,-0.089725,-3.271477,-0.833857
1006.660156,-8.695835,-8.221055,-1.246469,-5.741929
1006.664062,-3.944856,-6.358625,-13.160421,-9.107683
1006.667969,-10.968358,-10.629402,-8.910096,-11.177552
1006.671875,-8.043159,-9.783446,-7.129656,-10.361990
1006.675781,-9.685486,-7.637309,-13.381986,-11.295450
1006.679688,-9.689470,-9.180979,-4.021645,-8.041559
1006.683594,-2.338353,-11.263882,-3.889400,-15.455519
1006.687500,-13.935643,-6.974127,-7.015014,-10.981301
1006.691406,-5.925961,1.259364,-5.495622,-5.652685
1006.695312,-0.391304,-3.701508,-7.884447,-2.994401
1006.699219,-2.002472,-6.356852,-2.440938,-0.954789
1006.703125,6.059685,0.544062,-2.551181,4.815154
1006.707031,9.267284,3.069971,12.265854,-0.380392
1006.710938,3.839968,12.179160,9.956600,6.832698
1006.714844,12.786384,13.004796,12.056559,6.368232
1006.718750,8.900966,11.483553,8.398489,4.964768
1006.722656,7.338261,11.422116,10.427620,8.573577
1006.726562,14.257852,10.514453,8.805757,9.800826
1006.730469,12.010057,2.593066,7.559702,9.958662
1006.734375,7.772473,4.976002,12.186953,5.876672
1006.738281,-0.419580,9.197489,3.265743,-3.773797
1006.742188,6.826427,5.802560,0.296710,3.506605
1006.746094,5.446569,2.965236,-4.384498,2.325267
1006.750000,-0.191888,3.826569,0.843524,0.134869
1006.753906,-1.161067,-10.616396,0.030359,-5.220391
1006.757812,-7.764428,-2.039784,-4.686223,-6.592017
1006.761719,-6.623129,-8.737587,-4.852727,-7.882175
1006.765625,-8.722639,-5.726943,-2.960561,-7.763199
1006.769531,-8.762898,-16.266105,-8.388745,-6.366097
1006.773438,-11.537158,-9.755038,-10.380235,-17.901268
1006.777344,-10.380857,-8.768202,-16.491755,-6.310677
1006.781250,-8.144894,-13.019189,-10.024328,-10.664328
1006.785156,-1.945885,-11.223779,-8.839507,-6.190889
1006.789062,-8.401756,-6.153665,-4.928775,-2.058823
1006.792969,-1.671873,-7.934437,-6.550107,-14.219763
1006.796875,-1.789986,-3.899380,-5.122706,-0.929975
1006.800781,0.146145,2.895009,8.963676,-0.131718
1006.804688,-5.388656,6.906066,7.751557,-1.119913
1006.808594,1.670622,2.176960,7.245891,2.244819
1006.812500,7.601090,9.826706,9.874556,4.806984
1006.816406,12.341768,7.438724,8.615525,12.127702
1006.820312,9.543460,6.664701,10.950627,8.344980
1006.824219,8.102030,9.522656,15.000964,23.752914
1006.828125,4.665136,13.599837,18.085648,10.590973
1006.832031,6.010329,5.609927,7.325821,11.389662
1006.835938,4.402699,-0.612770,9.486102,10.521967
1006.839844,12.658134,5.831992,0.651391,8.479955
1006.843750,3.702405,4.451826,1.766826,8.115570
1006.847656,-3.100998,1.706967,1.980221,1.874099
1006.851562,3.869033,-5.107121,1.587213,-1.360728
1006.855469,-3.395482,-2.969402,-4.585690,-1.872626
1006.859375,-1.037675,-5.888413,-5.173052,-7.075751
1006.863281,-10.125646,-3.687003,-5.489553,-1.067878
1006.867188,-12.039065,-11.069173,-4.936333,-9.091541
1006.871094,-9.460754,-10.845019,-9.035430,-12.814923
1006.875000,-6.452263,-2.978412,-5.793616,-11.137863
1006.878906,-16.116187,-11.135240,-2.227989,-11.549267
1006.882812,-13.817976,-10.735635,-11.091765,-12.202276
1006.886719,-2.474121,-11.583483,-11.370260,-9.341387
1006.890625,-13.432976,-6.439602,-10.413566,-8.479151
1006.894531,-4.344883,-4.423882,-3.112661,-1.918163
1006.898438,-0.641193,-5.377999,-3.755465,0.880428
1006.902344,-1.840060,-4.340736,4.816023,0.951558
1006.906250,0.355604,6.881120,3.032248,6.916388
1006.910156,12.445848,8.877907,-1.023678,6.623258
1006.914062,7.838849,11.754436,10.536684,8.581050
1006.917969,8.956736,6.298608,9.579649,-3.934158
1006.921875,7.241117,9.861777,14.310299,4.428644
1006.925781,0.951865,11.139623,11.751235,11.490305
1006.929688,8.010552,4.872690,11.682835,16.298760
1006.933594,6.760468,9.806267,14.637329,4.739877
1006.937500,3.622823,9.778684,14.404125,5.014145
1006.941406,6.861738,4.367003,0.029670,8.622103
1006.945312,0.192617,6.829555,2.432107,4.070682
1006.949219,-5.187747,-3.847962,0.973453,5.426753
1006.953125,0.163080,-1.353472,1.567789,1.291585
1006.957031,0.092599,-6.490271,-2.685320,-4.392812
1006.960938,-10.501894,-5.836068,-3.894719,-10.335600
1006.964844,-7.426733,-5.861396,-8.374653,-6.354464
1006.968750,-8.195631,-9.400890,-8.423291,-5.355950
1006.972656,-1.392187,-13.192743,-6.916928,-13.729733
1006.976562,-5.351850,-8.817967,-9.250769,-7.565121
1006.980469,-8.786018,-15.312638,-5.183498,-3.534737
1006.984375,-11.966294,-6.361562,-2.971265,1.401763
1006.988281,-7.753741,-14.688395,-9.377774,-10.578075
1006.992188,-0.573784,-4.253599,-3.818144,-2.794494
1006.996094,-2.386347,-9.635158,3.971010,-6.208438
1007.000000,-3.290453,5.364799,-2.097068,4.021730
1007.003906,0.028784,0.507284,4.845532,4.786865
1007.007812,5.250424,5.612856,-1.762355,3.739459
1007.011719,5.823427,8.160984,4.511839,11.562413
1007.015625,10.252442,4.569775,7.782217,9.615643
1007.019531,8.696384,10.244575,10.060545,10.763841
1007.023438,16.004242,11.495465,12.747450,2.728935
1007.027344,11.094540,8.840956,10.306170,8.034839
1007.031250,9.181541,11.397661,2.124568,7.576886
1007.035156,2.877059,11.309496,8.748252,16.876064
1007.039062,-0.431244,6.956246,10.445682,9.098558
1007.042969,4.890582,1.499126,5.668021,3.586192
1007.046875,-1.077248,3.831481,1.283060,-2.906955
1007.050781,-5.118160,0.643078,5.299067,0.023439
1007.054688,-0.631147,-3.330605,-5.233108,-12.698930
1007.058594,-11.425836,-7.251709,-8.150649,-16.337250
1007.062500,-3.443998,-5.974976,-10.470632,-14.165532
1007.066406,-3.314261,-11.323115,-8.872587,-8.787159
1007.070312,-7.204916,-13.184657,-3.215585,-10.192764
1007.074219,-15.419959,-5.588817,-10.047057,-8.435376
1007.078125,-5.764160,-11.721338,-11.722120,-9.761220
1007.082031,-11.918474,-10.526383,-3.941691,-9.244236
1007.085938,-6.831335,-10.204894,-6.534756,-9.374646
1007.089844,0.690654,-9.375332,-15.383132,-7.567727
1007.093750,-8.312923,-5.258621,1.658072,-2.112938
1007.097656,-3.215885,-1.941187,-0.441682,0.317503
1007.101562,0.045220,5.222022,-0.070092,-4.106773
1007.105469,9.331399,8.823296,4.396712,0.870944
1007.109375,6.101786,5.232505,3.349183,6.209932
1007.113281,7.659385,10.888453,10.041568,10.050355
1007.117188,15.317914,8.635486,5.299942,9.973454
1007.121094,9.003432,12.893826,6.608011,10.946720
1007.125000,5.166000,11.499249,15.654255,8.781238
1007.128906,9.672031,11.516752,9.749158,5.292132
1007.132812,5.995599,7.846438,7.102658,9.935302
1007.136719,5.281252,8.531343,5.671933,5.954743
1007.140625,7.344549,4.678757,9.533977,5.028584
1007.144531,2.428192,-1.582145,8.101383,11.273189
1007.148438,3.551570,-4.697696,4.841392,3.820888
1007.152344,1.278210,-10.047712,3.748507,0.061420
1007.156250,-2.394276,-9.280474,-0.653328,-2.755746
1007.160156,-14.468310,-4.647406,-7.072192,-11.323086
1007.164062,-6.077367,-7.904589,-13.591002,-13.537677
1007.167969,-10.659500,-11.240905,-0.483975,-10.464599
1007.171875,-9.034232,-11.196719,-12.689960,-17.056277
1007.175781,-7.418932,-5.248218,-19.355205,-17.558336
1007.179688,-17.095698,-13.935298,-13.215002,-10.414178
1007.183594,-14.599625,-6.422480,-10.392837,-18.592993
1007.187500,-6.869744,-12.365261,-8.224839,-9.171941
1007.191406,-8.162918,-3.449749,-1.045199,-8.614215
1007.195312,-1.281243,-6.729131,-3.256677,-6.178137
1007.199219,-4.993995,-3.021411,2.432713,-3.659001
1007.203125,3.581040,2.514841,-1.717403,-1.869348
1007.207031,12.046789,3.179619,-1.642927,9.712884
1007.210938,5.197125,-1.337733,5.903812,0.078021
1007.214844,12.107047,6.401728,1.461721,8.949777
1007.218750,8.099871,14.141054,8.813234,13.639542
1007.222656,17.125665,9.888131,4.856698,6.675944
1007.226562,5.418358,10.424618,7.867287,11.876082
1007.230469,9.230869,7.819772,10.385908,17.342832
1007.234375,13.632770,6.575226,16.593585,9.858544
1007.238281,3.253467,-0.356710,6.459843,0.817568
1007.242188,1.080825,0.749569,4.329352,5.025044
1007.246094,4.740769,3.912647,-3.087413,0.637155
1007.250000,-1.122424,4.020834,3.838180,9.008332
1007.253906,-7.189010,-4.349943,0.462445,3.357657
1007.257812,-6.556695,-2.461091,-8.191524,1.797849
1007.261719,-6.518304,-16.994284,1.462399,0.257419
1007.265625,-9.074081,-7.846332,-3.806813,-7.547533
1007.269531,-9.644485,-5.549711,-5.565696,-9.348228
1007.273438,-15.862511,-11.913835,-7.814391,-12.170162
1007.277344,-12.145725,-12.309839,-10.910681,-14.025881
1007.281250,-10.392685,-6.081163,-17.917806,-11.095912
1007.285156,-10.890591,-5.715419,-3.377809,-5.891775
1007.289062,-10.818132,-14.195737,-12.691207,-8.932226
1007.292969,0.896527,0.809048,-5.616558,-0.763696
1007.296875,-0.674818,1.011269,-9.813301,2.672960
1007.300781,2.330983,0.424704,-1.935058,1.743246
1007.304688,-2.125080,5.795632,4.281680,2.964252
1007.308594,6.339096,4.630055,4.509950,4.963617
1007.312500,-0.600915,8.939489,12.340943,6.712023
1007.316406,10.664335,9.133442,12.101564,11.078547
1007.320312,16.342729,6.700594,12.676568,3.990967
1007.324219,7.786533,11.605464,6.033883,13.354728
1007.328125,9.312098,9.716072,2.926973,9.942533
1007.332031,10.272311,7.971987,6.763761,5.035660
1007.335938,6.707155,10.536100,5.598445,9.888633
1007.339844,0.236085,3.017053,4.722186,10.902030
1007.343750,4.854788,4.825341,4.624585,5.099418
1007.347656,1.891941,4.699909,4.309079,2.071645
1007.351562,6.491957,1.467440,-4.662532,-0.206822
1007.355469,1.420281,0.516045,-3.017041,-2.222811
1007.359375,-2.421755,-10.438204,-5.675393,-5.024691
1007.363281,-7.518741,-14.679089,-10.693037,-5.499969
1007.367188,-3.612684,-6.283555,-4.289428,-18.067290
1007.371094,-10.329490,-13.089262,-9.355413,-16.003231
1007.375000,-12.521098,-6.584649,-11.626356,-12.364023
1007.378906,-15.978077,-10.253400,-11.459960,-10.094283
1007.382812,-7.055296,-4.709974,-2.414745,-3.472357
1007.386719,-11.366024,-8.764442,2.138881,-9.690286
1007.390625,-6.918859,-8.229792,0.214153,-0.417890
1007.394531,-0.483952,-4.534512,3.219742,-7.712581
1007.398438,0.146136,0.292758,4.668049,3.608550
1007.402344,3.255786,-2.926881,4.401309,4.160098
1007.406250,3.780027,11.052393,-1.535871,3.049389
1007.410156,3.307507,5.813748,16.665969,3.583704
1007.414062,12.020979,4.998720,10.520258,17.054965
1007.417969,11.251670,9.822644,6.299668,6.952291
1007.421875,9.855098,9.539013,6.993907,14.065268
1007.425781,5.016645,15.128308,9.501688,7.525629
1007.429688,4.835958,12.044800,12.902758,12.986160
1007.433594,14.358257,9.089082,7.193287,6.339192
1007.437500,5.685156,15.246546,8.797337,5.663283
1007.441406,3.948597,7.571545,2.049278,13.435197
1007.445312,3.449542,1.894899,-1.638581,8.911413
1007.449219,5.166263,3.656557,-6.614250,-7.601193
1007.453125,0.016855,3.326359,5.379782,-7.372622
1007.457031,-9.834189,-7.247903,1.073885,0.615561
1007.460938,-13.000495,-13.596645,-10.359897,-4.998173
1007.464844,-10.995348,-4.148328,-4.755525,-9.297397
1007.468750,-10.740397,-4.495440,-7.256763,-12.013497
1007.472656,-7.887012,-3.655097,-3.278917,-1.511883
1007.476562,-8.809083,-1.077408,-10.119524,-18.540354
1007.480469,-9.407330,-7.666512,-10.573054,-8.499438
1007.484375,-9.732168,-13.027034,-16.852962,-8.390150
1007.488281,-6.548465,-7.852110,-3.539979,-5.075566
1007.492188,-5.655836,-8.566953,-3.955785,-2.341986
1007.496094,-5.546778,2.647808,3.281220,-5.416933
1007.500000,-2.917595,6.036584,0.310780,-0.032466
1007.503906,1.191473,7.369416,-3.819842,4.243245
1007.507812,0.266625,1.990617,6.820274,2.229869
1007.511719,5.383500,6.301735,8.545989,3.626295
1007.515625,0.845193,9.330042,2.290194,1.593409
1007.519531,11.405870,7.535670,10.489357,11.477826
1007.523438,4.911501,5.863777,2.098447,10.636942
1007.527344,5.339342,3.447575,6.078048,10.126793
1007.531250,15.014782,5.326507,3.185872,6.326497
1007.535156,6.560520,8.885705,6.071389,8.571954
1007.539062,5.031952,13.538350,6.974792,7.561872
1007.542969,5.536756,-4.618735,9.346339,6.724819
1007.546875,7.909538,4.153285,-0.781820,0.706069
1007.550781,3.894335,4.356744,-6.159235,-6.085951
1007.554688,0.664027,2.331269,3.412007,-2.161843
1007.558594,-5.718333,-5.862141,-15.185182,3.029006
1007.562500,-8.026362,-13.678561,-6.643184,-7.500066
1007.566406,-13.549728,-7.782142,-7.016749,-6.147326
1007.570312,-2.147707,-2.871140,-3.046258,-16.363221
1007.574219,-11.155866,-7.970093,-7.721269,-4.723294
1007.578125,-16.512030,-14.252918,-13.786843,-9.119498
1007.582031,-11.223852,-14.172046,-4.519401,-13.992440
1007.585938,-2.312190,-9.453659,-8.409750,-8.046747
1007.589844,-10.740807,-11.407562,-7.008790,-10.257796
1007.593750,0.784121,-9.145614,-0.601047,-4.183063
1007.597656,-0.357713,-1.537043,-8.120424,-0.030973
1007.601562,0.233364,5.938349,7.067474,10.866523
1007.605469,-2.395745,2.410079,2.844173,6.268685
1007.609375,1.450958,1.728728,7.813324,-0.230853
1007.613281,7.949375,5.589448,1.836313,13.087348
1007.617188,7.659354,19.289151,13.161207,12.129247
1007.621094,17.247599,4.609517,13.657199,13.815596
1007.625000,16.158665,13.117436,7.168380,6.946427
1007.628906,4.156872,7.459331,20.039530,11.087169
1007.632812,12.184017,12.408979,8.554531,6.950887
1007.636719,2.893025,3.371849,9.593349,11.926907
1007.640625,2.267241,11.044616,3.750403,5.724659
1007.644531,3.056409,2.080212,8.353822,6.660086
1007.648438,1.218884,2.431390,-3.800330,3.559825
1007.652344,-0.410493,-7.179744,-7.981220,2.155804
1007.656250,-5.967643,-7.290793,-6.417545,-3.603206
1007.660156,-10.170164,-12.930467,-5.820482,-9.440048
1007.664062,-8.434661,-12.846659,-6.598870,-8.353869
1007.667969,-17.826740,-6.049787,-8.013060,-6.085298
1007.671875,-10.367775,-20.016825,-5.515912,-7.826478
1007.675781,-5.441493,-8.175870,-12.963093,-4.824166
1007.679688,-15.908295,-8.853496,-16.299806,-7.666871
1007.683594,-12.031133,-3.871820,-4.543472,-10.425598
1007.687500,-3.243085,-8.861816,-16.306093,-11.111708
1007.691406,1.238863,-7.846154,-5.299546,-7.965883
1007.695312,5.102532,-8.525279,-3.072108,-7.360257
1007.699219,-3.502259,0.661251,-7.785521,3.295675
1007.703125,2.054582,7.359838,3.665971,-5.174685
1007.707031,-2.146850,2.757869,7.277526,1.213034
1007.710938,7.075332,3.940895,13.444653,7.330903
1007.714844,13.136490,8.299526,5.725164,10.588922
1007.718750,5.599178,11.440015,9.042832,8.578596
1007.722656,9.215238,11.351357,22.088718,5.747905
1007.726562,14.296231,11.033673,15.782008,14.104522
1007.730469,11.002310,7.894205,3.476367,5.133599
1007.734375,10.114403,14.194259,0.679850,11.191949
1007.738281,15.156299,4.280677,4.172381,8.709920
1007.742188,1.816980,6.289840,9.049762,1.422611
1007.746094,6.821761,4.934984,2.593815,3.440410
1007.750000,1.203543,1.996211,-0.137252,-5.318903
1007.753906,-4.675910,4.368926,-1.539924,-0.374853
1007.757812,-10.462881,-4.783474,-7.337475,-15.433154
1007.761719,-6.490697,-4.663091,-2.790835,-5.289154
1007.765625,-11.107111,-14.775250,-6.020557,-6.597113
1007.769531,-8.163503,-13.289404,-8.969386,-13.008902
1007.773438,-6.605941,-13.877990,-12.480881,-7.197082
1007.777344,-10.794329,-9.198672,-14.405706,-13.263393
1007.781250,-7.360728,-10.189542,-5.120989,-16.173425
1007.785156,-7.488823,-6.430164,-11.640864,-10.726742
1007.789062,-6.588011,-4.200946,-9.908527,-3.818214
1007.792969,-5.238663,-7.352716,2.446052,-5.205889
1007.796875,-8.230174,2.799376,-0.676320,4.313003
1007.800781,-2.540949,-0.105775,-2.015417,2.551005
1007.804688,6.142642,2.050141,7.348406,11.813028
1007.808594,-3.627220,8.122392,0.910652,2.531964
1007.812500,4.311434,10.052582,8.583402,9.324043
1007.816406,7.042408,6.858649,14.303598,13.217449
1007.820312,12.145533,11.827488,14.536404,7.950200
1007.824219,7.186135,12.091149,8.912401,0.221618
1007.828125,7.386165,14.056928,9.771344,17.718157
1007.832031,3.695502,0.351123,11.900705,1.620225
1007.835938,3.863476,1.592650,7.937277,-0.908890
1007.839844,10.574151,9.849321,6.748079,8.950124
1007.843750,0.150339,4.788466,9.704752,5.553623
1007.847656,5.855802,0.736447,-2.577159,2.575963
1007.851562,2.154295,-0.917790,6.711641,-1.016744
1007.855469,-6.510853,-12.526107,-4.584609,6.102452
1007.859375,-1.767514,-7.681868,-0.015039,-8.319822
1007.863281,-3.432670,-0.171660,-7.128791,-1.272705
1007.867188,-7.431839,-15.397192,-8.671153,-4.381270
1007.871094,-12.889166,-8.040776,-12.325099,-8.712608
1007.875000,-10.183457,-17.945689,-11.100971,-14.892208
1007.878906,-8.135213,-13.516623,-7.509823,-8.686605
1007.882812,-11.400352,-4.259594,-8.630084,-12.378269
1007.886719,-3.112794,-4.528912,-13.193110,-9.143520
1007.890625,-7.951068,-11.691783,2.393137,-5.449083
1007.894531,-9.695805,-8.773571,0.326868,-10.114892
1007.898438,2.164376,1.124827,-0.772099,-9.389742
1007.902344,-4.195361,3.835913,-1.285622,-4.438727
1007.906250,3.239695,-3.084617,8.073166,12.824164
1007.910156,12.564891,12.425667,11.041556,8.475752
1007.914062,14.402560,9.675394,16.601203,11.194330
1007.917969,9.774701,3.664488,5.935631,10.127761
1007.921875,8.071956,2.687918,14.702079,14.810225
1007.925781,15.176186,9.779576,5.666629,16.799950
1007.929688,13.819363,10.462749,14.867739,6.939807
1007.933594,15.975844,13.082112,6.268612,3.272951
1007.937500,2.988042,9.117865,10.703540,13.189379
1007.941406,4.295610,14.402938,0.860811,4.657128
1007.945312,9.168417,3.299652,-0.593766,6.059982
1007.949219,-2.253466,-1.598375,5.879317,1.606867
1007.953125,1.842140,8.300399,0.590202,-7.586563
1007.957031,-11.024922,-7.791405,-0.110535,-2.850839
1007.960938,-2.571809,-1.513561,-13.083552,-4.922214
1007.964844,-2.182655,-9.508334,-6.739401,-1.904033
1007.968750,-9.613384,-1.960020,-6.573595,-9.132328
1007.972656,-14.534646,-12.970244,-6.184691,-8.818240
1007.976562,-5.873355,-11.406816,-11.558367,-7.027431
1007.980469,-9.024228,-5.213505,-9.971572,-13.472764
1007.984375,-5.105047,-2.858491,-4.731097,-7.316336
1007.988281,-1.911615,1.111417,-5.785060,-9.962054
1007.992188,-3.883151,-1.586901,-4.970118,-5.845901
1007.996094,-1.272283,-5.845978,4.007845,2.244796
1008.000000,-2.377122,-12.325308,-4.868244,-5.166223
1008.003906,-1.960144,-6.518136,1.456562,0.623925
1008.007812,5.282073,8.449790,1.410353,1.718132
1008.011719,7.100758,1.725909,8.861758,0.848203
1008.015625,10.324983,7.721486,2.311564,11.430823
1008.019531,1.315784,14.938564,4.168071,2.903871
1008.023438,12.810403,9.471261,7.609165,9.672728
1008.027344,7.781829,10.182079,8.569985,5.821407
1008.031250,7.400258,7.306340,10.874487,15.980476
1008.035156,7.790764,8.567502,12.175535,9.412296
1008.039062,8.213394,2.278679,9.410013,11.392955
1008.042969,6.327984,5.829818,7.173867,8.622852
1008.046875,0.226367,0.364773,-6.143009,-1.460300
1008.050781,-0.744341,-1.772938,-3.015361,1.555330
1008.054688,-6.278891,-1.298376,3.005163,-2.381028
1008.058594,-3.484229,-1.752987,-6.168374,-4.015520
1008.062500,-4.413586,-6.661689,-8.909850,-5.852715
1008.066406,-12.230913,-8.863851,-5.037704,-11.549800
1008.070312,-8.065132,-11.160923,-19.486906,-12.755160
1008.074219,-16.292675,-6.752432,-8.083266,-11.656386
1008.078125,-10.539867,-10.106276,-6.848326,-13.809318
1008.082031,-6.015277,-8.218914,-7.716262,-6.678027
1008.085938,-3.619450,-7.348589,-5.625879,-11.737145
1008.089844,-3.083301,-8.369080,-4.678000,-0.622470
1008.093750,-2.632175,0.616328,-2.556181,-3.582228
1008.097656,4.119529,-2.588595,0.890154,-6.953960
1008.101562,4.141561,3.286174,-1.818554,0.611610
1008.105469,1.926447,-0.668876,8.951061,0.737220
1008.109375,2.240611,10.504417,5.179433,11.943675
1008.113281,10.225013,13.324239,6.439673,12.562235
1008.117188,8.166311,11.324403,3.194395,6.355593
1008.121094,9.897522,8.065499,7.174123,7.860464
1008.125000,10.416661,11.973498,10.019334,9.923076
1008.128906,5.151172,3.401206,7.365433,12.388934
1008.132812,8.025726,4.774134,11.570790,12.563283
1008.136719,2.484706,1.465296,8.223640,3.689245
1008.140625,7.932697,7.002803,5.088800,4.878445
1008.144531,3.118775,3.725877,-1.920175,10.290954
1008.148438,0.375188,-0.318449,13.542229,0.139501
1008.152344,-3.062651,1.162347,1.129995,-6.592956
1008.156250,7.769617,-5.626326,-8.818601,-3.228242
1008.160156,-8.091877,-7.940332,-6.001546,-5.831562
1008.164062,-11.350758,-5.104710,-6.376072,-3.459476
1008.167969,-4.618652,-3.515497,-13.963899,-7.009463
1008.171875,-6.375807,-12.759935,-8.986133,-12.599030
1008.175781,-18.098132,-4.148711,-11.108058,-3.770056
1008.179688,-6.290083,-10.483741,-7.022194,-12.396516
1008.183594,-5.771432,-8.812850,-6.625907,-9.244696
1008.187500,-10.563382,-2.087690,-7.685434,-13.425004
1008.191406,-5.111570,-2.108610,-2.867412,-1.044586
1008.195312,1.778168,-4.083049,-8.522733,-5.817988
1008.199219,-9.890551,-0.162416,0.474185,2.619551
1008.203125,1.032899,2.386867,2.004832,6.759667
1008.207031,0.209929,3.308332,0.230959,7.337031
1008.210938,3.588352,11.475835,4.509412,8.121789
1008.214844,8.869039,2.362279,9.435705,8.602701
1008.218750,8.081516,7.301613,9.754707,13.699547
1008.222656,10.219113,3.480041,13.372078,3.976986
1008.226562,14.143366,7.074893,5.423124,9.706557
1008.230469,15.502851,10.306631,13.617715,13.758609
1008.234375,8.319288,12.049522,6.274414,9.624034
1008.238281,0.177945,7.959678,15.557947,3.461002
1008.242188,2.171489,1.032281,11.358313,8.721911
1008.246094,2.853550,8.548958,2.282389,-0.733319
1008.250000,-3.709886,6.528661,-4.383875,-6.719339
1008.253906,-4.861602,0.938255,-1.671453,-7.134310
1008.257812,-2.241854,-5.350619,-7.123584,-12.796867
1008.261719,-11.437108,-9.113539,-7.975029,-14.815845
1008.265625,-8.693512,-6.493282,-6.647417,-10.086688
1008.269531,-13.788172,-14.070603,-15.392578,-9.259322
1008.273438,-11.976297,-13.807919,-9.149576,-7.912537
1008.277344,-8.760702,-6.987550,-2.028023,-6.974089
1008.281250,-11.058678,-4.780665,-11.737410,-10.338914
1008.285156,-8.304157,-8.481781,-4.617705,-10.036836
1008.289062,-10.447668,0.998633,-19.929833,-5.587873
1008.292969,-6.357042,0.958633,-6.926746,-2.294524
1008.296875,-1.198828,-6.949244,-0.558035,1.528156
1008.300781,6.529234,-0.267765,-2.691067,-4.749976
1008.304688,7.945113,2.504224,3.014549,2.399651
1008.308594,6.687081,0.843541,7.751570,-3.593791
1008.312500,6.205831,5.203284,8.528039,9.356554
1008.316406,5.870522,8.764041,13.548081,4.804717
1008.320312,9.660015,6.297324,12.612658,12.945249
1008.324219,14.058356,7.732064,8.176136,8.018170
1008.328125,10.878272,8.274591,11.543341,8.046767
1008.332031,10.197608,21.296827,9.143905,8.492203
1008.335938,6.214691,6.929831,16.566320,13.804952
1008.339844,4.006742,8.936121,11.986484,6.544031
1008.343750,12.230588,1.627163,2.260107,-1.977625
1008.347656,-0.206533,0.404896,5.399940,-1.498505
1008.351562,-2.300113,-0.527460,2.974455,-3.969241
1008.355469,-7.568272,-0.241433,-1.675437,-3.863260
1008.359375,-8.772298,-5.466999,-5.232790,-3.461030
1008.363281,-6.009538,-0.792172,-6.783889,-9.761412
1008.367188,-9.176330,-12.705949,-5.901782,-7.642058
1008.371094,-0.958055,-12.444144,-8.919872,-9.529131
1008.375000,-11.934030,-3.293551,-5.391209,-7.372952
1008.378906,-10.681290,-7.401573,-14.845726,-11.723021
1008.382812,-11.988229,-10.907524,-14.642473,-3.005892
1008.386719,-2.214502,-2.060982,-11.252209,-8.473833
1008.390625,-6.657515,-6.768553,0.415397,-7.540381
1008.394531,0.078560,2.791478,-12.142733,5.018441
1008.398438,3.935529,-3.590330,-6.327637,3.659986
1008.402344,-5.695694,5.316655,-1.596282,-3.613946
1008.406250,4.022589,-0.568077,-1.384566,-5.335356
1008.410156,4.612766,7.138596,3.601217,0.953580
1008.414062,13.974803,1.536058,12.459845,1.248764
1008.417969,5.870106,14.732130,20.666585,10.354926
1008.421875,6.561443,12.312249,10.124155,8.665382
1008.425781,9.136583,11.131983,14.020029,8.251065
1008.429688,13.792790,15.434429,8.508215,11.066521
1008.433594,7.988951,10.213815,6.917057,12.323808
1008.437500,7.468140,8.921366,4.436188,8.443367
1008.441406,6.531766,11.220770,1.544636,5.586448
1008.445312,-2.545565,8.409378,3.425944,-2.200371
1008.449219,-2.045918,-0.575357,3.318683,0.783015
1008.453125,-2.057934,2.224042,-1.296184,1.711442
1008.457031,-4.567375,-2.291645,-5.856156,-4.483642
1008.460938,0.868700,-8.069535,-6.957413,-12.888448
1008.464844,-6.535150,-9.902377,-2.600108,0.269440
1008.468750,-3.878783,-5.575153,-8.957620,-7.997553
1008.472656,-12.786519,-8.721198,-14.048150,-14.296091
1008.476562,-9.012326,-12.695902,-9.125461,-13.449628
1008.480469,-7.046392,-0.982439,-10.901637,-12.809124
1008.484375,-13.989389,-11.358074,-12.405988,-7.211093
1008.488281,-1.414540,4.419636,-8.019017,-7.684871
1008.492188,-2.370414,-5.524730,-8.869963,-4.015644
1008.496094,-2.029459,-7.531279,0.271323,-3.240339
1008.500000,0.904290,4.124324,2.330247,3.019537
1008.503906,-1.212485,0.774964,0.796133,1.009250
1008.507812,3.466424,9.000331,-0.784648,5.385725
1008.511719,8.206239,2.798279,4.068770,8.034769
1008.515625,8.652034,9.668253,11.487719,8.064260
1008.519531,9.931929,11.947119,9.653713,3.803451
1008.523438,6.421106,13.582161,11.039858,9.429453
1008.527344,16.958267,10.557817,10.883376,11.647754
1008.531250,8.961474,13.937146,7.173282,6.216766
1008.535156,9.124127,5.447703,13.437469,15.049962
1008.539062,2.751423,10.149583,8.408020,6.249174
1008.542969,4.433738,3.379190,7.231848,3.545180
1008.546875,-1.038253,5.880069,5.288587,-2.317618
1008.550781,-0.861957,-5.367819,3.216662,-2.404717
1008.554688,-6.052639,-7.675193,-2.128302,-4.786479
1008.558594,2.224810,-6.388062,4.875452,-4.947394
1008.562500,-0.481529,-4.441846,1.585844,-1.132794
1008.566406,-8.854530,-0.716092,-7.580416,-5.787287
1008.570312,-12.825604,-7.028054,-16.044285,-11.050733
1008.574219,-12.292559,-15.793510,-17.379046,-17.216172
1008.578125,-9.013992,-8.541731,-4.231651,-8.380353
1008.582031,-16.314930,-10.422561,-15.854691,-14.092204
1008.585938,-3.092497,-8.323213,-2.664825,-5.008001
1008.589844,-8.574566,-3.849985,-6.868994,-13.502820
1008.593750,-0.941671,-3.350248,-3.580638,-4.041520
1008.597656,-1.357314,-2.735959,-6.043751,-8.273320
1008.601562,7.032539,-3.369565,7.394146,6.345655
1008.605469,1.138284,-1.795468,1.677558,-2.685941
1008.609375,8.566589,6.692416,7.777544,2.869361
1008.613281,10.739445,5.929521,16.021795,4.990148
1008.617188,8.713924,-0.209911,9.205558,7.656421
1008.621094,11.689446,5.917002,6.280432,10.284358
1008.625000,4.938320,5.598189,13.093373,9.474718
1008.628906,9.626924,3.713658,9.752601,9.525264
1008.632812,8.561241,3.629088,9.567027,2.297341
1008.636719,13.238674,6.849579,6.616935,6.283867
1008.640625,3.277478,11.305896,9.353834,4.262929
1008.644531,0.068831,4.720784,-0.464569,3.067696
1008.648438,-1.129633,-0.521938,-0.981742,1.130992
1008.652344,-7.896679,-1.452052,3.808697,-3.183555
1008.656250,-9.658885,0.029294,-2.722350,-1.438218
1008.660156,0.175162,-9.921124,-10.515462,-1.621703
1008.664062,-10.679473,-10.901278,-2.991456,-3.780222
1008.667969,-10.406724,-8.524312,-9.035903,-6.451552
1008.671875,-10.409841,-12.678371,-12.202415,-12.040680
1008.675781,-7.576897,-10.278245,-7.609924,-4.979231
1008.679688,-8.343089,-15.237180,-0.608495,-3.943566
1008.683594,-12.372156,-6.383332,-11.418180,-8.884026
1008.687500,-7.587035,-3.770456,-5.577918,-2.139728
1008.691406,-2.189701,0.469231,0.337690,-7.530511
1008.695312,-0.330893,-5.544424,-6.533834,0.831873
1008.699219,-0.340462,1.864743,-1.414163,2.100828
1008.703125,6.033409,1.743499,4.766137,3.835217
1008.707031,1.872981,6.584916,2.842786,7.169522
1008.710938,6.583037,6.304679,5.287673,4.684596
1008.714844,12.308245,8.889738,12.486212,4.855786
1008.718750,4.581970,8.933899,6.191974,6.873320
1008.722656,14.684951,4.020928,14.872472,8.804395
1008.726562,6.033053,10.347866,2.175938,2.003728
1008.730469,12.721402,16.859444,12.356181,0.519217
1008.734375,1.052585,14.276225,5.563930,4.032603
1008.738281,6.199898,6.708898,12.506027,3.959623
1008.742188,5.140873,8.878372,6.899046,5.781458
1008.746094,4.908152,-3.648154,2.485295,-0.267800
1008.750000,-2.038897,-0.497813,6.507818,4.334725
1008.753906,3.196688,-4.660383,-7.415197,-2.891135
1008.757812,-6.406223,-2.424775,-1.696785,-7.351744
1008.761719,-7.900974,-4.204507,-14.351330,-3.567061
1008.765625,-9.937586,-7.749343,-5.981719,-0.608480
1008.769531,-5.755232,-6.972341,-11.445187,-8.467595
1008.773438,-9.320128,-16.805117,-16.366719,-11.955880
1008.777344,-16.111003,-8.793795,-6.935998,-16.543567
1008.781250,-9.009279,-12.422087,-12.307448,-10.560030
1008.785156,-1.126039,-7.341536,-7.755206,-12.462954
1008.789062,-9.294918,-10.926859,-10.499620,-15.996564
1008.792969,-2.530996,-1.219226,-4.402422,-2.744421
1008.796875,-2.112334,-10.647696,0.189954,-3.460690
1008.800781,6.022345,0.407144,0.133887,-4.720227
1008.804688,-4.642080,-2.034971,-1.966260,4.357942
1008.808594,-2.453507,8.670654,1.401185,6.604558
1008.812500,7.256527,15.665195,3.991493,8.095536
1008.816406,5.798608,6.427001,8.403080,4.169183
1008.820312,8.576741,1.614516,3.859334,5.114269
1008.824219,8.907463,15.417641,8.783564,6.636905
1008.828125,12.497239,11.677503,16.307510,15.385852
1008.832031,3.977792,6.179216,16.406584,13.559983
1008.835938,1.598399,16.974735,15.862423,11.259120
1008.839844,15.662982,9.544141,2.037640,1.615975
1008.843750,0.052630,-3.180328,5.110617,4.664896
1008.847656,3.972759,1.602229,-0.151304,0.716531
1008.851562,-1.252386,-6.599798,-5.912075,10.888755
1008.855469,1.073347,-2.946470,1.921617,2.611007
1008.859375,-5.859707,0.153466,-4.256373,0.877395
1008.863281,-4.727702,-1.776378,-5.313041,-18.911980
1008.867188,1.598917,-14.355506,-9.086738,-12.645981
1008.871094,-13.811283,-9.548004,-7.457143,-14.969012
1008.875000,-15.246139,-5.028350,-12.915265,-15.065256
1008.878906,-18.452747,-8.421395,-9.675474,-10.431771
1008.882812,-4.142811,-7.315063,-10.054835,-16.383338
1008.886719,-5.503130,-4.713629,-9.591451,-9.967983
1008.890625,-1.927627,-3.330814,-5.790253,-0.922399
1008.894531,-5.132144,2.324664,-4.365933,-5.662362
1008.898438,4.637097,-4.818936,-3.037503,2.748870
1008.902344,-1.245203,2.305000,0.493752,-0.242096
1008.906250,3.402308,2.042239,-0.291110,2.403101
1008.910156,8.762624,7.246403,5.795621,1.211964
1008.914062,6.920606,3.440365,6.205990,8.307460
1008.917969,18.953635,9.524733,16.795189,1.177995
1008.921875,5.485086,8.211564,3.961101,6.363908
1008.925781,10.380325,8.632322,12.121324,11.233318
1008.929688,13.473484,1.873500,5.900833,8.357485
1008.933594,2.411159,10.078224,9.087229,8.462849
1008.937500,12.280370,8.040132,13.055474,8.149306
1008.941406,1.155098,3.706350,7.219027,10.907022
1008.945312,1.762377,1.728605,-1.779136,-0.689012
1008.949219,-0.233388,7.505805,-3.287919,3.701565
1008.953125,0.403038,0.615737,-5.963833,4.118352
1008.957031,-5.331721,-2.606768,-0.166568,-10.680315
1008.960938,-14.639619,-11.596540,-2.998661,-7.615494
1008.964844,-7.997433,-7.385750,-6.337187,-16.624250
1008.968750,-13.174760,-8.416106,-7.775267,-3.064393
1008.972656,-9.618049,-9.671643,-5.058897,-9.758683
1008.976562,-10.817199,-3.754945,-11.734181,-9.572043
1008.980469,-18.671856,-10.472401,-17.165891,-12.881957
1008.984375,-6.670287,-11.799585,-11.380077,-9.732035
1008.988281,1.637619,-6.226341,-8.698628,-3.143313
1008.992188,0.438979,-5.840942,-1.055469,-5.998729
1008.996094,-2.241945,-4.146627,2.044978,-8.070791
1009.000000,-0.590156,-0.720697,5.747711,6.441976
1009.003906,1.287464,-5.704921,2.835879,2.291570
1009.007812,-1.233327,7.060667,4.252239,4.644653
1009.011719,13.517432,7.054526,6.092578,4.755003
1009.015625,10.015744,13.497175,10.685962,4.286514
1009.019531,12.096434,0.455930,6.205392,8.391912
1009.023438,15.128188,14.580761,7.301931,13.256887
1009.027344,11.175796,17.433588,6.855901,9.234132
1009.031250,5.456035,12.670645,6.825501,8.535977
1009.035156,7.173864,11.832492,4.102299,9.414977
1009.039062,9.419992,7.915370,6.185257,-1.014906
1009.042969,5.430732,0.308014,4.427951,-1.162627
1009.046875,1.943397,3.258301,0.670994,-4.361489
1009.050781,5.150790,0.683531,5.821283,-1.081005
1009.054688,-7.591799,-8.196593,-2.591901,0.519849
1009.058594,-5.037118,-16.255506,-10.032214,-4.245490
1009.062500,-8.138837,-4.484859,-14.546099,-9.739383
1009.066406,-6.892265,-11.710159,-8.855112,-6.494015
1009.070312,-10.799918,-15.580433,-8.221000,-11.020670
1009.074219,-14.853970,-4.104842,-7.649035,-5.557821
1009.078125,-7.503465,-5.511983,-4.345453,-8.607289
1009.082031,-8.297179,-14.420358,-11.388311,-11.118149
1009.085938,-8.821005,-5.108384,-9.422646,-13.407649
1009.089844,-10.169997,3.098689,-7.346911,-8.060532
1009.093750,-3.262096,-2.273327,-2.600180,-9.378826
1009.097656,-3.794748,-6.734551,1.974377,5.089051
1009.101562,-4.028481,0.450046,0.090437,3.015615
1009.105469,7.927148,-1.175128,8.737318,0.445221
1009.109375,9.491636,8.724591,1.063426,9.549463
1009.113281,3.792372,3.581312,12.054711,2.106188
1009.117188,12.284583,12.577095,2.321365,7.826023
1009.121094,9.070745,14.677807,15.245842,5.700032
1009.125000,9.935968,6.714108,20.139112,13.253464
1009.128906,5.579432,12.382979,13.177317,11.287169
1009.132812,5.601509,12.025558,10.521433,14.565299
1009.136719,1.568794,3.553524,10.676033,8.173561
1009.140625,6.277206,16.029620,2.982209,5.450239
1009.144531,2.869898,7.607367,8.862199,4.159990
1009.148438,3.187167,1.728155,6.326553,-0.410922
1009.152344,-8.954421,-1.543407,-1.156504,0.948524
1009.156250,-6.904374,-0.143623,-2.180447,-3.082519
1009.160156,-6.980335,-18.185492,-9.407547,-2.674313
1009.164062,0.911061,-9.778023,-6.151606,-10.944676
1009.167969,-10.146948,-5.101007,-5.179636,-5.813584
1009.171875,-15.090533,-11.135867,-11.074866,-5.208767
1009.175781,-8.137353,-6.113742,-12.684763,-14.704198
1009.179688,-14.795032,-11.943800,-2.197207,-14.645821
1009.183594,-5.783489,-7.973733,-3.488459,-6.029994
1009.187500,-4.266882,-10.357287,-10.955167,-7.592998
