timestamp,TP9,AF7,AF8,TP10
1000.000000,8.607032,1.970932,-5.506793,5.939396
1000.003906,3.364496,2.109715,-3.874986,-1.743623
1000.007812,-1.069097,2.413780,8.619820,7.034352
1000.011719,5.051217,2.641498,5.276495,5.005716
1000.015625,8.438298,10.161341,8.818329,5.641612
1000.019531,6.252091,10.318357,8.749826,6.696467
1000.023438,7.998517,12.325084,8.386062,12.902117
1000.027344,16.077333,10.364181,11.849913,4.661443
1000.031250,10.287221,4.652037,8.910665,2.726531
1000.035156,16.231562,8.205327,14.037364,10.984917
1000.039062,12.654115,9.296059,4.130806,4.980011
1000.042969,6.867828,11.878072,2.685007,8.561391
1000.046875,-0.246846,-0.772306,11.707490,-0.453705
1000.050781,-3.199038,1.097345,-1.189873,4.274282
1000.054688,-7.083802,-2.207083,0.513607,-1.704270
1000.058594,-2.411061,-5.062314,-0.745449,-7.642670
1000.062500,-8.866583,-7.968610,-8.733575,-5.090891
1000.066406,-4.292793,-3.730196,-6.253723,-11.373113
1000.070312,-7.091850,-5.812513,-15.196152,-14.805903
1000.074219,-5.876614,-11.558771,-11.552940,-9.331563
1000.078125,-10.917716,-14.709277,-6.504618,-11.404820
1000.082031,-3.226405,-10.725630,-5.867146,-7.657474
1000.085938,-11.052905,-6.621462,-4.967965,-10.707583
1000.089844,-3.118681,-1.138892,-7.315529,-10.775403
1000.093750,-1.260945,-0.032694,-0.386705,-4.081701
1000.097656,-1.211196,4.217541,-2.479861,3.964980
1000.101562,2.931984,1.171861,-0.670695,0.466887
1000.105469,3.264792,8.137155,6.021161,12.570584
1000.109375,7.654455,-3.075328,9.334035,9.711083
1000.113281,11.693255,8.644667,1.117424,8.371930
1000.117188,11.324167,6.842692,16.809196,14.242165
1000.121094,11.907107,12.898812,11.315135,0.614825
1000.125000,8.295906,6.443308,8.114721,5.102259
1000.128906,4.597607,9.499723,10.464305,11.499101
1000.132812,6.157616,1.894344,6.293532,10.166219
1000.136719,7.673769,10.725606,5.926081,6.616936
1000.140625,5.020819,4.503604,6.016460,8.190120
1000.144531,-1.345864,0.776989,8.401318,4.665172
1000.148438,1.903082,0.262557,-4.213724,3.858722
1000.152344,-0.147968,-6.928735,-8.579645,-0.356944
1000.156250,-4.262699,-9.485086,-5.022264,-3.612412
1000.160156,-4.461954,-3.162570,0.626282,-5.291966
1000.164062,0.395000,1.130733,-8.370045,-8.756670
1000.167969,-12.467311,-18.162328,-13.151931,-10.635418
1000.171875,-4.621553,-10.699081,-8.560353,-8.343714
1000.175781,-12.623459,-12.686528,-11.411120,-8.011868
1000.179688,-10.161910,-3.510739,-14.915358,-8.665661
1000.183594,-2.926825,-8.245176,-12.652614,-0.930860
1000.187500,-8.455603,-7.999106,-5.645407,-7.564191
1000.191406,0.398968,-7.731105,-3.584193,1.560771
1000.195312,-0.173854,-9.059621,2.686360,-5.985724
1000.199219,5.163694,3.662453,-4.488034,-5.016842
1000.203125,5.602400,-3.524051,-1.191705,7.478349
1000.207031,7.069149,-1.127568,2.523027,0.754095
1000.210938,5.269919,6.651028,2.118777,5.795296
1000.214844,5.038648,7.332505,3.772674,7.046362
1000.218750,14.494118,13.728669,9.853064,12.908380
1000.222656,10.044550,10.554628,9.123252,14.022591
1000.226562,5.940045,8.968407,5.992822,9.143528
1000.230469,15.105819,8.046016,8.040772,9.759475
1000.234375,8.800075,9.967561,5.265102,3.351141
1000.238281,3.522708,9.442188,1.528342,10.142246
1000.242188,6.149115,2.307552,9.650642,2.811073
1000.246094,-0.763477,-2.025882,6.480987,-0.776289
1000.250000,-1.368404,3.014082,1.303181,-1.805597
1000.253906,-0.197829,-4.497856,-5.913176,-0.696854
1000.257812,-2.685713,0.479791,-0.499529,-7.082375
1000.261719,-12.580863,-6.256369,-5.366210,-8.269724
1000.265625,-3.054699,-8.659905,-3.024633,-14.597494
1000.269531,-11.949594,-9.961567,-6.118906,-9.276548
1000.273438,-2.952910,-1.988081,-13.942678,-11.667932
1000.277344,-8.940428,-6.925712,-7.268802,-7.102436
1000.281250,-11.872756,-7.008141,-6.966291,-9.732909
1000.285156,-11.378725,-5.718263,-15.898210,-5.107845
1000.289062,-8.395324,-7.299774,-13.652736,0.162550
1000.292969,1.686883,-7.753486,-8.660320,-2.391998
1000.296875,4.284844,-3.785855,-3.842241,-3.135566
1000.300781,5.083288,0.108150,1.657776,-0.521831
1000.304688,2.165491,-1.055221,5.547468,0.883061
1000.308594,7.093933,2.946148,8.711669,9.014871
1000.312500,6.823450,4.273193,16.679141,1.545112
1000.316406,13.146619,7.128550,9.157780,6.747326
1000.320312,12.865344,4.683763,12.749994,16.106581
1000.324219,14.538766,5.400904,14.286676,8.774523
1000.328125,13.308026,13.845500,12.451314,7.443113
1000.332031,12.846539,16.815878,0.428272,11.858565
1000.335938,5.853198,4.603377,7.917598,14.631134
1000.339844,3.735925,0.557724,3.197678,7.828763
1000.343750,6.752941,4.756635,2.766638,2.725620
1000.347656,7.125266,5.171498,4.459970,7.457820
1000.351562,0.670834,1.544972,-1.853486,-4.574046
1000.355469,7.548758,-1.625073,-3.910046,5.356898
1000.359375,-5.501140,-3.816178,-4.508821,-3.600862
1000.363281,-10.299217,-1.478810,-0.781444,-11.644769
1000.367188,-5.837879,-9.473416,-4.394059,-10.552549
1000.371094,-9.079073,-8.746525,-12.676412,-18.160312
1000.375000,-10.196788,-12.234286,-11.137652,-5.403804
1000.378906,-4.578644,-10.393099,-9.451479,-9.248396
1000.382812,-8.369594,-14.533681,-12.576196,-7.383634
1000.386719,-6.467621,-8.079189,-10.659070,-11.686629
1000.390625,-1.972958,-4.714699,-9.491282,2.050672
1000.394531,2.703211,-5.146430,1.414583,-3.002526
1000.398438,-4.683838,0.988800,-5.911094,-0.216222
1000.402344,6.419713,2.115259,0.203421,1.052166
1000.406250,9.134024,1.206346,6.904358,5.616929
1000.410156,8.034503,-0.207999,9.188639,-1.955494
1000.414062,9.328130,8.378446,3.262618,10.028124
1000.417969,4.923615,11.121295,11.330713,6.835242
1000.421875,12.359014,8.609277,9.658657,6.915575
1000.425781,4.478134,5.629519,13.600619,11.378524
1000.429688,5.319706,17.828388,20.282950,14.314433
1000.433594,6.835070,5.544589,11.068555,9.394450
1000.437500,8.356834,8.352442,11.132372,11.239359
1000.441406,0.125027,10.212513,4.811047,10.652609
1000.445312,12.559767,-0.126231,3.063399,3.892085
1000.449219,1.981462,0.744436,0.489150,5.210182
1000.453125,2.750649,1.784013,-3.279941,-9.142525
1000.457031,0.012545,-0.591044,-2.326287,-6.097449
1000.460938,-5.517348,-0.149602,5.906043,-3.023921
1000.464844,4.979883,-8.593270,-14.865991,-8.882837
1000.468750,-13.529635,-4.178262,-11.038724,-12.511291
1000.472656,-5.832771,-9.200359,-12.613312,-2.426362
1000.476562,-9.643369,-12.963749,-11.034959,-8.634810
1000.480469,-8.102225,-14.925764,-2.444981,-10.514481
1000.484375,-5.607735,-13.775533,-11.622957,-4.012307
1000.488281,-7.643647,-6.529417,-2.709957,-7.553665
1000.492188,-1.420932,-7.741312,-9.417430,-9.805544
1000.496094,5.121654,2.001946,-10.495438,3.969004
1000.500000,7.262940,-1.796893,-3.536729,-1.932921
1000.503906,2.620088,2.819230,9.311893,1.668873
1000.507812,3.818317,6.710382,6.130738,6.770362
1000.511719,6.577704,4.971545,6.955662,10.841861
1000.515625,10.141065,6.654755,3.414220,14.371265
1000.519531,9.129585,15.496909,15.304863,14.058898
1000.523438,6.511738,7.606179,9.244295,9.836859
1000.527344,15.478138,6.361804,12.335579,8.839454
1000.531250,10.742689,10.667081,6.762560,13.474783
1000.535156,8.487830,17.563649,4.020093,5.081455
1000.539062,7.190255,5.224781,4.460729,10.052035
1000.542969,2.580839,7.904338,9.440778,8.371034
1000.546875,3.015894,6.101081,10.140233,-5.064790
1000.550781,-1.639336,4.958521,2.680755,-1.415744
1000.554688,-9.388585,-4.632778,-7.410453,-8.501433
1000.558594,0.133399,-7.862435,-6.059712,-5.117918
1000.562500,-3.295922,-2.648804,-2.010527,-11.358568
1000.566406,-12.716949,-6.571445,-3.671865,-13.107180
1000.570312,-16.665333,-10.162782,-5.610870,-11.669719
1000.574219,-7.889991,-13.453731,-9.225324,-14.706741
1000.578125,-16.607499,-9.837092,-3.665023,-12.402686
1000.582031,-10.146439,-2.328649,-9.723920,-8.983112
1000.585938,-8.519742,-5.871890,-6.300736,-10.861098
1000.589844,-11.176389,-10.364879,-5.032128,-2.720919
1000.593750,-0.606747,2.136677,-13.236800,-4.959503
1000.597656,-4.650577,2.727920,1.225782,6.054336
1000.601562,3.196780,9.864098,9.911099,-6.376332
1000.605469,2.463559,3.029632,2.582382,7.081483
1000.609375,14.501096,1.431075,3.587795,3.404896
1000.613281,10.904348,1.787075,8.477116,9.812859
1000.617188,11.700577,14.480112,14.781236,5.442420
1000.621094,11.594658,11.972391,10.462719,9.264325
1000.625000,12.496155,9.768299,21.715314,13.122243
1000.628906,14.681999,8.211208,4.098419,5.471624
1000.632812,12.490754,7.882672,9.369038,3.631535
1000.636719,5.161481,13.084965,5.433821,14.779572
1000.640625,8.689344,-0.444793,8.460049,8.155000
1000.644531,4.011714,10.251770,10.082385,0.802738
1000.648438,-4.694076,5.895230,2.981778,-0.675662
1000.652344,1.959199,-2.278435,6.442262,-0.615525
1000.656250,2.630828,-0.607649,-5.045943,-0.350557
1000.660156,-2.487991,3.547028,-6.061644,-8.344395
1000.664062,-7.147211,-3.337961,-6.713504,-9.621863
1000.667969,-12.140570,-6.301623,-7.961658,-12.573851
1000.671875,-11.936791,-2.004168,-14.899789,-2.799557
1000.675781,-14.666273,-9.235106,-10.167868,-9.113258
1000.679688,-11.206152,-11.353898,-12.740471,-8.514486
1000.683594,-4.072538,-7.527645,-18.854228,-9.283943
1000.687500,-6.211011,-5.430175,-4.032026,-1.505607
1000.691406,-1.327118,-2.485907,-3.418755,-7.592453
1000.695312,-2.240677,-2.984138,-3.161223,-7.778784
1000.699219,-0.117025,3.588325,0.237165,2.522239
1000.703125,-0.533580,6.654024,-2.608937,10.652418
1000.707031,7.659975,2.943183,6.522830,4.307414
1000.710938,2.693969,6.066151,6.371320,2.574154
1000.714844,12.569610,9.197442,4.317019,11.798534
1000.718750,5.337221,12.392273,10.460680,8.724936
1000.722656,8.607199,12.202130,13.872334,12.140702
1000.726562,15.190858,8.835692,16.464826,12.353781
1000.730469,9.837904,8.243955,2.449743,8.501340
1000.734375,5.880331,5.290832,5.697704,3.255527
1000.738281,2.235289,4.452455,6.659701,3.764709
1000.742188,8.768978,1.731516,9.077137,4.643098
1000.746094,7.090931,7.616614,12.194295,5.199919
1000.750000,-0.238773,-0.818530,2.301656,3.663882
1000.753906,-2.918590,4.933256,-4.208957,-4.939255
1000.757812,-1.795862,-3.419711,3.440326,-6.299701
1000.761719,-7.145771,-3.059168,-7.067125,-2.904251
1000.765625,-6.738349,-4.628182,-2.748936,-12.109180
1000.769531,-14.169879,-12.683768,-8.104267,-9.556554
1000.773438,-15.500722,-5.554334,-0.446258,-7.879572
1000.777344,-9.016061,-10.048037,-12.497867,-8.215304
1000.781250,-12.433155,-7.772010,-10.252953,-1.430941
1000.785156,-13.821129,-8.155115,-9.003044,-13.603593
1000.789062,0.061430,-5.641039,-7.824001,-8.541255
1000.792969,-2.336483,-10.420667,-4.833540,-3.502250
1000.796875,-8.095480,-1.614535,-6.352853,-3.033777
1000.800781,3.414974,0.277899,4.784673,3.132939
1000.804688,2.746543,3.250971,4.291106,0.041982
1000.808594,11.652338,7.200270,12.568870,12.702046
1000.812500,8.729197,8.297743,-1.748201,8.017635
1000.816406,8.426016,0.606195,9.676406,8.517461
1000.820312,4.376348,11.822009,4.498520,13.776244
1000.824219,11.575187,11.936332,7.522515,3.098695
1000.828125,16.495700,7.241652,4.923033,8.089827
1000.832031,7.993676,8.019246,6.969329,8.153018
1000.835938,5.712498,7.535437,4.351805,6.248883
1000.839844,-1.287175,7.550629,9.058373,0.427883
1000.843750,0.488967,-5.482367,-5.590269,4.700406
1000.847656,-0.604084,-1.558013,-2.143550,-1.508685
1000.851562,-6.231870,-5.290374,0.187834,-0.336689
1000.855469,-8.308035,-0.471616,-15.283415,5.279161
1000.859375,-4.260683,-4.046396,-8.734618,-4.036535
1000.863281,-6.662134,-6.763557,-3.816344,-7.669989
1000.867188,-15.647178,-12.491476,-11.225331,-6.607001
1000.871094,-6.586069,-9.092114,-7.496635,-8.763121
1000.875000,-10.163672,-11.264764,-12.044706,-15.765167
1000.878906,-14.318252,-17.816887,-3.066658,-7.695566
1000.882812,-6.741900,-14.238233,-14.025636,-9.053113
1000.886719,-6.198762,-2.553428,-2.588120,-7.193805
1000.890625,-4.399733,-6.715874,-5.894860,-6.849735
1000.894531,-1.560127,-6.244880,-1.095976,-0.115819
1000.898438,-0.482809,-2.097854,1.756521,-12.480078
1000.902344,-0.617211,-2.660198,3.460972,6.725079
1000.906250,5.101450,-0.664493,2.926368,8.899750
1000.910156,2.406895,-1.251372,0.171147,6.495238
1000.914062,7.239266,9.525835,10.239735,2.835930
1000.917969,12.714328,4.458462,17.522057,6.516200
1000.921875,12.003523,12.976946,13.158867,17.461473
1000.925781,12.853434,7.349548,14.132245,17.688120
1000.929688,4.651686,12.293034,10.691527,6.270000
1000.933594,10.236577,10.173472,10.437279,10.324759
1000.937500,13.015162,6.700390,6.679408,8.498897
1000.941406,7.121192,4.296026,0.425018,3.789471
1000.945312,-6.671697,-0.829242,2.375468,0.063201
1000.949219,6.049395,8.453523,-4.309732,9.962655
1000.953125,1.890300,1.199214,-1.755772,-1.009061
1000.957031,-7.235706,-4.343556,-4.518436,0.824885
1000.960938,-3.377657,-8.126539,-4.452112,-3.272620
1000.964844,-2.311001,-8.319932,-6.976797,-10.621283
1000.968750,-18.227409,-14.475605,-9.119400,-6.417227
1000.972656,-11.317488,-7.832805,-6.441211,-9.593930
1000.976562,-11.864883,-11.325639,-8.681794,-20.791728
1000.980469,-15.815107,-10.280202,-8.004937,-10.707765
1000.984375,-6.460808,-9.787891,-3.489355,-9.508830
1000.988281,-6.391952,-9.672061,-7.627226,-9.416649
1000.992188,-7.146319,-10.210099,-4.621015,-0.551605
1000.996094,-4.003647,4.864933,-8.285592,2.753691
1001.000000,-6.049882,3.150476,0.038867,2.005677
1001.003906,1.429376,-1.324504,6.296093,5.933934
1001.007812,8.531579,3.772817,10.570796,1.600076
1001.011719,6.374369,-0.087871,0.605719,7.341566
1001.015625,10.588407,6.148475,2.089686,9.142977
1001.019531,12.988165,12.984417,10.580909,10.458323
1001.023438,12.100000,4.981331,12.686430,9.883490
1001.027344,6.025425,6.364859,11.483946,1.293555
1001.031250,8.210086,9.269806,6.526015,15.901870
1001.035156,3.403595,9.064307,8.961655,2.408398
1001.039062,6.806636,6.830757,8.072657,9.847041
1001.042969,1.825565,1.848134,11.003004,4.556623
1001.046875,3.397172,2.126838,-5.138295,9.851708
1001.050781,2.128326,1.572810,1.262779,-1.873396
1001.054688,-2.900641,-1.841087,-1.971549,-1.454172
1001.058594,-7.835452,-13.058832,-5.052140,0.019268
1001.062500,-3.894086,-11.039222,-9.057248,-8.156049
1001.066406,-6.161837,-3.636567,-12.198414,-6.916326
1001.070312,-13.273608,-2.542344,-10.759822,-9.575773
1001.074219,-10.536675,-14.904131,-11.808683,-17.094315
1001.078125,-18.503247,-3.458677,-15.160490,-4.937072
1001.082031,-2.074942,-10.712479,-5.108377,-11.129533
1001.085938,-5.442229,-11.627682,-6.296264,-5.916755
1001.089844,-4.402698,-10.201716,-10.920970,-5.083254
1001.093750,-7.635455,-2.401610,-3.955445,-5.846178
1001.097656,3.438770,-0.527353,-6.308873,-1.165023
1001.101562,3.899956,-2.161507,-0.801892,4.567732
1001.105469,6.901254,11.493309,5.892310,1.428904
1001.109375,6.251849,6.560392,8.710376,5.994552
1001.113281,6.491760,5.222805,-0.083260,6.351662
1001.117188,12.839861,1.515359,11.572744,12.572151
1001.121094,10.262010,12.070650,11.861786,7.205051
1001.125000,12.364820,10.706880,14.994143,11.016555
1001.128906,8.520947,6.709220,9.429609,20.879348
1001.132812,12.356594,9.394719,15.671899,12.012689
1001.136719,3.781113,2.539573,6.346859,6.945529
1001.140625,12.405284,8.290620,2.734113,5.372329
1001.144531,8.834297,2.354705,4.821092,-6.053725
1001.148438,1.521609,10.102988,0.826047,-1.012315
1001.152344,-6.074870,-4.261776,-3.890675,-3.796844
1001.156250,-5.703671,0.461573,4.270376,-8.555080
1001.160156,-8.293238,0.083837,-12.188998,-6.777606
1001.164062,-10.198006,-10.204727,-7.358983,-5.492259
1001.167969,-15.715896,-4.487785,-6.494846,-8.922296
1001.171875,-5.049401,-10.330428,-13.274470,-5.366281
1001.175781,-17.401920,-14.358237,-9.307058,-12.955911
1001.179688,-12.093033,-3.025717,-8.927427,-10.774926
1001.183594,-3.752268,-2.609987,-3.259784,-1.388389
1001.187500,-4.818699,-7.685953,-11.893011,-11.505962
1001.191406,-6.396182,1.374643,-4.992748,-7.788167
1001.195312,-2.371641,-7.059329,2.489198,-0.331913
1001.199219,6.097278,-9.104091,4.082615,2.482186
1001.203125,0.324165,5.957752,-2.620540,1.243858
1001.207031,-0.312765,0.976389,7.109816,6.135696
1001.210938,6.078592,7.517486,1.875956,5.690610
1001.214844,11.340696,10.608025,3.174808,14.432017
1001.218750,5.213544,5.318267,5.966098,9.602228
1001.222656,17.299062,15.752159,11.447418,-0.966942
1001.226562,13.393273,7.225288,5.142662,3.489239
1001.230469,10.359616,7.323359,14.917012,8.268069
1001.234375,7.759575,1.487597,12.208156,13.217149
1001.238281,1.107686,9.613962,6.703613,0.118731
1001.242188,6.047851,0.969043,7.497495,-2.415547
1001.246094,11.295721,-0.804968,-3.465347,1.552175
1001.250000,5.809452,-2.703088,-2.497958,2.111206
1001.253906,1.958966,-2.991406,-5.357795,-0.674764
1001.257812,-11.110445,-8.279549,-6.468814,-2.918991
1001.261719,-10.619906,-8.199771,-6.221474,-3.157673
1001.265625,-7.639889,-6.348025,0.293637,-8.315685
1001.269531,-8.615910,-15.097591,-12.418524,-8.790645
1001.273438,-0.336737,-6.944834,-13.943651,-7.035731
1001.277344,-9.232107,-9.441965,-18.612581,-8.052172
1001.281250,-3.586087,-8.157957,-14.154231,-6.768230
1001.285156,-7.466591,-18.124571,-5.070954,-12.689661
1001.289062,-0.182832,-6.672651,-6.633767,-6.476204
1001.292969,-7.712495,-2.099331,-4.020862,-0.037337
1001.296875,-0.847460,-0.188610,-6.003054,-1.989863
1001.300781,9.078949,2.011390,4.156857,0.570683
1001.304688,2.013027,10.478407,2.176182,7.096319
1001.308594,1.052315,-0.212609,3.849410,10.859853
1001.312500,10.538674,8.690212,11.316148,2.135740
1001.316406,-0.231685,5.935766,7.364783,1.432841
1001.320312,16.124921,11.891136,14.351712,6.949256
1001.324219,17.087358,5.213315,6.648583,16.526672
1001.328125,16.180907,13.826269,3.486761,12.442874
1001.332031,7.561477,6.334918,10.999151,6.971776
1001.335938,4.823373,9.445481,11.794095,10.048043
1001.339844,8.660049,12.325005,9.246113,5.410842
1001.343750,1.699274,4.388450,0.629268,-1.048488
1001.347656,1.549179,2.021782,0.088549,8.003448
1001.351562,-9.716568,-0.323398,0.532415,-1.729177
1001.355469,-3.679077,1.663368,-6.330202,-3.856550
1001.359375,-5.763920,-10.430219,-2.213416,-7.934670
1001.363281,-4.968372,-11.482840,-12.342763,-1.919993
1001.367188,-7.706014,-2.709456,-11.848009,-12.457436
1001.371094,-9.575055,-12.620780,-6.146637,-8.182258
1001.375000,-11.590208,-14.996645,-8.512361,-7.327594
1001.378906,-3.104994,-7.877828,-6.785804,-5.836170
1001.382812,-5.493392,-3.785883,-5.667357,-8.252393
1001.386719,-7.300331,-6.020421,-10.189710,-8.684804
1001.390625,-5.459270,-5.131849,-7.701650,-5.530954
1001.394531,-3.521498,2.966814,7.491368,-4.017969
1001.398438,5.248446,3.108942,2.503858,-5.516418
1001.402344,11.525699,1.488258,-3.108708,6.454912
1001.406250,-1.073025,10.411035,12.916457,13.069063
1001.410156,1.883434,12.398045,7.284405,4.767773
1001.414062,5.657781,0.574539,11.787014,13.599210
1001.417969,4.238588,10.035552,10.694226,5.795106
1001.421875,10.589480,13.738730,11.142105,6.444843
1001.425781,10.001495,9.504107,9.127675,5.794949
1001.429688,16.391062,18.933502,8.743087,10.549758
1001.433594,11.304995,9.967230,10.379578,3.604845
1001.437500,10.895998,10.969718,12.368631,5.933859
1001.441406,4.496466,12.301996,4.473991,0.439191
1001.445312,2.914168,0.841674,4.733116,1.271228
1001.449219,5.153495,-0.650475,1.837073,-0.347468
1001.453125,-2.405922,-1.529278,6.695467,-1.249727
1001.457031,-9.080350,3.830460,-7.718308,6.560629
1001.460938,-4.640330,-0.010048,-10.867729,-2.088144
1001.464844,-3.213608,0.673278,-9.507285,-6.185824
1001.468750,-8.437455,-11.139736,-16.355039,-8.824731
1001.472656,-11.718656,-2.711566,-4.314897,-2.113254
1001.476562,-10.207505,-5.152976,-10.174859,-5.329044
1001.480469,-17.506574,-5.923439,-4.717070,-3.544895
1001.484375,-12.720563,-11.068827,-7.447735,-7.764765
1001.488281,-4.531308,-5.672111,-6.680089,-5.716329
1001.492188,-6.257679,-5.113010,-10.641098,-3.611834
1001.496094,-0.390404,0.413795,-7.943097,-1.324237
1001.500000,-2.616703,-6.858239,-3.263460,0.435634
1001.503906,3.996644,2.451823,5.704635,12.396359
1001.507812,12.271667,6.861838,-0.979199,4.824668
1001.511719,2.437053,6.008931,10.941179,8.728135
1001.515625,10.249908,4.200702,18.008548,7.992579
1001.519531,6.237558,6.767668,6.090892,3.621965
1001.523438,10.075763,9.985643,6.665116,11.705269
1001.527344,0.681241,4.923067,-0.721431,13.466280
1001.531250,12.881290,13.950520,10.521009,7.777555
1001.535156,8.100914,10.190044,8.505992,9.855636
1001.539062,-1.449984,7.774455,2.483778,8.039761
1001.542969,1.972879,1.639735,1.960743,3.928998
1001.546875,1.974721,-0.979359,6.539109,2.025634
1001.550781,0.970921,5.430254,1.619373,-5.126742
1001.554688,-4.787078,-4.159039,0.656749,-4.703756
1001.558594,-4.261995,-8.863456,2.248505,-13.120583
1001.562500,-5.310702,-0.791807,-12.074509,-2.504607
1001.566406,1.812602,-7.283930,-9.333187,-6.515697
1001.570312,-11.572974,-15.660594,-13.420514,-14.364071
1001.574219,-12.395562,-5.188559,-6.888069,-7.785668
1001.578125,-6.760615,-5.567179,-15.217020,-10.162677
1001.582031,-3.628359,-14.467116,-5.763962,-6.718142
1001.585938,-11.211006,-0.543169,-13.101422,-10.098155
1001.589844,-7.495640,-1.912535,-14.018617,-9.307982
1001.593750,-6.037061,-4.339351,-8.785217,-8.066731
1001.597656,-1.585799,-3.383213,-0.146850,-0.003935
1001.601562,-6.325436,5.098976,0.526224,3.427693
1001.605469,8.189540,9.663346,9.464559,3.262806
1001.609375,4.199192,0.043985,3.542093,-6.227411
1001.613281,11.012847,8.020121,8.274853,5.843802
1001.617188,7.680102,1.961979,12.168682,8.403827
1001.621094,12.759736,15.827126,16.506604,11.473613
1001.625000,14.341629,10.190011,6.550153,11.915612
1001.628906,9.405379,5.225278,15.825121,7.150192
1001.632812,11.040417,9.578286,6.851235,12.244580
1001.636719,6.359304,10.668169,10.128959,5.281632
1001.640625,5.417690,2.083583,1.082764,1.843783
1001.644531,-2.303797,4.514220,-1.302426,-3.364971
1001.648438,-1.426122,-5.294866,6.045460,3.150738
1001.652344,-2.880524,5.885334,-0.866023,-7.550672
1001.656250,-1.797318,-5.155717,-0.498668,-9.958683
1001.660156,-4.298220,-2.026379,-2.013004,-5.874789
1001.664062,-4.909139,-4.611431,-8.758573,-5.070246
1001.667969,-5.883875,-1.666541,-11.008969,-4.281591
1001.671875,-11.888129,-8.411767,-6.667501,-10.323068
1001.675781,-3.317450,-8.217510,-9.666587,-5.636520
1001.679688,-9.161483,-9.710768,-14.584910,-4.201118
1001.683594,-14.543221,-11.593583,-7.016826,-11.615041
1001.687500,-7.798824,-8.600342,-6.230874,-11.244154
1001.691406,0.524468,-11.666420,-4.449724,-14.383787
1001.695312,-5.800139,-4.018485,-8.756981,-3.965561
1001.699219,-1.124360,4.777428,2.047721,-1.853163
1001.703125,5.592529,4.530014,-2.455100,5.562085
1001.707031,7.900465,2.003452,2.922648,11.242510
1001.710938,13.052131,9.613544,8.505964,7.814748
1001.714844,9.672415,5.438598,8.129450,13.700860
1001.718750,13.773862,13.812350,12.122493,10.252835
1001.722656,12.404772,2.275177,8.320479,6.221289
1001.726562,10.856454,8.651253,5.960381,3.415252
1001.730469,14.680265,6.367347,13.696902,7.717931
1001.734375,1.456234,5.494649,11.633270,9.610188
1001.738281,-1.823155,10.070324,2.690739,4.611106
1001.742188,1.204250,2.584988,7.594001,6.946224
1001.746094,2.640822,5.473341,9.279639,-0.187628
1001.750000,-1.457910,-0.082758,3.299715,-0.092439
1001.753906,-3.272914,-1.608624,-3.720600,-3.266678
1001.757812,-6.553183,-6.637383,-5.059128,-5.006901
1001.761719,-7.366731,-10.544493,-3.531181,-2.807480
1001.765625,-15.336973,-5.581053,-7.885138,-8.294565
1001.769531,-9.964216,-2.028760,-12.590811,-3.064571
1001.773438,-4.223984,-14.577421,-9.882639,-11.843150
1001.777344,-7.193927,-9.429335,-3.709785,-5.561633
1001.781250,-12.145185,-7.665902,-8.843130,-11.429527
1001.785156,-4.832806,-1.261397,-14.705113,-8.187756
1001.789062,-10.888551,-4.189411,-8.176569,-2.923053
1001.792969,-7.469956,-7.705037,-3.134706,-4.686523
1001.796875,4.553287,-0.391226,-2.721279,-1.530874
1001.800781,3.655754,6.105539,4.708626,-4.466160
1001.804688,-2.117307,2.021050,9.602552,3.696586
1001.808594,1.237784,7.333938,4.022027,3.174075
1001.812500,4.466158,12.727411,8.122478,14.175818
1001.816406,9.376372,17.618729,6.571001,10.914482
1001.820312,10.763121,8.241921,10.817837,8.698373
1001.824219,4.234092,9.344053,10.561741,10.743289
1001.828125,4.827364,17.585186,9.567423,1.519824
1001.832031,11.443561,5.375551,11.654401,15.951998
1001.835938,13.580442,12.139413,2.341871,2.859836
1001.839844,1.300214,7.321289,6.442979,5.148124
1001.843750,12.463280,2.435305,6.013519,6.295077
1001.847656,1.959943,-2.509077,-1.970811,3.506975
1001.851562,4.567347,8.869334,1.267920,0.481097
1001.855469,1.461712,-6.751617,-6.887402,-11.205720
1001.859375,-2.111840,-0.654388,-7.149705,-5.207507
1001.863281,-9.192737,-5.477936,-12.377875,0.695487
1001.867188,-10.451881,-7.979138,-15.341788,-15.386330
1001.871094,-3.107310,-18.063856,-10.704706,-10.984138
1001.875000,-11.475425,-12.880414,-11.155042,-7.993194
1001.878906,-10.205935,-11.014571,-11.374677,-7.983560
1001.882812,-11.927453,-9.994404,-7.127968,-7.174491
1001.886719,-4.114965,-5.810947,-9.042593,-12.098412
1001.890625,-5.842800,-6.077381,-7.534214,-5.561635
1001.894531,-2.672431,-1.483396,0.977543,1.223542
1001.898438,-6.469153,2.136438,8.105674,2.232007
1001.902344,3.706473,3.073938,2.369630,-1.388283
1001.906250,-1.905152,4.493519,0.349387,2.348870
1001.910156,5.666252,8.555706,11.860885,5.267264
1001.914062,11.029221,2.537414,10.461771,8.792164
1001.917969,9.894631,15.382058,3.720547,7.043223
1001.921875,8.961103,6.236841,19.356645,15.280990
1001.925781,9.594584,17.845795,7.313933,2.918363
1001.929688,18.230473,12.036882,14.499155,11.007903
1001.933594,11.146558,18.142059,8.824591,9.652556
1001.937500,1.241094,4.311841,7.485379,2.554427
1001.941406,9.583722,5.137063,2.063819,-9.061705
1001.945312,8.918576,4.657624,7.207916,0.391402
1001.949219,-3.816900,-2.538481,7.275921,2.772253
1001.953125,-3.350688,-8.844457,-0.864458,0.905184
1001.957031,2.533186,-7.005523,-2.662270,-5.956148
1001.960938,-9.387427,0.246171,-8.997246,-3.508077
1001.964844,-12.547559,-3.116252,-5.882395,-4.997661
1001.968750,-7.774740,-8.926558,-2.146794,-13.273502
1001.972656,-11.681355,-8.741124,-1.793441,-10.832261
1001.976562,-3.319793,-6.766559,-6.022059,-8.196204
1001.980469,-6.979880,-6.840902,-6.915371,-13.443808
1001.984375,-12.800274,-11.977702,-4.027545,-9.794539
1001.988281,-3.155740,-8.560781,-4.995409,-13.550298
1001.992188,-6.241649,-7.052087,3.801812,-6.852830
1001.996094,-6.804564,1.635162,-7.610624,-3.585697
1002.000000,3.649637,-4.150935,-4.213935,8.891467
1002.003906,-2.214734,11.622549,-9.390527,-1.069451
1002.007812,0.683325,10.509105,4.067914,6.832684
1002.011719,5.686789,8.084711,6.892132,2.117673
1002.015625,8.049500,8.343518,15.286671,3.521372
1002.019531,9.535673,11.072867,7.933360,5.511920
1002.023438,11.384725,14.684954,-3.273207,17.663689
1002.027344,5.810921,15.095006,13.711947,14.819691
1002.031250,1.027226,12.896480,12.477309,7.110615
1002.035156,12.224367,6.405805,4.701115,8.443654
1002.039062,8.926089,-3.547215,6.527904,2.388572
1002.042969,7.261627,3.693151,1.225636,6.478063
1002.046875,2.148015,6.282290,1.323499,2.249514
1002.050781,5.381548,-1.513170,1.610457,4.775497
1002.054688,-4.195998,1.852109,-2.283535,-3.094997
1002.058594,-8.095675,-3.489223,-3.377620,-10.354636
1002.062500,-6.643076,-6.501559,-8.267190,-12.023313
1002.066406,-8.581635,-6.530372,-14.162682,-6.659132
1002.070312,-9.639200,-15.002227,-8.516652,-9.486444
1002.074219,-4.584458,-9.747927,-7.415313,-8.794310
1002.078125,-12.477161,-12.276618,-4.333381,-10.546610
1002.082031,-11.564333,-11.778821,-9.654105,-4.289451
1002.085938,-7.018133,-6.954730,-10.221269,-7.835749
1002.089844,-5.547818,-7.273728,-9.328476,-2.049515
1002.093750,0.896529,-3.414180,-7.458771,0.069243
1002.097656,1.300778,1.375020,-2.474801,-2.978218
1002.101562,-1.855401,0.210026,-2.115050,6.084126
1002.105469,3.721751,0.659454,10.913221,7.244380
1002.109375,4.200371,2.453255,10.590218,9.012805
1002.113281,8.124037,9.240141,2.382865,8.803900
1002.117188,8.896416,8.614592,2.541663,2.813428
1002.121094,4.012205,17.761900,8.514855,9.821253
1002.125000,13.946117,10.676939,5.940945,8.162581
1002.128906,9.858538,12.215348,14.297270,15.658178
1002.132812,7.934452,5.460914,12.868037,8.775249
1002.136719,10.133956,8.949035,5.794175,14.322311
1002.140625,3.396317,5.501123,5.368222,5.398088
1002.144531,3.967707,4.118884,5.512530,-2.313112
1002.148438,0.027989,3.913773,-5.230878,-3.139909
1002.152344,-0.565214,-8.406307,-3.881423,2.766267
1002.156250,0.359494,2.982833,-5.445783,-2.509935
1002.160156,-3.995811,-6.541959,-6.637262,-4.923971
1002.164062,-13.525700,-6.096832,-12.645581,-6.907373
1002.167969,-6.346104,-7.746087,-8.481715,-7.168567
1002.171875,-7.338589,-6.369611,-12.109972,-8.234790
1002.175781,-9.590490,-11.986782,-8.978183,-12.046608
1002.179688,-10.010830,-8.531168,-13.107293,-5.720566
1002.183594,-12.047296,-11.059557,-7.870208,-11.129899
1002.187500,-10.190354,-10.906901,-7.180191,-6.408540
1002.191406,-6.002759,-6.769122,-1.888544,-5.360715
1002.195312,-3.549393,2.290249,-2.862452,-1.635979
1002.199219,2.197632,-1.745518,1.801753,2.191913
1002.203125,3.373695,-3.382732,3.062686,3.746399
1002.207031,1.996253,13.214941,6.042024,4.146856
1002.210938,4.208427,5.284795,-1.324023,9.134425
1002.214844,1.868684,9.708038,0.573019,7.941801
1002.218750,6.912272,9.268169,7.292745,10.842592
1002.222656,6.872467,9.120579,4.473579,12.084923
1002.226562,9.095494,13.396462,14.363478,4.946958
1002.230469,6.373647,16.350145,6.412859,7.903669
1002.234375,9.631024,8.099236,4.524285,9.286540
1002.238281,9.026399,6.627041,9.099811,3.726054
1002.242188,8.501666,-2.771819,7.160645,3.432647
1002.246094,-2.352739,2.469335,3.006101,-2.014007
1002.250000,4.774330,7.189417,-2.013114,-0.153438
1002.253906,4.255998,-0.515540,-1.929794,-2.701660
1002.257812,-2.215326,-6.256881,-4.391837,1.717271
1002.261719,-8.691098,-13.358238,-9.258251,-10.070323
1002.265625,-1.551204,-14.644002,-12.792607,-6.236760
1002.269531,-16.843848,-10.754627,-9.218053,-0.690949
1002.273438,-13.235122,-13.321423,-10.334451,-13.865723
1002.277344,-15.880004,-11.357669,-8.463358,-9.442237
1002.281250,-3.863665,-8.719186,-8.182804,-10.590431
1002.285156,-6.507493,-8.021509,-9.451014,-11.630066
1002.289062,-6.353736,-3.044609,-9.788453,-8.387195
1002.292969,-2.671312,-0.326535,-6.368467,-5.841673
1002.296875,6.886947,-0.778553,-2.918669,1.917375
1002.300781,-0.787866,-5.265747,7.268944,-0.926531
1002.304688,5.047663,1.253052,2.393513,8.273734
1002.308594,-1.179395,-0.241768,5.520213,4.402805
1002.312500,13.930076,0.932831,5.930583,3.488272
1002.316406,12.424360,16.159616,11.728771,13.269454
1002.320312,8.883324,15.773456,12.728432,4.641223
1002.324219,4.144480,15.326739,7.002562,16.150661
1002.328125,7.242772,9.692317,7.931143,12.191193
1002.332031,8.692081,8.751203,11.729618,5.693097
1002.335938,1.793589,6.598077,9.052918,4.660946
1002.339844,3.922146,10.709991,8.651615,7.064060
1002.343750,5.944759,-1.781186,5.895513,9.251484
1002.347656,-0.431615,6.348232,0.244161,4.386463
1002.351562,5.414450,-4.517858,6.808726,-0.524379
1002.355469,-2.857844,-5.003176,-9.263790,-1.548809
1002.359375,-9.410482,-4.512149,2.943682,-5.207024
1002.363281,-4.525888,-9.914613,-9.185823,-6.864682
1002.367188,-5.945524,-5.298544,-9.049113,-11.640705
1002.371094,-17.665363,-6.575661,-9.798232,-4.571629
1002.375000,-20.717103,-11.490217,-14.176390,-0.279404
1002.378906,-8.871042,-20.879079,-3.581710,-13.109164
1002.382812,-3.330231,-9.118412,-9.364697,-2.916750
1002.386719,-6.634808,-6.867611,-10.435948,-9.154106
1002.390625,-5.382699,-5.342150,-2.982920,-1.900503
1002.394531,-4.025366,-2.278057,-5.060608,-6.959295
1002.398438,-5.495749,-3.282869,3.267295,-2.360913
1002.402344,3.063684,6.336764,-0.746806,7.026144
1002.406250,10.569002,3.771580,3.067345,8.503474
1002.410156,-1.406527,2.314073,9.681959,4.524610
1002.414062,1.296330,8.158952,7.645363,12.330000
1002.417969,16.660411,15.856386,13.122559,10.177196
1002.421875,10.940219,10.851009,11.133109,20.204817
1002.425781,6.013649,9.026562,7.799435,14.490897
1002.429688,7.340821,9.598862,7.674672,10.583453
1002.433594,8.653221,8.312094,11.360323,9.741633
1002.437500,8.410794,9.754863,6.599419,6.538364
1002.441406,5.899791,4.993894,11.906459,1.637869
1002.445312,-4.650364,-1.914633,-0.124479,-1.276667
1002.449219,-0.646951,-2.838128,0.477429,-1.518283
1002.453125,3.362841,4.831661,-0.736995,7.070399
1002.457031,-5.765878,-5.780357,-0.846971,-10.066714
1002.460938,-0.492203,-2.404904,-9.079346,-7.865348
1002.464844,-10.460196,-2.792440,-11.223530,-12.446841
1002.468750,-6.092479,-8.622653,-6.797908,-7.776112
1002.472656,-11.046919,-3.087126,-2.062437,-2.029437
1002.476562,-13.305111,-14.154388,-13.104115,-15.135751
1002.480469,-13.150127,-9.117888,-6.019992,-8.649800
1002.484375,-11.609152,-4.626946,-4.341225,-1.993836
1002.488281,-8.696552,-0.987636,-12.666775,-9.371753
1002.492188,-9.052252,1.765924,-4.766678,-8.955786
1002.496094,-5.830996,-4.208188,2.392384,-5.377142
1002.500000,1.224736,3.190427,-2.038344,0.999731
1002.503906,4.150694,-1.724963,5.262298,-1.200277
1002.507812,5.992758,6.955437,8.723714,0.868925
1002.511719,1.624493,-0.897363,6.917741,-0.836229
1002.515625,6.948012,4.403605,14.106165,4.364891
1002.519531,11.777072,12.792998,13.269685,1.400347
1002.523438,10.391068,11.649463,19.038963,-0.686095
1002.527344,11.163225,10.973655,10.078589,8.378293
1002.531250,9.852423,10.747826,7.231375,6.364933
1002.535156,6.262898,0.862449,11.298302,12.346626
1002.539062,4.639350,3.943574,3.722274,10.891403
1002.542969,-1.455522,8.336035,8.166888,7.042217
1002.546875,2.719677,-4.318050,8.870611,1.311606
1002.550781,6.065023,-5.102797,-5.256617,6.694347
1002.554688,-0.313424,1.462125,-1.179762,-1.502851
1002.558594,-0.436038,-0.987333,-10.872909,-6.523854
1002.562500,-5.876833,-5.532419,-3.942234,-2.020647
1002.566406,-11.620539,-5.734878,-9.090278,-12.420512
1002.570312,-10.124052,-8.968798,-7.153053,-11.241512
1002.574219,-6.845053,-8.841141,-5.840140,-9.439000
1002.578125,-7.187390,-14.354661,-9.780119,-13.533845
1002.582031,-5.500987,-2.440341,-1.522639,-8.904554
1002.585938,-19.044349,-9.818135,-10.157895,-9.586384
1002.589844,-8.575322,-3.436928,-6.519476,-7.952460
1002.593750,-6.587493,2.737125,-3.156889,-6.249987
1002.597656,-2.206997,-5.030484,-6.044460,-2.721713
1002.601562,5.184462,1.493005,7.242891,8.557925
1002.605469,-4.585387,2.951380,4.725852,1.373440
1002.609375,7.433723,0.813966,9.980578,3.695410
1002.613281,7.189478,15.203375,5.454769,9.117690
1002.617188,2.700517,6.581860,8.713273,9.155747
1002.621094,14.277887,5.574895,12.131003,12.918353
1002.625000,10.780207,10.847079,22.260927,16.755280
1002.628906,5.686326,7.503417,11.814417,14.811695
1002.632812,-1.411307,18.197047,7.804400,9.532861
1002.636719,7.935928,6.089231,11.140098,12.233173
1002.640625,-1.777111,5.395350,3.262929,-1.277704
1002.644531,12.642244,-0.796415,0.088014,2.192755
1002.648438,1.057704,3.980918,-0.724339,-0.079793
1002.652344,-5.156666,-0.463692,-5.034514,-1.480459
1002.656250,3.310055,-3.252289,-3.960084,-10.749774
1002.660156,-7.324908,-8.415465,-4.906296,-4.260097
1002.664062,-4.470534,-8.199130,-5.776067,-9.498273
1002.667969,-10.019761,-11.487358,-13.497325,-10.571183
1002.671875,-17.739690,-11.359114,-11.596279,-7.783896
1002.675781,-7.365864,-17.148679,-9.695668,-5.504030
1002.679688,-6.704257,-12.949979,-19.454119,-17.090172
1002.683594,-6.494054,-7.943952,-7.888437,-6.674830
1002.687500,-6.780235,-8.004664,-10.253215,-6.743598
1002.691406,-9.381526,-5.513334,-10.942371,-8.482019
1002.695312,2.454994,-0.438439,-1.149724,-0.967450
1002.699219,3.208415,5.174139,-6.653116,-4.530938
1002.703125,-1.527819,4.253688,2.673092,2.249228
1002.707031,0.845385,7.215319,-0.315995,2.149278
1002.710938,6.673482,7.861393,5.729070,13.764920
1002.714844,12.559292,13.297459,4.492859,13.051603
1002.718750,10.029901,8.463212,8.281046,8.286167
1002.722656,12.020337,14.750850,17.774139,11.128151
1002.726562,8.971913,13.230314,8.132044,15.581478
1002.730469,12.565941,11.322721,7.739521,8.972138
1002.734375,12.024461,12.360749,2.584292,4.631676
1002.738281,6.997932,1.104681,8.553725,4.983298
1002.742188,1.506303,8.202700,11.152818,8.585551
1002.746094,6.622733,1.113688,-2.258585,-1.954718
1002.750000,5.898071,1.202213,-3.053860,-3.167736
1002.753906,-3.936069,-1.182611,-0.450716,-11.481255
1002.757812,-13.981200,-5.238124,-3.395632,-12.423991
1002.761719,-4.142397,-13.729549,-9.689229,-6.022784
1002.765625,-14.578678,-8.177313,-12.742876,-9.391549
1002.769531,-14.238182,-11.590771,-11.323792,-5.191758
1002.773438,-9.573323,-7.482237,-11.226103,-4.409741
1002.777344,-2.837322,-9.474314,-4.060070,-10.795595
1002.781250,-7.924180,-13.637108,-6.100111,-11.586599
1002.785156,-8.218710,-11.338531,0.080652,-11.008560
1002.789062,-4.015859,-8.462711,-10.380807,-14.213006
1002.792969,-5.463589,-8.315636,-4.746715,-3.990269
1002.796875,-2.678242,-3.442802,4.079487,-7.968028
1002.800781,-0.695007,0.836193,-1.775505,-7.347490
1002.804688,1.875025,-1.922266,4.426791,10.424874
1002.808594,3.581603,4.150302,4.120346,7.972326
1002.812500,8.612600,3.011557,1.733720,8.761942
1002.816406,11.025480,6.307133,7.084769,14.855946
1002.820312,18.958128,15.271659,3.067224,13.697720
1002.824219,16.842085,10.485853,13.197365,5.200699
1002.828125,11.026588,3.431565,7.542493,10.452179
1002.832031,5.463162,10.378469,14.070817,14.154025
1002.835938,7.087435,9.812716,2.527231,6.881586
1002.839844,1.001338,7.157881,11.843062,-3.663280
1002.843750,4.150384,1.798230,2.400119,-1.858312
1002.847656,5.559764,6.021815,6.920150,0.084054
1002.851562,2.801910,0.011456,5.320879,0.207273
1002.855469,-3.076993,4.146753,-4.187260,-5.030036
1002.859375,-8.526858,-2.409024,-3.921018,1.596675
1002.863281,-2.963263,-8.371092,-9.788615,-16.884270
1002.867188,-6.627901,-4.084848,-17.237395,-12.005085
1002.871094,-5.055551,-10.982624,-4.784523,-7.356731
1002.875000,-9.154010,-4.774889,-5.579491,-6.436410
1002.878906,-15.275215,-5.580194,-1.733586,-5.665573
1002.882812,-4.324822,-7.852920,-7.711961,-13.112133
1002.886719,-14.035566,-4.009886,-12.610831,-5.221024
1002.890625,-5.814153,-2.503833,-8.735640,-8.380272
1002.894531,-4.524218,-5.580606,-2.958200,-0.978001
1002.898438,-1.483665,-0.152927,-1.421938,2.007065
1002.902344,-2.603674,4.750122,4.873008,4.924845
1002.906250,7.419568,11.508681,2.605454,2.358315
1002.910156,9.939395,10.460443,0.113388,-2.326775
1002.914062,11.123188,16.859752,12.046466,11.515605
1002.917969,15.893288,5.260578,3.553882,3.725221
1002.921875,6.963599,14.760153,3.744810,9.138943
1002.925781,11.868976,9.696923,4.592481,9.617769
1002.929688,2.545458,5.517529,5.788428,8.667323
1002.933594,7.432811,9.675727,6.880366,13.697665
1002.937500,4.924085,6.015583,3.341362,9.487931
1002.941406,4.511572,3.027409,3.589382,-0.788704
1002.945312,6.975659,5.043820,10.360697,-0.129347
1002.949219,-0.808861,1.100911,0.530333,-3.455777
1002.953125,-7.244049,-1.714274,3.252178,1.484189
1002.957031,-4.486727,-8.897252,-7.355963,-8.813692
1002.960938,-5.490462,-7.505376,-6.535391,-4.857403
1002.964844,-13.361127,-5.214618,-6.276191,-9.570084
1002.968750,-8.140126,-10.676568,-12.935094,-7.686625
1002.972656,-15.151384,-7.975287,-14.609933,-7.464749
1002.976562,-3.568382,-7.666613,-1.937973,-6.792556
1002.980469,-9.035778,-8.202903,-16.519147,-18.010101
1002.984375,-11.880113,-11.574114,-14.541054,-7.653685
1002.988281,-3.257473,-14.528688,-2.605064,-11.576516
1002.992188,-3.258461,-2.207545,-4.975436,-4.455690
1002.996094,-7.521393,-4.838055,3.082420,3.613745
1003.000000,0.866813,-4.466088,-5.450972,-5.030570
1003.003906,0.578110,4.961571,5.436484,-1.715524
1003.007812,4.078453,-0.608590,0.966828,7.034634
1003.011719,8.704221,3.191616,9.699553,1.603438
1003.015625,5.598186,4.747179,1.606506,-0.137008
1003.019531,10.691128,13.364194,14.266102,4.465351
1003.023438,16.678383,9.640889,9.479152,9.443647
1003.027344,3.518528,13.867111,15.650274,5.082575
1003.031250,11.068229,4.842907,16.501912,23.272543
1003.035156,-0.357117,15.662333,12.002121,7.044328
1003.039062,7.175875,4.837596,-0.260833,7.584674
1003.042969,3.135419,8.845995,8.253271,1.027503
1003.046875,0.694351,-1.781604,-1.325887,5.747624
1003.050781,2.116641,1.081188,4.810600,3.539679
1003.054688,-0.032240,-6.123637,-2.420518,-5.159628
1003.058594,-5.914130,-13.549993,-9.365442,0.688445
1003.062500,-8.373862,-3.678985,-4.845332,-16.670070
1003.066406,-8.683674,-12.254684,-14.422593,-10.925168
1003.070312,-7.500793,-7.311439,-6.575722,-10.072219
1003.074219,-10.437084,-11.702149,-14.207259,-9.483212
1003.078125,-8.219611,-10.224706,-9.715926,-14.481873
1003.082031,-7.692806,-4.583502,-14.869494,-7.212405
1003.085938,-0.498023,-2.786083,-9.038593,-7.643144
1003.089844,-2.815531,-7.231402,-13.278057,-12.398913
1003.093750,-2.878548,-11.979751,-8.599041,-0.914780
1003.097656,0.318554,-1.919096,-11.253116,-4.282780
1003.101562,5.156857,-0.852472,14.017326,10.426142
1003.105469,2.742888,1.409151,0.779184,3.435097
1003.109375,3.683614,4.516897,3.249401,4.741060
1003.113281,1.818315,6.336963,0.016211,4.993590
1003.117188,10.163441,7.660662,13.923310,2.990685
1003.121094,11.697718,8.289204,12.944450,17.253556
1003.125000,10.664680,20.198054,14.558358,12.030865
1003.128906,12.920618,5.741853,12.207412,5.448385
1003.132812,8.441924,7.492029,4.035358,8.247936
1003.136719,11.568050,2.233620,4.922863,6.525656
1003.140625,9.417097,6.815226,-1.915144,0.507239
1003.144531,7.348554,1.337996,2.604279,-0.777727
1003.148438,-3.816699,-3.670087,1.687827,1.328348
1003.152344,1.334833,-1.076898,-0.610816,4.315729
1003.156250,-3.190685,-4.354106,-5.035923,-10.116727
1003.160156,-5.196369,-5.718056,-10.114422,-5.136583
1003.164062,-13.646296,-9.809572,-10.623322,-5.775312
1003.167969,-15.328265,-6.554579,-3.984442,-13.326505
1003.171875,-13.391652,-18.288461,-13.992705,-0.794088
1003.175781,-3.831991,-9.257316,-10.889383,-12.210839
1003.179688,-11.246333,-12.248092,-10.419031,-11.645486
1003.183594,-4.685609,-8.146895,-4.516861,-6.334993
1003.187500,-13.857627,-2.313253,-12.125066,-4.974808
1003.191406,-2.796068,-2.724581,3.109369,-8.421088
1003.195312,-7.794803,-7.211976,-0.676910,-0.750370
1003.199219,2.109727,6.599699,3.862662,1.604699
1003.203125,0.104091,5.183889,7.323187,-1.858108
1003.207031,0.528224,0.759409,4.086382,-3.086275
1003.210938,11.048204,16.577895,9.180848,5.671470
1003.214844,5.562838,8.537514,10.512682,10.293378
1003.218750,8.555069,5.596609,12.792037,6.779000
1003.222656,7.885366,8.402247,10.567588,6.706104
1003.226562,9.351455,4.493153,8.763305,14.761310
1003.230469,9.483257,7.586133,3.775324,12.972385
1003.234375,8.715545,10.805949,12.475742,5.845184
1003.238281,10.536700,11.757229,9.360096,1.159351
1003.242188,-1.323161,0.213710,4.912686,13.380469
1003.246094,-0.681747,-6.140816,-0.144206,3.412681
1003.250000,1.258450,6.655914,4.244800,-5.280699
1003.253906,2.227823,-1.116552,-1.469107,-10.518431
1003.257812,-1.341978,-7.762847,4.420998,-6.497060
1003.261719,-2.576451,-6.214245,-7.439052,-11.440365
1003.265625,-14.495134,-9.640783,-11.770765,-7.775618
1003.269531,-4.146044,-9.213273,-10.565058,-11.838967
1003.273438,-10.786767,-7.910585,-9.989607,-7.819757
1003.277344,-11.641863,-2.340495,-10.345013,-12.029121
1003.281250,-4.219851,-9.099784,-12.063716,-5.885011
1003.285156,-9.849739,-7.577518,-12.595055,-4.899559
1003.289062,-3.672894,-4.116446,-3.558690,-8.479896
1003.292969,1.244818,0.739470,-1.943362,-2.886619
1003.296875,-1.980322,5.656828,-11.480016,-0.873907
1003.300781,-4.715230,-4.414148,9.509722,-7.223434
1003.304688,7.354441,0.652644,13.342898,0.320985
1003.308594,7.145084,9.891446,5.248751,4.000794
1003.312500,11.379297,7.612553,11.229135,5.882969
1003.316406,6.390377,3.198080,8.342186,9.568403
1003.320312,11.931752,12.733254,12.634356,6.070155
1003.324219,11.672452,10.016120,15.387512,11.748028
1003.328125,4.235956,15.499493,8.630345,11.731107
1003.332031,17.983908,13.767046,8.624773,8.451668
1003.335938,10.816251,8.862536,4.970796,10.899372
1003.339844,8.409047,-4.076844,8.961103,7.408737
1003.343750,6.976999,2.192939,1.999608,2.299586
1003.347656,1.232885,0.492170,0.513867,-2.964773
1003.351562,0.357055,-1.321316,0.099951,-1.242574
1003.355469,-0.013786,-6.316234,-2.320146,-4.727332
1003.359375,-10.069367,-0.880343,-2.335336,-3.524625
1003.363281,-5.761887,-7.006536,-8.182232,-9.352346
1003.367188,-9.800453,-11.040261,-5.559016,-12.787132
1003.371094,-5.833911,-11.320115,-8.538980,-15.039810
1003.375000,-16.160047,-9.748129,-3.400316,-23.303599
1003.378906,-5.387285,-7.253060,-9.131408,-6.786833
1003.382812,-8.913230,-7.275100,-10.850092,-10.755551
1003.386719,-11.977377,-7.341168,-9.943228,-0.431036
1003.390625,-6.693999,-5.656327,-7.389511,-3.436576
1003.394531,-4.734527,-9.505335,-0.801542,3.845653
1003.398438,-6.279052,-5.933840,3.419941,-4.150900
1003.402344,-4.187614,0.084760,5.103098,-3.634630
1003.406250,2.790275,4.025729,1.395524,8.651918
1003.410156,8.386168,4.633540,5.157028,1.749145
1003.414062,3.727650,1.905901,3.095186,8.599666
1003.417969,9.216642,5.580653,8.119140,7.682184
1003.421875,8.048711,4.088518,14.499561,6.910790
1003.425781,7.118204,5.843856,10.438822,8.871135
1003.429688,3.108261,6.804545,6.751226,13.755221
1003.433594,5.137623,2.625292,2.593780,5.686232
1003.437500,1.999457,5.198084,16.052874,5.891281
1003.441406,14.020153,10.730648,6.365013,2.039114
1003.445312,-5.477782,4.363176,3.844070,10.272238
1003.449219,4.563085,4.613986,-5.642762,-1.727304
1003.453125,-3.823000,-7.563873,2.998255,-0.602137
1003.457031,-6.252373,2.919520,-6.229803,-9.742130
1003.460938,-7.852848,-3.867804,-9.718215,-5.446114
1003.464844,-5.054439,-8.601025,-5.089295,-7.869194
1003.468750,-5.784185,-4.347638,-8.947336,-9.140099
1003.472656,-11.519956,-16.864089,-16.008096,-12.946590
1003.476562,-14.417555,-10.098233,-13.580935,-9.423063
1003.480469,-7.018816,-8.992457,-15.238071,-18.673338
1003.484375,-9.013365,-9.324624,-6.704727,-11.668401
1003.488281,-11.139097,-6.113849,-4.443581,-6.132553
1003.492188,-8.389288,-5.856985,-7.667995,-7.168888
1003.496094,-4.923494,-3.870362,-11.913270,1.768096
1003.500000,-4.253303,-5.297162,1.541916,0.848983
1003.503906,5.494277,2.936423,1.126838,-1.500702
1003.507812,4.238618,0.478022,-0.132998,7.115989
1003.511719,6.401950,12.408350,12.029097,13.717833
1003.515625,8.083543,6.122192,4.920079,7.273896
1003.519531,8.345086,11.189684,5.503861,9.285055
1003.523438,10.345939,10.309705,10.087303,9.090824
1003.527344,9.924399,4.959814,7.413657,4.783412
1003.531250,15.120583,5.326547,8.122069,7.368207
1003.535156,7.781605,8.709304,3.721490,8.510624
1003.539062,12.446314,14.160222,4.698911,5.618187
1003.542969,-4.986609,11.897077,11.650776,-1.054490
1003.546875,2.242445,1.720592,2.486893,0.869810
1003.550781,5.956056,-4.344459,-1.208541,-3.708801
1003.554688,-7.610225,-2.761887,-2.784557,-3.782467
1003.558594,-5.909865,-4.011747,-4.485811,-7.443590
1003.562500,-19.181902,-6.486248,-7.572172,-9.768486
1003.566406,-8.259629,-6.991093,-9.534546,-3.258489
1003.570312,-4.780709,-12.644857,-5.710892,-7.880638
1003.574219,-10.188751,-7.493255,-8.464192,-4.374987
1003.578125,-7.147205,-7.956181,-9.921952,-10.233585
1003.582031,-19.514391,-14.409093,-12.454707,-12.844791
1003.585938,-2.799907,-4.451931,-9.903108,-12.753043
1003.589844,-4.541736,-2.656124,-1.551660,-4.068818
1003.593750,-1.649080,-5.306173,-9.282492,-7.892505
1003.597656,-2.957636,4.825029,2.401773,-2.568158
1003.601562,2.873455,-0.976384,-0.560912,-0.062449
1003.605469,2.111038,1.332734,9.038279,4.893962
1003.609375,6.955433,2.482776,-3.539741,12.590026
1003.613281,9.567085,16.922004,3.496975,7.036924
1003.617188,9.302758,12.217564,6.438641,11.134620
1003.621094,13.548974,3.472406,6.351411,12.920737
1003.625000,5.492603,6.682709,16.892897,11.736984
1003.628906,7.717651,16.543526,12.615723,6.965189
1003.632812,3.507144,5.616484,7.899205,3.024094
1003.636719,11.427386,2.183487,14.150838,1.622629
1003.640625,2.980550,6.010723,4.956785,9.607730
1003.644531,2.548362,1.537169,12.366116,1.711875
1003.648438,1.057084,0.533625,0.269206,3.726422
1003.652344,-4.444761,3.829105,-3.633364,3.622986
1003.656250,-2.283985,-7.582862,-1.957508,-5.605263
1003.660156,-5.753791,-7.302598,-12.169835,-13.826496
1003.664062,-10.199354,-9.098682,-11.360501,-10.615850
1003.667969,-0.926726,-2.134923,-11.927384,-10.374114
1003.671875,-9.887536,-13.438162,-19.321618,-11.767589
1003.675781,-11.061057,-8.782286,-10.290096,-12.762125
1003.679688,-8.882541,-15.070244,-11.110540,-7.196201
1003.683594,-9.404383,-10.682576,-2.569540,-3.656752
1003.687500,-6.629971,-6.428832,-4.759924,-7.147205
1003.691406,-7.249293,-3.725353,-7.352869,-6.233383
1003.695312,-8.672073,-2.942931,3.072709,-4.699802
1003.699219,0.366270,-6.152993,2.620929,-0.327354
1003.703125,0.061382,1.564146,-1.098325,-4.552756
1003.707031,8.164212,1.853207,1.192675,1.153458
1003.710938,5.670552,3.221915,4.149978,12.967838
1003.714844,8.650049,5.350850,10.558477,6.997640
1003.718750,9.969080,16.768773,7.069944,5.336558
1003.722656,13.381206,7.571464,12.466472,12.612670
1003.726562,9.724402,11.286490,7.550486,15.186367
1003.730469,4.196842,3.676029,17.430156,6.192703
1003.734375,9.802630,13.325603,16.551436,11.940083
1003.738281,4.839529,3.089583,7.804368,9.604156
1003.742188,4.831574,10.666051,6.261107,15.098485
1003.746094,2.300864,10.876586,3.169143,9.145531
1003.750000,1.859730,4.796105,3.539072,5.083481
1003.753906,-8.291376,-6.548810,1.165552,0.566761
1003.757812,-3.152623,-0.728170,-6.966912,1.035520
1003.761719,-4.630428,-7.515299,-8.350939,-2.412061
1003.765625,-10.422574,-3.739217,-14.198120,-9.584817
1003.769531,-15.766450,-10.197074,-3.984747,-9.411901
1003.773438,-9.451145,-4.191102,-6.005393,-7.482710
1003.777344,-2.614128,-1.908326,-7.757420,-5.622867
1003.781250,-14.195245,-13.726748,-18.648279,-10.899629
1003.785156,-2.846743,-4.724373,-7.010433,-14.426633
1003.789062,-8.975608,-6.266751,-11.527154,-2.978304
1003.792969,-0.706069,-1.066174,-7.107263,-9.621143
1003.796875,-1.633839,-4.447765,-6.544345,-1.803750
1003.800781,2.471279,-2.114740,-2.277148,-8.690509
1003.804688,0.527534,4.129390,10.311722,1.533658
1003.808594,12.087287,7.880812,3.233823,5.617912
1003.812500,10.734120,7.639032,10.385162,1.074002
1003.816406,12.097478,8.409455,-0.033538,4.567075
1003.820312,6.363722,12.447092,6.424228,18.912513
1003.824219,7.264200,17.366383,8.973451,6.755287
1003.828125,11.817367,8.785430,14.109667,12.692731
1003.832031,9.151813,7.184107,11.306392,6.877149
1003.835938,10.829463,2.031091,7.573026,12.624602
1003.839844,2.203029,0.552167,10.436676,6.087930
1003.843750,7.162969,-0.905870,-2.409439,2.470921
1003.847656,-0.954673,-0.961333,-2.201724,1.456089
1003.851562,-5.105767,-4.233309,6.333324,-13.914927
1003.855469,-5.658502,-0.904127,-1.503552,-3.931146
1003.859375,-7.188936,-2.745867,-8.694508,0.504599
1003.863281,-6.841738,-4.672702,-12.588834,-7.759664
1003.867188,-10.202157,-10.827671,-2.936002,-10.060805
1003.871094,-7.165700,-9.365074,-10.326445,-11.126697
1003.875000,-7.638501,-10.487652,-16.381545,-9.465005
1003.878906,-5.854642,-3.770668,-7.733617,-0.381803
1003.882812,-8.738962,-8.651318,-18.050225,-13.484826
1003.886719,-2.406734,-10.052022,0.316030,-2.842046
1003.890625,-4.638697,-6.270101,-9.777082,-7.469882
1003.894531,-6.589999,-2.024785,-4.114336,-3.758318
1003.898438,4.134309,-2.474465,0.644744,-4.516366
1003.902344,1.769985,2.133668,-2.701926,2.306370
1003.906250,6.882457,2.193585,3.213233,10.315608
1003.910156,-0.993927,3.042208,8.883268,5.724883
1003.914062,11.906151,-0.179126,7.374690,7.464118
1003.917969,9.461026,14.280711,7.820142,2.017134
1003.921875,7.532924,19.617450,18.928378,10.546442
1003.925781,8.276406,9.539680,14.037215,6.836309
1003.929688,15.202597,12.433138,8.075487,6.320802
1003.933594,10.969383,8.537133,10.039107,11.857667
1003.937500,5.541852,4.963647,11.880049,12.030004
1003.941406,10.347776,-1.947123,5.503961,5.108312
1003.945312,10.925020,3.297626,-9.309651,2.703807
1003.949219,-6.057957,4.786636,4.201085,-3.730968
1003.953125,-1.508048,2.238956,-4.265881,-0.339168
1003.957031,-1.370052,-2.097164,-7.509506,-8.392694
1003.960938,-11.166621,-9.134934,-3.221387,-5.388203
1003.964844,-13.774872,-7.408894,-6.994897,-9.446009
1003.968750,-9.813745,-4.807705,-14.159184,-12.971765
1003.972656,-13.396025,-5.917286,-10.984605,-6.147652
1003.976562,-8.743729,-12.544687,-13.897923,-13.299235
1003.980469,-1.719347,-13.760844,-6.750783,-7.672325
1003.984375,-11.592714,-5.457678,-3.582375,-8.980863
1003.988281,-7.512505,-4.914244,-10.747658,-4.531814
1003.992188,-8.401009,-9.146664,-3.624171,4.093571
1003.996094,2.330698,-5.032217,-2.518344,-0.121977
1004.000000,-5.682475,1.700722,-1.034766,-2.408597
1004.003906,-5.131589,2.507595,7.829748,1.839150
1004.007812,0.152138,8.381501,8.837104,10.098877
1004.011719,7.415581,8.500045,4.048022,2.058026
1004.015625,7.968441,1.828087,5.369495,11.850801
1004.019531,12.514647,8.707432,11.015009,15.027964
1004.023438,5.633457,9.587083,3.163421,15.280059
1004.027344,7.716705,5.460600,14.394164,13.567029
1004.031250,4.340605,15.594076,11.345334,7.553738
1004.035156,8.861430,11.797453,1.436585,2.475744
1004.039062,3.597076,1.694240,10.565017,5.537329
1004.042969,-1.222906,10.901054,-0.261538,6.925231
1004.046875,-4.818696,0.154940,1.899002,0.327229
1004.050781,1.186102,-4.177214,5.089301,1.217243
1004.054688,-0.349182,-3.041346,0.646557,-4.661343
1004.058594,-11.816841,-6.510111,-7.841888,-7.332471
1004.062500,-8.357457,-7.382808,-3.933512,-9.634503
1004.066406,-9.014039,-5.856771,-7.979579,-5.141621
1004.070312,-5.886960,-4.400164,-3.940455,-11.903359
1004.074219,-11.940703,-13.352152,-11.355755,-14.538229
1004.078125,-15.213498,-2.126188,-9.831058,-13.854721
1004.082031,-4.779129,-14.380831,-4.007283,-13.213773
1004.085938,-12.878217,-10.387547,-6.141868,-10.146529
1004.089844,-7.544400,-4.408884,-3.061615,-8.964023
1004.093750,-1.334352,-8.831898,-2.359546,-1.900722
1004.097656,-1.373170,1.934628,-5.516762,3.005369
1004.101562,3.550748,3.844896,-3.330537,-5.295049
1004.105469,9.569474,12.631538,4.564035,5.889070
1004.109375,11.430748,7.264295,8.760111,14.284410
1004.113281,9.074551,12.122131,10.022700,7.735097
1004.117188,8.533953,11.077513,2.028110,-3.191418
1004.121094,11.378731,10.998401,7.157090,4.183294
1004.125000,10.525129,12.274399,11.629118,7.007949
1004.128906,4.150282,5.314455,17.254252,13.450883
1004.132812,14.140807,14.727563,5.724957,11.986677
1004.136719,4.274520,9.289071,11.205096,10.716810
1004.140625,5.764795,4.800208,3.957067,8.334986
1004.144531,6.597327,5.544571,-0.637777,3.703427
1004.148438,-1.221149,14.605333,2.891608,1.278670
1004.152344,-3.909045,-1.623331,0.064788,5.363778
1004.156250,-9.752948,-2.912154,-5.490549,6.625239
1004.160156,-9.784650,-10.547302,-11.345358,-4.336459
1004.164062,-9.014892,-6.379090,-9.726134,-12.195951
1004.167969,-8.084081,-17.011693,-15.458960,-10.995189
1004.171875,-7.649796,-10.421445,-11.054359,-5.682426
1004.175781,-9.374270,-10.436368,-11.165824,-8.522358
1004.179688,-11.894768,-4.668988,-7.140899,-11.050795
1004.183594,-5.551467,-4.827558,-8.787961,-12.145245
1004.187500,-3.873619,-9.656870,-2.165303,-6.921686
1004.191406,-7.202120,2.981774,-11.230148,-4.757803
1004.195312,-0.066468,4.422178,-5.360968,-5.614947
1004.199219,-1.881076,0.363801,-4.197962,1.304222
1004.203125,2.970145,-3.153526,3.948029,-1.597251
1004.207031,4.030205,3.562325,1.334445,2.196552
1004.210938,7.886667,6.731928,4.830030,3.831804
1004.214844,4.736890,8.673385,5.097844,9.921079
1004.218750,11.059726,8.404328,13.215629,6.674132
1004.222656,7.968134,5.423558,10.028851,9.364855
1004.226562,8.764786,8.671970,8.193079,5.962544
1004.230469,6.072573,12.419215,11.183144,5.430329
1004.234375,8.700771,12.811156,10.184447,12.060074
1004.238281,3.678876,14.803399,6.434002,4.495196
1004.242188,7.224805,5.277769,0.630830,0.740608
1004.246094,4.094783,5.418417,-3.953802,-4.819822
1004.250000,5.678072,-3.466298,-7.452893,-0.089441
1004.253906,-3.398472,-5.243706,-8.408642,5.047751
1004.257812,-2.831993,-7.674262,-8.774601,-7.699333
1004.261719,-10.668158,-4.911213,2.358053,-8.095492
1004.265625,-5.065489,-3.912929,-11.182328,0.852445
1004.269531,-7.941750,-9.345711,-13.516539,-15.013883
1004.273438,-10.224616,-18.868017,-11.073815,-2.638527
1004.277344,-16.883528,-11.782593,-9.662907,-14.060848
1004.281250,-2.682584,-12.602039,-6.701262,-10.859885
1004.285156,-11.484175,-12.888930,-13.686354,-2.232007
1004.289062,-6.455519,3.492293,-11.933565,-8.626588
1004.292969,-5.291307,-6.873790,0.528049,3.800318
1004.296875,2.368640,-4.007410,-4.914475,-1.574098
1004.300781,3.904665,4.307226,-5.357651,6.964637
1004.304688,9.489269,8.361876,2.367757,6.592798
1004.308594,7.585492,-1.526317,10.373721,4.765485
1004.312500,5.249819,4.756714,6.309997,8.181321
1004.316406,7.773827,7.688193,11.988905,12.624324
1004.320312,11.386931,9.834883,11.662959,10.509231
1004.324219,1.055681,5.843115,12.023223,8.640626
1004.328125,11.029019,11.226635,7.133467,10.626908
1004.332031,11.002280,4.222598,6.029326,10.924091
1004.335938,6.248438,11.871939,8.028330,8.341482
1004.339844,-1.477554,2.465614,3.535593,9.236789
1004.343750,0.350607,-0.292957,-0.289357,4.617744
1004.347656,-4.069992,1.839587,0.855628,0.051945
1004.351562,0.296458,0.625767,-0.432862,-7.608461
1004.355469,-3.347847,-3.390139,0.452418,-1.399052
1004.359375,-0.346228,-8.244376,-4.550310,0.767326
1004.363281,-7.195305,-4.473877,-5.411002,-12.805915
1004.367188,-8.336877,-7.644022,-11.734474,-7.298603
1004.371094,-5.869207,-10.775688,-12.435482,-1.974707
1004.375000,-4.866408,-11.193099,-8.071004,-7.985645
1004.378906,-9.245829,-3.083951,-3.914717,-6.288351
1004.382812,-4.986774,-12.945865,-15.124734,-8.504897
1004.386719,-15.936372,-0.358467,-4.348717,-10.268038
1004.390625,-7.454836,-10.151068,-2.601656,-7.718534
1004.394531,-0.999390,-3.653109,-2.006678,-5.011571
1004.398438,-7.933163,-0.047761,-0.137886,-7.602389
1004.402344,-4.172227,2.088343,3.857719,7.387787
1004.406250,2.454424,3.886993,3.050730,-3.587222
1004.410156,11.976268,6.496941,6.825953,8.110619
1004.414062,6.895511,8.163270,6.292988,11.912444
1004.417969,10.458160,13.545423,6.230873,8.107403
1004.421875,6.191679,13.488279,15.616253,16.064995
1004.425781,6.024027,5.165361,14.993191,12.257369
1004.429688,8.450853,14.132456,12.802256,6.695888
1004.433594,10.202627,9.078287,13.698151,15.098689
1004.437500,4.885539,7.661732,7.600802,14.192689
1004.441406,7.229575,3.499680,5.705976,2.143557
1004.445312,4.809716,-2.566863,11.140516,-3.141737
1004.449219,-6.068389,8.120279,1.333455,0.268406
1004.453125,5.725190,0.757150,3.130228,-5.395090
1004.457031,-9.418813,-6.354361,-2.331756,-2.043807
1004.460938,-2.176877,-8.195077,-2.397305,-1.788045
1004.464844,-6.263835,-12.836376,-11.771677,-17.150128
1004.468750,-9.617209,-5.708156,-5.981678,-11.251101
1004.472656,-17.070884,-13.822642,-13.668474,-8.514827
1004.476562,-8.218555,-11.937677,-7.848381,-6.430666
1004.480469,-11.799917,-5.437922,-13.272282,-6.161440
1004.484375,-7.441112,-6.334544,-6.299787,1.308347
1004.488281,-12.875008,-0.769436,-7.117667,-4.468563
1004.492188,2.354929,-7.808696,-4.495110,-11.286093
1004.496094,5.674445,-2.798903,-1.854830,6.799887
1004.500000,3.774356,-3.144609,2.726021,2.029406
1004.503906,1.443473,1.827292,5.926294,7.327470
1004.507812,4.450330,8.100020,8.665566,0.067409
1004.511719,8.444697,13.128136,4.098490,1.313287
1004.515625,5.778578,10.243359,12.549793,5.825727
1004.519531,8.312536,18.253615,9.696669,9.348973
1004.523438,13.286845,7.171488,8.958202,12.254600
1004.527344,9.745689,14.386270,13.774420,16.446568
1004.531250,13.874233,4.692087,7.073471,7.086324
1004.535156,10.012651,9.944167,6.893636,16.134825
1004.539062,0.897944,6.957864,6.688691,11.274520
1004.542969,7.724374,4.582577,-1.715219,12.881053
1004.546875,7.272490,-1.873533,4.175226,1.328878
1004.550781,-5.127782,-4.641509,-2.738605,-1.185684
1004.554688,2.110447,1.814904,-3.728771,-3.786215
1004.558594,-10.843766,-1.131052,-9.271924,-6.400576
1004.562500,-7.986570,-5.430319,0.073943,-12.438290
1004.566406,-10.510521,-12.312428,-13.784880,-5.627634
1004.570312,-11.989629,-8.319992,-4.816800,-7.928824
1004.574219,-8.516592,-8.429124,-9.731131,-5.203650
1004.578125,-11.238815,-9.358693,-10.022743,-8.861983
1004.582031,-10.183583,-3.662019,-4.334769,-4.862491
1004.585938,-10.522921,-5.809710,-13.974202,-3.455792
1004.589844,-2.212481,-9.095655,-7.100315,-6.655683
1004.593750,-11.007100,-6.607105,1.004024,-2.325868
1004.597656,2.574316,-9.368891,8.810163,7.333316
1004.601562,-0.611051,3.398901,0.841384,-7.708763
1004.605469,-2.454433,10.490411,1.769985,4.606897
1004.609375,1.111589,4.769774,-2.554527,1.503643
1004.613281,3.640949,9.018347,6.504886,7.142777
1004.617188,13.681556,9.266963,6.734704,14.934822
1004.621094,10.584661,8.973145,12.658669,15.882246
1004.625000,10.984515,8.615408,12.101235,9.399826
1004.628906,5.782213,13.573661,6.919134,10.705649
1004.632812,9.442224,8.120145,9.318918,8.232086
1004.636719,5.672591,7.856985,7.411351,5.514951
1004.640625,1.730671,10.755104,4.152692,6.076792
1004.644531,-1.972738,0.151664,0.275425,5.181135
1004.648438,0.387802,-0.261267,-3.539725,-2.725002
1004.652344,-4.361086,-1.661307,0.840604,-5.547501
1004.656250,-6.122701,-7.298612,-2.611466,-8.448560
1004.660156,-9.058322,-0.980808,-10.800028,-7.850136
1004.664062,-8.261637,-4.645290,-10.364068,-6.689512
1004.667969,-18.151994,-6.742482,-7.002339,-9.106000
1004.671875,-6.201376,-9.271278,-12.045646,-9.464999
1004.675781,-14.326695,-8.324575,-11.700726,-16.744233
1004.679688,-9.209760,-8.162724,-17.240149,-10.384246
1004.683594,-8.670675,-8.918060,0.814102,-8.635907
1004.687500,-6.094872,0.092240,-0.413123,-5.493521
1004.691406,4.619572,-5.230694,0.069537,0.899184
1004.695312,-1.220953,-1.585728,-5.679147,1.291143
1004.699219,2.920229,-6.823079,0.403790,-9.001883
1004.703125,1.688562,1.775228,10.225342,6.426468
1004.707031,8.814960,9.218759,6.451990,-1.465350
1004.710938,8.218311,-0.816865,0.071913,3.730458
1004.714844,12.673528,10.719322,2.639196,8.677530
1004.718750,5.336075,7.791199,11.480242,1.538628
1004.722656,5.648795,17.622272,8.336129,13.650659
1004.726562,11.291345,10.171224,9.983630,10.928694
1004.730469,3.031659,11.790949,14.370952,6.132722
1004.734375,9.696086,9.188407,4.484770,4.138258
1004.738281,10.448119,2.607622,9.736243,1.913693
1004.742188,0.786432,7.126302,2.726657,4.104400
1004.746094,0.550115,2.013271,4.364499,1.500628
1004.750000,-0.770312,2.315280,7.014810,3.070197
1004.753906,-3.648678,-10.865761,-5.608549,0.390042
1004.757812,-7.884719,-0.207800,-1.698385,-8.146103
1004.761719,-7.148622,-7.923239,-5.287967,-6.267558
1004.765625,-7.571811,-4.775936,-10.476953,-4.699316
1004.769531,-14.716149,-10.264229,-6.017724,-17.480439
1004.773438,-9.263523,-13.288402,-7.096322,-4.873726
1004.777344,-16.884841,-8.049146,-4.649412,-8.957139
1004.781250,-7.450297,-10.282883,-3.450019,-9.420882
1004.785156,-4.955952,-12.822301,-5.908089,-17.318731
1004.789062,-4.072883,-11.017704,-7.576507,0.610900
1004.792969,-5.735511,-7.154123,-2.690979,-4.900272
1004.796875,-3.679838,-2.611680,-2.959756,7.868277
1004.800781,2.404985,2.747367,4.303035,1.653378
1004.804688,-2.838914,9.948216,4.282363,2.246020
1004.808594,1.099578,3.880822,-1.156602,2.340018
1004.812500,10.623419,8.343204,7.583285,9.526925
1004.816406,10.544152,5.641831,1.075754,12.090131
1004.820312,17.157949,9.409932,3.008797,-0.060553
1004.824219,8.199173,8.713208,11.830011,18.038920
1004.828125,12.812399,9.427285,9.724754,4.710181
1004.832031,13.608040,6.904660,11.992916,9.072167
1004.835938,8.295827,3.643826,6.295600,7.804050
1004.839844,3.398695,4.971093,5.256263,0.594948
1004.843750,5.134127,3.176897,-3.618394,9.284690
1004.847656,-2.464695,-1.916246,-2.047841,0.864276
1004.851562,0.136799,-4.499562,-0.637846,-8.421702
1004.855469,-3.588451,0.125800,-6.697666,-4.180073
1004.859375,-6.459697,-5.453514,-11.780788,-1.110332
1004.863281,-5.385839,-7.752216,-10.859985,-2.353263
1004.867188,-8.244311,4.546413,-10.250954,-12.128764
1004.871094,-16.732018,-8.924657,-7.082978,-14.319218
1004.875000,-10.662370,-4.454343,-18.538692,-7.335161
1004.878906,-0.012099,-5.885105,-6.139162,-6.427617
1004.882812,-10.895057,-10.089323,-10.531921,-4.110631
1004.886719,-8.979669,-2.148547,-6.730970,-0.320227
1004.890625,-9.767164,-5.380215,-15.740368,-6.824109
1004.894531,-5.208568,-4.372128,-2.937453,0.034064
1004.898438,-0.639830,-6.309906,-6.113216,-4.487247
1004.902344,-7.567928,5.167246,5.044169,-3.210361
1004.906250,12.326335,6.549551,11.002362,0.409812
1004.910156,2.165946,4.304523,4.040396,4.016285
1004.914062,12.208266,3.852026,9.048214,1.754982
1004.917969,9.273685,7.475195,8.658323,10.950195
1004.921875,4.584346,10.005388,12.712724,7.631077
1004.925781,12.109846,10.642903,5.907724,10.132663
1004.929688,7.259162,9.774072,5.275704,9.932523
1004.933594,5.970906,14.910881,7.459851,11.600674
1004.937500,10.671971,8.157614,8.017746,2.426087
1004.941406,2.527845,2.540558,4.332396,2.524343
1004.945312,13.552564,4.613938,-3.836450,6.963668
1004.949219,-2.042077,1.513362,0.981753,-7.303555
1004.953125,-0.447318,-4.112827,2.239492,-2.081510
1004.957031,-7.574670,-0.541593,-9.403429,-3.297372
1004.960938,-5.988077,-10.329491,-11.406376,-10.414509
1004.964844,-9.614991,-9.750713,2.982942,-7.991084
1004.968750,-10.467002,-17.620024,-6.049689,-6.135535
1004.972656,-13.634692,-6.251094,-12.671578,-17.005762
1004.976562,-2.892795,-7.700125,-9.849831,-9.229928
1004.980469,-8.364792,-11.246938,-6.815602,-7.502049
1004.984375,-10.210153,-5.649539,-11.267470,-11.282710
1004.988281,-10.103804,-12.159157,-7.415160,-7.717192
1004.992188,-4.107267,-10.178919,-4.272940,-0.048352
1004.996094,1.163887,-6.952552,0.551083,-1.241022
1005.000000,-0.547962,-0.777623,-1.411766,-6.522642
1005.003906,8.302056,1.719301,6.216500,-5.217800
1005.007812,8.563177,-2.227267,8.624980,-2.300593
1005.011719,3.895267,7.931202,1.134666,5.179048
1005.015625,18.128646,8.318252,5.480362,1.193723
1005.019531,16.911618,10.310785,10.867014,12.909826
1005.023438,2.610967,12.408177,8.798660,15.056556
1005.027344,18.260448,8.317731,19.039143,5.849444
1005.031250,10.430558,4.794086,15.338686,7.872527
1005.035156,7.222953,7.109479,3.381888,7.524967
1005.039062,1.910329,10.064162,0.388742,9.083609
1005.042969,1.772354,4.793111,9.175302,8.896113
1005.046875,-1.465994,2.267722,3.045643,6.832724
1005.050781,0.495124,-3.614929,-9.500266,-3.528610
1005.054688,-4.637235,-0.780637,-2.060992,-6.344760
1005.058594,-4.048447,-3.445162,0.260297,-12.667030
1005.062500,-10.112701,-5.253661,-4.163387,0.741100
1005.066406,-9.470904,-6.248451,-6.378517,-5.877662
1005.070312,-11.888081,-10.904626,-2.935646,-9.523742
1005.074219,-7.796722,-5.761320,-12.318349,-4.550658
1005.078125,-7.913241,-3.829349,-10.457341,-15.174117
1005.082031,-5.698803,-8.536225,-3.008055,-4.402206
1005.085938,-10.002815,-5.602487,-3.763713,-1.817291
1005.089844,-4.075578,-8.400661,0.732446,-5.816705
1005.093750,-1.888927,-6.939988,4.186514,-3.964502
1005.097656,-7.719471,-3.632514,-5.851553,0.195115
1005.101562,-2.832035,1.388516,-4.516760,0.067909
1005.105469,8.137349,2.217476,5.221945,5.223837
1005.109375,4.357304,9.268726,4.438519,11.561012
1005.113281,2.380770,4.427035,14.915782,15.705292
1005.117188,10.861470,12.532533,2.225530,8.908076
1005.121094,14.496453,7.101980,8.621930,16.617418
1005.125000,6.995966,10.052473,11.393139,8.816118
1005.128906,3.727006,9.108129,5.859011,11.104233
1005.132812,4.991418,5.923374,9.663757,4.943545
1005.136719,7.142081,9.030007,5.435097,8.074172
1005.140625,10.078202,5.392061,11.753144,7.173297
1005.144531,4.094140,1.856203,9.347837,2.653093
1005.148438,4.763594,-0.744591,8.314284,2.035341
1005.152344,-4.318141,-0.130275,1.116194,-4.324214
1005.156250,-3.309769,-6.292863,-13.207056,-7.708166
1005.160156,-2.784360,-10.461067,-4.411339,-10.577303
1005.164062,-11.080461,-13.906692,-4.773650,-7.738044
1005.167969,-9.882168,-7.349193,-12.051697,-8.761728
1005.171875,-5.860592,-7.524755,-7.320483,-9.997885
1005.175781,-3.048221,-6.090061,-2.347229,-15.624865
1005.179688,-9.587802,-8.163334,-12.269588,-9.311357
1005.183594,-7.056027,-6.084394,-12.221175,-8.610155
1005.187500,-16.599848,-3.346618,-6.006632,-3.812240
1005.191406,-12.549480,-9.025593,-3.547961,-9.132260
1005.195312,7.261602,5.485019,-4.675038,2.597685
1005.199219,0.994353,0.640519,-2.138436,0.797379
1005.203125,4.041531,-4.076716,4.433443,7.033500
1005.207031,0.298207,4.429108,2.573853,0.640531
1005.210938,2.212095,12.720173,7.765572,4.529277
1005.214844,15.528422,5.856773,10.436331,3.997915
1005.218750,5.399520,7.324807,4.076729,9.611571
1005.222656,7.897381,10.012295,17.477016,10.144704
1005.226562,13.625472,16.608673,6.437764,5.229295
1005.230469,10.812561,8.002182,14.141000,9.441783
1005.234375,6.700101,-2.441103,7.326537,7.186657
1005.238281,5.023131,3.486768,3.483666,8.504993
1005.242188,8.609629,8.824112,-0.490189,6.011486
1005.246094,6.455141,11.156712,3.264350,10.471920
1005.250000,7.703840,-3.371612,2.153901,3.304827
1005.253906,-6.054346,-2.392748,-1.766700,1.047785
1005.257812,-2.348095,-6.810612,-8.557540,-8.806317
1005.261719,-13.922249,-9.101310,-1.369509,-7.425952
1005.265625,-6.218018,-5.969585,-8.445615,-9.133118
1005.269531,-5.602773,-14.290884,-11.023362,-7.395086
1005.273438,-16.637528,-9.889428,-7.938204,-17.424003
1005.277344,-10.797873,-4.642219,-13.593015,-10.378527
1005.281250,-18.802911,-10.753763,-12.284301,-7.443708
1005.285156,-20.199890,-6.258573,-8.060292,-7.770777
1005.289062,1.453361,-11.386360,1.784777,-9.313113
1005.292969,-8.528498,-3.689176,-3.296399,-5.789937
1005.296875,-1.568251,4.913866,-0.955294,3.187699
1005.300781,0.053402,-1.653035,1.440585,3.063221
1005.304688,6.142094,1.446501,-2.769686,-4.408662
1005.308594,9.706608,2.732317,5.276921,4.431565
1005.312500,7.939883,5.749778,7.171274,7.523525
1005.316406,6.005630,10.062635,4.402142,5.207432
1005.320312,11.939009,13.601252,4.202523,1.487012
1005.324219,12.901254,11.853049,13.032628,10.414943
1005.328125,15.352154,4.788704,1.076694,16.410342
1005.332031,9.854306,9.430404,10.131518,13.592726
1005.335938,18.714893,11.707234,18.546227,8.323888
1005.339844,10.333203,8.794481,11.906351,1.790557
1005.343750,3.533760,12.993669,5.705276,6.911501
1005.347656,0.068232,-0.442017,2.315699,1.426971
1005.351562,1.499587,-2.550281,4.645046,-1.686407
1005.355469,-8.166819,0.202213,-1.291345,-9.502341
1005.359375,-10.763551,-2.844362,-7.814298,-6.698747
1005.363281,-11.382902,-11.914815,-3.109510,-6.060454
1005.367188,-8.943424,-9.331574,-11.224244,-13.931895
1005.371094,-8.570982,-7.977023,-5.107278,-6.564771
1005.375000,-6.069259,-4.675845,-1.018593,-9.256049
1005.378906,-5.725532,-9.524134,-11.743768,-14.841720
1005.382812,-10.718184,-14.475319,-12.782421,-8.894427
1005.386719,-6.798356,-13.468840,-12.872960,-7.651806
1005.390625,-3.270530,-5.997493,-10.116695,-9.109574
1005.394531,-11.003600,-3.717879,-3.005611,-4.354446
1005.398438,-0.117160,-2.335572,1.429431,-1.461915
1005.402344,-3.958252,3.388572,-2.860481,9.954308
1005.406250,6.694204,3.851456,6.331772,-1.597156
1005.410156,3.269286,8.951959,10.597962,9.124416
1005.414062,7.536238,15.056003,12.344239,10.019008
1005.417969,8.609334,7.303292,10.045008,12.105130
1005.421875,7.196285,18.990499,15.966653,8.886446
1005.425781,11.246974,9.694516,5.587314,8.156267
1005.429688,5.586696,0.250932,17.456461,8.754468
1005.433594,12.031957,11.411079,10.406811,5.431543
1005.437500,6.148296,4.001144,5.431488,3.258004
1005.441406,2.063147,5.053351,2.660859,10.355846
1005.445312,3.255106,-2.541122,-1.771824,4.316970
1005.449219,1.081504,-2.513209,-1.720916,-6.044586
1005.453125,-3.252128,1.437589,-0.802548,1.116262
1005.457031,-0.521381,0.493315,-0.318683,-6.058079
1005.460938,-1.165112,1.447461,-11.771691,-3.357708
1005.464844,-10.867377,-12.247633,-8.399700,-11.405449
1005.468750,-6.989664,-8.687118,-7.418919,-11.387357
1005.472656,-6.922356,-3.875385,-7.762166,-5.247111
1005.476562,-9.717179,-6.330623,-14.138193,-9.943605
1005.480469,-6.276837,-7.636099,-11.386037,-13.199505
1005.484375,-12.413447,-16.164302,-13.264798,-8.271210
1005.488281,-11.749889,-4.797464,-7.498629,-7.365180
1005.492188,-2.533046,-11.864703,-2.120738,-4.725243
1005.496094,-1.264166,-10.398183,2.364133,5.557338
1005.500000,0.693976,-1.218498,0.626676,5.937850
1005.503906,0.036001,8.594185,0.783841,2.087519
1005.507812,3.732342,5.790836,6.466506,8.290602
1005.511719,9.548705,3.356530,2.673320,9.264628
1005.515625,6.852980,8.958658,8.349097,-2.390337
1005.519531,6.070829,14.450564,10.019765,3.461305
1005.523438,6.302913,7.016022,12.409195,5.976734
1005.527344,13.230435,8.903179,7.817524,9.947674
1005.531250,11.859979,10.868538,14.240607,2.387752
1005.535156,4.137868,5.722739,11.477734,6.656583
1005.539062,1.117218,7.253676,4.028416,7.561491
1005.542969,5.991471,5.676116,-0.781133,11.846163
1005.546875,-6.894870,0.078404,2.861950,0.095995
1005.550781,-2.143566,-10.139456,-6.931241,-4.391612
1005.554688,1.570408,-3.344344,2.439056,-1.089528
1005.558594,-14.529481,3.952370,-4.174353,-7.120344
1005.562500,-8.529818,-13.793827,-11.007202,-5.880983
1005.566406,-14.706869,-8.281341,-8.155434,-9.649018
1005.570312,1.190095,-12.034904,-13.027311,-4.720853
1005.574219,-15.672207,-6.715721,-7.191995,-6.953245
1005.578125,-12.030592,-7.625725,-1.393372,-15.197552
1005.582031,-11.157726,-10.955530,-1.317972,-12.961126
1005.585938,-13.764618,-5.737589,-4.152895,-11.327885
1005.589844,-0.147942,-3.292429,-2.912237,-10.526346
1005.593750,-2.350010,-4.758952,4.357354,1.482982
1005.597656,2.161229,-3.168119,-4.056738,4.592543
1005.601562,-5.929304,-1.390980,-1.825283,-1.452442
1005.605469,2.711379,2.030472,2.855118,4.465084
1005.609375,6.519761,7.756632,11.358597,-3.037488
1005.613281,20.419847,8.022386,3.988701,2.732142
1005.617188,13.545441,7.784123,8.423976,11.453104
1005.621094,11.481893,10.130650,7.844030,13.110468
1005.625000,11.895888,4.178269,9.824091,10.717936
1005.628906,7.668638,4.083768,15.826497,12.310214
1005.632812,2.068294,11.713364,7.002019,8.059549
1005.636719,11.858674,-1.156581,6.784912,10.063398
1005.640625,5.393700,6.367560,3.822052,2.437367
1005.644531,5.960615,-1.330317,11.203796,3.301881
1005.648438,-3.589524,-3.260581,-3.598006,-2.352867
1005.652344,-6.687924,0.117325,-9.787421,-3.848097
1005.656250,-5.159325,-1.276795,-0.676355,0.320644
1005.660156,-0.411079,-6.034678,-3.381506,-2.049980
1005.664062,-5.292247,-9.474477,-12.318653,-9.775854
1005.667969,-17.911541,-3.009245,-6.448368,-12.482112
1005.671875,-10.458181,-6.845603,-2.166649,-12.081439
1005.675781,-15.993066,-11.457882,-10.619246,-10.671687
1005.679688,-8.529191,-16.422614,-9.962554,-10.245271
1005.683594,-4.169781,-12.883950,-7.338984,-18.806684
1005.687500,-4.710643,-8.184717,-8.825997,-7.696054
1005.691406,-9.679950,-0.604596,-5.434438,-0.361197
1005.695312,-4.475748,-3.507697,1.802666,-5.543805
1005.699219,5.584001,-4.887918,-1.419373,2.299086
1005.703125,3.590480,4.835884,1.442540,-0.438152
1005.707031,8.894557,3.716908,4.007081,7.222132
1005.710938,9.287414,-2.462522,3.246231,5.992859
1005.714844,2.840527,8.845371,8.945547,10.417613
1005.718750,16.230827,8.627873,4.189216,10.146313
1005.722656,5.927360,8.395286,3.397248,7.589497
1005.726562,5.411922,10.988131,15.508581,10.738243
1005.730469,10.632212,0.698645,5.794064,8.894313
1005.734375,6.876460,8.808653,9.614548,10.828968
1005.738281,11.851428,12.670755,7.053292,15.340057
1005.742188,3.542695,7.949692,2.571091,8.356491
1005.746094,1.989515,6.127899,-2.113861,-0.637255
1005.750000,2.573203,1.024481,-1.102370,3.120547
1005.753906,2.787581,-3.582672,-6.248181,-3.663366
1005.757812,-6.355460,-8.087806,-6.578262,-3.088787
1005.761719,-8.345803,-6.184635,-9.762536,-13.926842
1005.765625,-3.515725,-6.124222,-14.158739,-6.105159
1005.769531,-12.783587,-12.740302,-1.956303,-3.072270
1005.773438,-5.910307,-14.671220,-8.158081,-9.700657
1005.777344,-2.689099,-7.958044,-13.169858,-7.265952
1005.781250,-12.351328,-4.292254,-6.514887,-9.504835
1005.785156,-12.667590,-13.681348,-14.815561,-6.962378
1005.789062,-10.970494,-9.149952,-11.720983,-1.965500
1005.792969,-4.502888,-2.415959,-3.827730,-7.488414
1005.796875,2.394927,2.030478,-4.901000,-1.689831
1005.800781,1.682159,3.834386,0.744987,-0.479073
1005.804688,0.927716,-0.744841,7.117219,5.720987
1005.808594,6.594121,4.446880,3.783794,9.697168
1005.812500,2.013536,6.626574,8.476548,8.405090
1005.816406,8.698769,2.900232,10.289909,14.609008
1005.820312,6.994698,10.202439,11.993318,11.333249
1005.824219,13.253302,6.574348,0.827667,11.905437
1005.828125,10.421669,3.716390,10.407854,8.530389
1005.832031,6.398760,11.420522,13.625608,10.668216
1005.835938,0.388161,10.406055,10.113854,3.918703
1005.839844,3.059319,3.940579,5.768641,11.047590
1005.843750,9.840365,-1.218340,7.894824,3.976935
1005.847656,-3.252539,1.947942,-0.583512,2.069797
1005.851562,-1.335473,0.682072,-3.627093,0.295018
1005.855469,-0.892703,-2.517355,-5.311934,-2.192981
1005.859375,0.133759,-0.183839,-8.635463,-1.982146
1005.863281,-10.416576,-10.134050,-7.141881,-11.710751
1005.867188,-15.432175,-11.156803,-10.807025,-12.225808
1005.871094,-9.392405,-14.246510,-9.776515,-13.059203
1005.875000,-6.570498,-19.275238,-11.657213,-11.505692
1005.878906,-15.461483,-6.059091,-8.501780,-12.963430
1005.882812,-13.845018,-7.883250,-10.727514,-2.447695
1005.886719,-4.185231,-10.412506,-10.083750,-6.458874
1005.890625,-6.136177,-6.795542,-3.746899,-0.266680
1005.894531,2.926184,-4.255581,-0.275883,-6.165626
1005.898438,-4.590370,4.823560,-7.327195,2.880121
1005.902344,3.500772,4.459578,-8.371855,-1.336747
1005.906250,6.127086,5.448075,3.943958,2.820499
1005.910156,5.069428,6.361228,4.109959,5.584468
1005.914062,12.789257,1.795540,12.284911,15.703505
1005.917969,3.455248,12.216193,7.929293,14.404486
1005.921875,15.549729,1.971111,12.238493,10.192799
1005.925781,12.272500,12.624059,14.849623,9.798778
1005.929688,10.686654,15.934869,7.811819,1.246595
1005.933594,7.333389,15.017173,4.136249,17.317090
1005.937500,7.060096,4.713562,10.611726,5.410056
1005.941406,0.018733,6.948769,6.675778,8.054064
1005.945312,9.007692,1.014093,7.789089,8.498853
1005.949219,-6.599067,2.359505,2.196920,1.296952
1005.953125,1.197157,-8.979367,-3.626752,-5.302088
1005.957031,-4.851634,-4.628893,-7.447018,-2.305658
1005.960938,-3.020940,-7.954640,-5.424758,-9.502215
1005.964844,-6.375489,-5.998256,-2.633570,-17.118059
1005.968750,-10.789341,-3.116592,-9.494034,-7.768378
1005.972656,-4.877179,-9.361693,-11.909070,-5.332887
1005.976562,-8.668767,-11.312756,-5.934296,-8.775449
1005.980469,-2.849360,-4.948655,-15.476180,-7.587615
1005.984375,-9.193024,-3.779986,-15.573326,-14.155055
1005.988281,-3.128475,-6.291813,-7.826014,-8.204646
1005.992188,-3.718212,0.071333,2.906389,-11.082225
1005.996094,-2.798462,-7.044356,-0.453687,-1.065713
1006.000000,-7.396917,2.879378,-2.987548,-1.571302
1006.003906,-3.369780,-0.545582,1.691866,-0.817683
1006.007812,5.164304,5.522795,5.271503,-0.128873
1006.011719,7.549133,3.999109,3.514054,6.549605
1006.015625,14.893730,7.099516,17.745411,14.259915
1006.019531,8.583139,9.191439,12.589073,9.499813
1006.023438,10.789186,11.251227,9.274001,11.284227
1006.027344,10.016733,7.212110,9.215706,5.162416
1006.031250,-2.883218,11.607344,6.473057,9.111851
1006.035156,10.525304,1.846690,8.087445,4.543010
1006.039062,4.912948,7.401586,9.111631,9.906876
1006.042969,1.103204,8.000930,6.338037,5.980817
1006.046875,1.906223,-1.366241,0.405352,7.183564
1006.050781,-11.433457,-0.011609,1.865181,-3.302143
1006.054688,1.260101,-0.419143,-5.879733,1.515043
1006.058594,-5.121129,-6.975158,-4.658990,-3.356771
1006.062500,-11.163208,-11.416339,-3.657934,-2.024080
1006.066406,-8.394488,-8.788253,-5.346323,-8.083413
1006.070312,-5.901224,-12.758887,-6.919795,-9.673163
1006.074219,-18.316531,-6.402533,-9.181035,-8.895354
1006.078125,-21.893754,-5.285264,-13.077119,-7.435878
1006.082031,-12.268410,-8.948180,-7.614506,-7.278513
1006.085938,-6.313573,-8.685393,-11.167017,-18.031951
1006.089844,-4.105427,-9.344265,-4.383128,-6.688563
1006.093750,-3.918875,1.567582,-3.137364,-9.646455
1006.097656,-3.607461,-3.886877,-2.096001,0.133013
1006.101562,3.656142,-1.595789,0.901233,-3.651161
1006.105469,-2.554391,3.998373,7.764649,1.627026
1006.109375,3.675786,7.406384,5.836215,8.948550
1006.113281,7.590972,1.835960,11.533032,2.054052
1006.117188,10.986209,4.335679,8.988335,8.736033
1006.121094,10.354824,10.430155,5.535123,11.079954
1006.125000,11.472384,11.759603,8.817711,14.470025
1006.128906,10.216836,2.064729,9.182679,8.406720
1006.132812,12.235010,7.810496,5.422106,7.311977
1006.136719,5.892643,14.194044,10.501129,8.771148
1006.140625,5.203708,5.625411,9.971985,5.615117
1006.144531,-0.824607,0.479305,-4.130659,5.907680
1006.148438,2.649193,-1.675974,1.707475,-1.422653
1006.152344,0.117885,-5.834732,-3.894455,0.351430
1006.156250,-11.313723,-7.892881,-1.574996,-7.879545
1006.160156,3.714807,-3.150571,-2.065624,-2.516120
1006.164062,-10.723363,-5.188689,-6.036565,-8.337957
1006.167969,-5.023127,-9.403930,-7.570488,-8.710045
1006.171875,-10.605879,-17.869759,-10.714279,-14.602399
1006.175781,-9.272212,-12.636561,-12.611857,-8.451827
1006.179688,-12.702041,-3.276068,-1.099125,-6.400024
1006.183594,-3.733854,-8.312396,-10.685789,-5.926539
1006.187500,-8.165900,-3.492801,-7.507348,-7.899548
1006.191406,-4.961555,-8.614989,-3.291772,-4.979250
1006.195312,-7.118396,-3.800523,-2.769499,-2.054443
1006.199219,3.813102,0.098184,-1.916551,4.670276
1006.203125,-2.908215,-1.951397,8.480250,-6.158887
1006.207031,4.595849,1.202863,2.695037,4.982448
1006.210938,3.400319,1.493328,3.118328,7.903536
1006.214844,5.821929,5.968525,8.984126,3.437124
1006.218750,14.994041,10.439809,12.811585,10.924654
1006.222656,7.204981,6.149260,13.767223,9.993088
1006.226562,8.072290,8.080359,13.452319,14.757596
1006.230469,8.183219,0.642473,9.387164,10.371741
1006.234375,6.246694,7.112516,6.357977,12.499798
1006.238281,8.139949,5.322357,4.207807,10.687791
1006.242188,2.121945,8.848578,6.505902,1.668198
1006.246094,1.768656,-6.540967,0.619102,7.632556
1006.250000,-8.882475,-0.220089,2.054820,0.927981
1006.253906,-3.460529,-3.686185,0.873319,-2.464998
1006.257812,-10.416939,-7.010979,-1.671088,-3.182834
1006.261719,-7.469247,-7.666013,-2.096163,-5.870907
1006.265625,-10.987516,-3.064618,-14.112016,-7.876993
1006.269531,-15.969983,-7.415151,-6.899183,-8.946186
1006.273438,-11.061103,-17.051633,-11.750238,-14.324788
1006.277344,-4.575664,-10.806615,-14.042411,-14.608929
1006.281250,-9.605524,-11.687024,-2.516174,-12.671152
1006.285156,-10.593367,-6.253758,-4.697193,-10.846022
1006.289062,-11.016790,-2.129222,-14.389071,-5.580155
1006.292969,-6.514093,-8.120264,1.133076,-4.861763
1006.296875,-2.705411,-2.254835,-5.514480,-2.450526
1006.300781,-0.183488,-6.904361,-2.425001,1.659197
1006.304688,0.100925,5.104894,-2.682659,-2.015943
1006.308594,6.168030,5.345409,9.392396,4.938515
1006.312500,0.552438,0.579788,10.268766,8.898991
1006.316406,7.298793,16.316689,17.653479,10.862134
1006.320312,11.286603,13.870881,16.882209,6.057127
1006.324219,9.147409,15.247814,9.418866,13.165349
1006.328125,12.159278,17.352518,6.797413,6.211738
1006.332031,10.395756,7.677703,16.970259,4.163624
1006.335938,6.512304,14.342208,10.627320,12.417183
1006.339844,5.259221,6.573104,2.543589,5.660696
1006.343750,3.751665,6.094893,-0.275951,0.524561
1006.347656,4.153300,3.706227,9.382125,5.155375
1006.351562,-0.087045,2.099392,-0.758683,0.141494
1006.355469,-0.492097,0.565044,0.479017,-5.913026
1006.359375,-5.078076,-5.129363,-7.392278,-7.353239
1006.363281,0.562427,-10.540277,-14.331890,-5.524624
1006.367188,-15.288251,-9.636498,-10.585476,-7.052410
1006.371094,-13.452746,-9.716972,-9.438637,-12.081954
1006.375000,-12.957262,-10.185263,-11.736724,-1.301180
1006.378906,-9.846015,-4.978432,-4.533977,-10.041856
1006.382812,-9.167679,-6.330499,-0.973871,-9.976881
1006.386719,-11.525516,-4.241976,-5.039943,-11.378747
1006.390625,1.664392,-5.612731,-8.381035,0.110720
1006.394531,-9.278368,-7.824008,-3.925556,-7.800047
1006.398438,-0.309936,4.700643,-0.984271,-3.637361
1006.402344,3.278214,-2.920312,5.014167,1.393824
1006.406250,5.994205,1.539063,-0.197564,3.591869
1006.410156,8.354072,6.732061,6.941384,4.910082
1006.414062,-0.312793,3.580203,8.318371,10.338663
1006.417969,12.524953,0.966112,4.857919,10.996468
1006.421875,9.385598,3.010910,15.491879,5.528708
1006.425781,5.660782,6.071164,16.224320,10.700926
1006.429688,7.063018,5.078211,13.555945,16.826796
1006.433594,10.129461,6.945030,-0.194353,13.879142
1006.437500,8.330546,5.947864,10.714814,-3.421998
1006.441406,6.609457,0.379455,-5.526012,3.353146
1006.445312,-1.358140,1.234824,6.665157,1.115285
1006.449219,-3.469048,-0.824325,2.544468,-4.235157
1006.453125,2.698846,-4.403999,1.603044,-9.947631
1006.457031,0.557164,-7.481258,-2.128699,-0.538779
1006.460938,-3.507979,-5.124331,-4.722492,-17.020540
1006.464844,-15.394919,-10.786556,-8.384242,-11.352239
1006.468750,-15.253367,-6.368362,-7.959346,-7.080935
1006.472656,-6.395381,-13.615892,-7.097448,-12.448363
1006.476562,-6.431807,-13.179141,-6.029914,-13.733148
1006.480469,-12.778945,-10.031001,-9.739515,-11.743952
1006.484375,-8.053474,-5.508213,-15.107513,-8.891651
1006.488281,-2.314819,-7.222052,-8.627651,-4.109010
1006.492188,-15.371591,-10.696019,1.483310,2.384134
1006.496094,-11.541317,-2.053855,-4.414875,-2.023181
1006.500000,-3.083940,4.749003,-3.122306,-3.087716
1006.503906,1.276071,5.175497,2.325029,6.071435
1006.507812,5.590800,3.440115,3.665054,4.020674
1006.511719,16.332759,7.119850,5.383046,9.019831
1006.515625,6.463400,6.390362,-1.255502,9.021583
1006.519531,14.061048,7.101588,11.558131,15.745251
1006.523438,7.553474,13.300500,9.555416,8.308009
1006.527344,13.750978,10.932526,2.020459,11.526252
1006.531250,3.979662,14.416263,6.347074,9.509739
1006.535156,6.592234,6.186916,12.377622,2.376828
1006.539062,3.833041,2.310765,6.847147,6.092351
1006.542969,10.088943,6.452597,9.443884,5.446402
1006.546875,4.446807,3.841023,4.495768,0.572928
1006.550781,0.724316,6.787229,3.824502,-0.345317
1006.554688,-7.293165,-1.151567,-2.731865,-7.080961
1006.558594,-6.134657,-1.672645,1.973451,-6.699587
1006.562500,-12.036294,-10.620850,-13.197112,-4.947327
1006.566406,-9.770511,-8.600181,-2.933606,-0.912512
1006.570312,-16.649962,-11.617154,-10.767263,-13.918895
1006.574219,-11.127037,-12.711534,-13.697254,-12.554768
1006.578125,-9.308963,-10.880282,-14.093541,-11.888628
1006.582031,-13.005745,-11.555892,-15.319659,3.039847
1006.585938,-5.341982,-1.466490,-12.447965,-12.477599
1006.589844,-3.157016,-1.536266,-11.849117,-5.583940
1006.593750,-2.777114,-2.426664,-7.043067,-7.845565
1006.597656,-1.329337,-1.524128,-6.021898,3.097130
1006.601562,-0.761185,5.273108,1.039795,-0.900116
1006.605469,3.811280,-9.961630,0.955418,0.952978
1006.609375,8.633815,11.707935,0.314250,14.061281
1006.613281,5.827273,7.458361,6.883372,9.350668
1006.617188,8.577238,14.058202,8.993779,11.683330
1006.621094,11.367743,11.858346,13.751154,7.071725
1006.625000,17.061265,17.749491,14.811332,1.871571
1006.628906,10.858371,10.280036,5.922598,7.875414
1006.632812,3.281875,3.017594,4.110800,10.180074
1006.636719,2.418677,2.038523,4.547944,6.448116
1006.640625,4.674531,12.816492,5.175807,8.070877
1006.644531,1.202541,3.418031,-5.015110,4.410572
1006.648438,-0.783249,4.937663,-6.503340,-2.860920
1006.652344,0.230582,-1.557667,5.057284,-3.974353
1006.656250,-7.946834,-4.086081,-1.718509,-5.437791
1006.660156,-6.119902,-6.347325,-1.343965,-3.683478
1006.664062,-6.287194,-2.998159,-3.441373,-2.173897
1006.667969,-8.028154,-11.285076,-10.964589,-11.800672
1006.671875,-8.582005,-13.613737,-14.242024,-12.682479
1006.675781,-3.099951,-4.468981,-13.311631,-15.762146
1006.679688,-6.140088,-9.940838,-15.023191,-17.187640
1006.683594,0.739881,-12.736588,-6.157962,-14.002581
1006.687500,-6.299663,-5.928217,-9.514324,-4.705314
1006.691406,-9.612560,-4.424203,-10.242325,-7.766438
1006.695312,0.366499,2.895868,-3.516367,-0.139003
1006.699219,2.866641,11.586752,-2.088689,-11.029138
1006.703125,4.758604,-1.763905,-5.604453,-2.227184
1006.707031,0.238404,-0.568505,-3.066946,3.371104
1006.710938,2.427130,4.912979,-2.296028,6.775208
1006.714844,5.760194,12.851550,9.188888,9.584840
1006.718750,3.874896,13.398738,10.779498,8.307087
1006.722656,11.441815,5.240793,9.880119,12.274989
1006.726562,9.292943,21.236313,11.282954,10.162226
1006.730469,12.746786,9.489123,9.600102,14.630367
1006.734375,6.144497,7.923087,9.352413,10.727650
1006.738281,12.311785,7.305773,5.828165,8.954479
1006.742188,0.605595,13.050600,2.382230,3.908016
1006.746094,6.803721,5.544603,0.348876,1.135295
1006.750000,6.357217,3.591245,7.786516,3.514798
1006.753906,-0.328600,-5.710847,0.701466,-5.482195
1006.757812,-5.921494,-11.703990,-7.699890,-4.754026
1006.761719,-5.397983,-11.138783,-0.789145,-12.927281
1006.765625,-11.346299,-9.950568,-9.758943,-9.458383
1006.769531,-6.133105,-12.471531,-14.259433,-9.477893
1006.773438,-5.252998,-19.746359,-10.627136,-11.977478
1006.777344,-8.723153,-13.945306,-8.225750,-10.173040
1006.781250,-9.406272,-3.959837,-6.291004,-14.547890
1006.785156,-12.832138,-8.184097,-8.617457,-15.112081
1006.789062,-1.310628,-8.182267,-4.421670,-3.487606
1006.792969,-10.663325,-8.404624,-0.822337,-2.140506
1006.796875,-2.998045,-8.100569,4.402335,-2.878032
1006.800781,0.368620,-1.700468,6.264428,0.489025
1006.804688,0.844024,-0.123809,-3.335706,9.094149
1006.808594,0.166712,7.507011,4.175308,-2.037715
1006.812500,10.533859,10.244482,10.336120,9.655351
1006.816406,6.527841,11.391960,7.035756,8.466541
1006.820312,12.603092,10.065728,7.372836,13.451586
1006.824219,11.334004,7.736031,13.142065,8.897244
1006.828125,10.137494,12.014512,15.112609,10.974885
1006.832031,13.761073,7.074441,8.037129,8.591849
1006.835938,0.861162,8.571542,12.412900,5.368539
1006.839844,4.408826,-5.667141,9.020818,15.777304
1006.843750,2.012056,3.451190,3.266849,8.683276
1006.847656,-4.414678,5.111009,2.221376,-0.865492
1006.851562,-4.552910,-3.510550,-1.498109,1.824474
1006.855469,-4.419422,-4.938129,-6.479138,-3.465045
1006.859375,-4.230997,-5.183151,-9.427744,-1.706368
1006.863281,-2.056584,-0.473421,-5.901494,-6.036949
1006.867188,-4.665425,-6.379082,-10.865584,-11.246986
1006.871094,-15.782256,-0.389909,-10.504176,-8.027827
1006.875000,-11.444697,-7.525624,-7.079109,-15.291791
1006.878906,-12.645017,-2.832148,-10.765382,-11.614043
1006.882812,-8.864019,-10.573894,-9.249539,-9.135803
1006.886719,-11.404685,-6.082113,-4.497193,-9.356415
1006.890625,6.274721,9.980502,-1.645118,-10.999605
1006.894531,-1.869921,-2.818972,-5.686968,2.320367
1006.898438,-5.211288,-5.580068,0.685467,0.651694
1006.902344,-5.099540,0.605525,-1.311591,3.026134
1006.906250,-1.110217,6.010924,-4.103174,6.262556
1006.910156,-3.720518,3.677596,3.862000,1.339366
1006.914062,12.834865,6.316755,5.998928,7.532942
1006.917969,6.014963,17.397744,11.464580,10.897559
1006.921875,14.776237,7.160951,12.410927,7.616809
1006.925781,8.465558,9.883317,9.519010,10.024143
1006.929688,0.858108,5.833528,11.716067,3.649327
1006.933594,7.720774,11.236694,8.741173,11.221764
1006.937500,12.597062,11.503760,0.781541,16.024211
1006.941406,1.734180,8.027751,1.642069,10.971558
1006.945312,-2.732981,-0.566377,12.487186,1.300894
1006.949219,-1.964411,2.471702,-1.790939,-1.838211
1006.953125,-10.272658,-3.186558,-1.634668,-0.335771
1006.957031,-5.696024,-6.525045,-10.232633,-1.120955
1006.960938,-5.837821,-10.100536,-3.810362,-10.336444
1006.964844,-2.130105,-5.958289,-9.266571,-11.111188
1006.968750,-7.478745,-8.205927,-11.672263,-13.853266
1006.972656,-10.759183,-8.986624,-5.351393,-9.119646
1006.976562,-3.473151,-13.889893,-9.306425,-14.161282
1006.980469,-4.148106,-2.403335,-8.648145,-9.341125
1006.984375,-11.916145,-8.143453,-2.563151,-6.569642
1006.988281,-1.151452,-2.008303,-1.601735,-6.979157
1006.992188,-10.843670,-6.606524,-0.775801,-9.492285
1006.996094,4.553891,-4.754603,7.462627,-4.712731
1007.000000,-7.307981,-0.045130,-0.547501,3.378080
1007.003906,-3.502351,-0.467996,-4.002006,-1.973760
1007.007812,0.765643,7.931986,-0.488762,1.018527
1007.011719,9.907207,8.215387,11.033908,13.146141
1007.015625,3.437680,6.254756,1.201390,0.947050
1007.019531,7.580204,5.925807,5.337387,10.613733
1007.023438,10.075548,6.751514,6.061588,12.102049
1007.027344,6.004866,6.087262,7.133241,9.449683
1007.031250,7.396619,-0.821844,11.452115,6.089849
1007.035156,13.800458,5.254398,10.000380,15.111862
1007.039062,6.768995,7.699329,4.735211,7.593282
1007.042969,-1.338486,5.128269,5.564507,2.519399
1007.046875,-2.821847,7.261209,3.521036,-1.912937
1007.050781,3.872241,9.400871,1.069183,0.070256
1007.054688,-3.235215,0.873299,4.552533,-0.950419
1007.058594,-5.986894,-1.727654,-4.377718,-5.466867
1007.062500,-7.981461,-1.582449,-8.758356,-10.023163
1007.066406,-6.991850,-0.719568,-8.751948,-8.335561
1007.070312,-3.726174,-10.838467,-12.647888,-2.728725
1007.074219,-15.545637,-8.301804,-9.653268,-7.589383
1007.078125,-13.414873,-4.441461,-8.444446,-19.336717
1007.082031,-7.978626,-6.704690,-8.173697,-4.372096
1007.085938,-5.383462,-3.008368,0.360998,-8.279153
1007.089844,-8.365237,-10.492965,-8.436050,-5.629205
1007.093750,-0.303219,-1.460304,-1.983561,-9.651068
1007.097656,-7.538721,2.281889,-1.025360,0.744640
1007.101562,-4.899748,-0.727740,-1.030512,-3.560049
1007.105469,4.703872,6.595690,11.977381,5.626890
1007.109375,10.128810,9.972111,4.929853,9.237246
1007.113281,5.826289,4.332614,8.819441,7.767588
1007.117188,12.141306,11.131611,12.237587,12.499418
1007.121094,13.239794,8.952639,7.808255,18.429358
1007.125000,13.618219,11.444283,5.762477,-1.885482
1007.128906,17.162730,1.429756,0.801747,7.021036
1007.132812,5.599814,14.792588,13.215230,1.794077
1007.136719,11.674206,8.728243,2.690165,6.589611
1007.140625,4.852738,4.975825,7.561821,15.055166
1007.144531,4.554637,2.699441,7.234607,1.870579
1007.148438,1.724621,12.158811,-0.072662,0.382168
1007.152344,-2.738073,-2.016181,-0.470217,0.905235
1007.156250,-2.268976,-9.826348,-6.668714,-2.375431
1007.160156,-7.521519,-9.516657,-8.534697,0.148718
1007.164062,-14.884916,-9.908369,-10.142902,-12.278330
1007.167969,-10.530993,-2.639477,5.085669,-1.550916
1007.171875,-5.759929,-5.432917,-14.866710,-1.807430
1007.175781,-8.921059,-13.839978,-8.047054,-9.383699
1007.179688,-9.197285,-8.790897,-6.805459,-4.557080
1007.183594,-13.101098,-10.029311,-14.494042,-11.556684
1007.187500,-9.263313,-10.462239,-13.309008,-9.357194
1007.191406,-4.700210,-5.594551,-5.124239,-8.698716
1007.195312,-4.193096,-13.657496,6.045304,-2.852678
1007.199219,4.760167,-2.549735,0.608714,0.312077
1007.203125,1.083758,1.668339,5.122616,3.957908
1007.207031,9.103898,1.962961,6.276335,4.890136
1007.210938,5.116396,-2.507109,8.118978,11.805146
1007.214844,5.453139,5.247537,11.017878,11.356933
1007.218750,6.518919,12.841507,13.573958,8.858608
1007.222656,9.918660,14.821390,7.719755,13.802907
1007.226562,11.527387,8.950035,7.986859,9.525601
1007.230469,14.140964,11.061865,18.704165,5.140884
1007.234375,12.241006,4.244439,18.604162,8.621873
1007.238281,3.631498,11.552882,7.090130,2.946459
1007.242188,0.513845,6.256451,5.143013,-1.582674
1007.246094,-2.317036,5.509057,-0.802090,2.966754
1007.250000,2.385781,-4.891269,2.859696,5.242800
1007.253906,0.544280,-0.807874,0.470173,0.768818
1007.257812,-4.997198,-5.280961,4.225608,-4.585024
1007.261719,-2.310401,-4.191622,-0.991731,-2.705720
1007.265625,-10.578537,-7.839634,-3.619676,-10.690513
1007.269531,-4.267837,-11.574284,-10.527700,-6.932695
1007.273438,-5.879366,-5.872220,-2.039390,-15.979631
1007.277344,-15.315040,-10.994697,-8.215996,-7.664068
1007.281250,-15.218169,-6.465991,-13.122786,-11.221010
1007.285156,-8.303652,-8.020651,-2.574706,-7.600358
1007.289062,-0.881706,-5.676192,-7.797558,-4.971556
1007.292969,-0.398793,-6.120778,-6.726016,-6.230208
1007.296875,-2.582438,-0.013108,-2.329682,2.937593
1007.300781,-0.042748,-1.612662,-2.723539,-0.548210
1007.304688,0.074254,-0.394771,3.358741,2.377791
1007.308594,2.834544,-1.800238,0.116708,10.087358
1007.312500,11.044313,5.403527,1.602098,3.008519
1007.316406,8.469510,4.941743,14.840251,4.753588
1007.320312,14.774796,7.665220,10.874021,7.970672
1007.324219,11.214438,10.101774,11.666816,15.513466
1007.328125,5.241886,14.107861,7.608186,11.233894
1007.332031,11.318372,14.014618,9.285746,9.715182
1007.335938,3.511827,5.339823,4.730537,5.238217
1007.339844,12.374274,0.063467,3.563496,8.725790
1007.343750,0.657762,8.866048,6.799812,6.524303
1007.347656,-5.080678,0.824381,8.928454,2.727425
1007.351562,-0.818485,-4.308171,-0.531523,-2.726307
1007.355469,-2.123285,-1.106011,-2.878936,0.892782
1007.359375,-6.518180,-4.047475,-4.283645,-3.446327
1007.363281,-5.209065,-2.706945,-5.462950,-12.626613
1007.367188,-3.895258,-12.451390,-7.991136,-14.279433
1007.371094,-5.457631,-9.434350,-2.565382,-14.825915
1007.375000,-3.249364,-5.019218,-8.198901,-13.416562
1007.378906,-12.685733,-5.863151,-13.935139,-7.594611
1007.382812,-10.620982,-9.226680,-11.198149,-12.482823
1007.386719,-10.426470,-10.754080,-10.870734,-5.538804
1007.390625,-9.557708,-2.968509,-5.635929,0.660104
1007.394531,0.787357,-4.049979,-4.952281,2.990229
1007.398438,-3.622304,-3.273760,-1.404036,7.184910
1007.402344,2.410568,-2.796125,4.018884,-3.899704
1007.406250,-0.572458,12.059340,1.736846,10.590635
1007.410156,-0.451012,-1.445713,6.828838,8.423861
1007.414062,9.307673,8.381931,13.982527,8.618342
1007.417969,0.357378,9.870994,4.408004,8.029222
1007.421875,7.343473,14.574247,14.545970,6.137075
1007.425781,10.212895,12.077218,11.952403,9.813386
1007.429688,0.152255,12.083409,11.349114,12.763965
1007.433594,11.053878,1.844059,15.748687,6.624132
1007.437500,0.665040,12.556908,6.519085,1.739157
1007.441406,2.019677,5.777051,6.227212,6.567733
1007.445312,-7.290835,1.885443,2.548885,6.373897
1007.449219,0.926277,-2.912805,-3.216131,6.616193
1007.453125,-2.907879,-3.775287,3.225770,-5.578266
1007.457031,-2.348658,-4.737447,-4.745209,-7.760747
1007.460938,-9.210886,-15.127626,-3.221773,-8.450138
1007.464844,-2.919514,-3.348039,-14.276832,-10.922230
1007.468750,-11.218431,-11.706616,-12.300468,-6.238801
1007.472656,-8.242766,-9.008164,-9.118935,-6.355915
1007.476562,-5.090382,-9.297043,-17.963590,-12.834470
1007.480469,-10.848373,-11.517829,-9.773809,-10.812423
1007.484375,-12.804828,-6.379843,-18.195329,-9.706419
1007.488281,-2.254065,-6.883086,-0.496773,-7.989078
1007.492188,-0.136692,-6.608290,-9.403618,1.933016
1007.496094,-1.706962,1.567826,-7.661377,-12.601159
1007.500000,7.756733,-2.487231,1.607143,-2.593210
1007.503906,-6.057913,-5.140719,0.080405,-2.366270
1007.507812,-2.251994,4.906450,5.065759,9.598105
1007.511719,3.848958,6.214101,2.434942,2.285521
1007.515625,7.981074,10.533774,8.872427,8.258071
1007.519531,13.279615,8.360064,1.909262,16.266252
1007.523438,8.059403,11.345816,13.855328,8.397759
1007.527344,10.423364,7.191935,7.240664,11.502680
1007.531250,9.510522,11.068642,7.828262,7.244136
1007.535156,7.896451,14.764407,8.560073,20.747112
1007.539062,11.064167,-1.994041,7.854786,0.971390
1007.542969,3.065616,4.342205,2.455882,2.586656
1007.546875,4.754340,-3.292339,-4.890572,7.561074
1007.550781,2.197538,-1.796436,-2.265806,-5.788936
1007.554688,-2.419643,-9.658403,2.766855,-0.552590
1007.558594,-5.575331,0.159916,-5.847650,-8.060545
1007.562500,-8.470807,-5.812102,-2.584436,-6.817625
1007.566406,-9.438476,-5.858257,-7.988903,-9.661505
1007.570312,-6.432154,-9.660802,-10.213256,-7.626657
1007.574219,-8.968368,-8.652183,-6.120080,-8.470995
1007.578125,-11.105735,-13.523529,-9.794099,-11.817505
1007.582031,-10.389699,-11.658375,-12.684109,-9.598477
1007.585938,-5.672722,-9.574901,-4.948521,-15.338100
1007.589844,-4.729850,-7.976518,-4.918066,1.115708
1007.593750,-1.224720,-5.880828,-2.804897,-0.416637
1007.597656,-0.231412,-5.930775,-7.969424,-2.565322
1007.601562,-1.316626,-0.822068,5.079331,3.980256
1007.605469,0.420803,3.956434,1.985551,-2.242402
1007.609375,9.615473,9.962826,4.917763,6.828996
1007.613281,11.143612,6.758507,2.043944,10.987078
1007.617188,15.325005,9.204890,10.959846,20.217339
1007.621094,11.714667,9.692571,11.310816,8.714333
1007.625000,8.306049,12.583333,12.891688,12.028666
1007.628906,10.737291,11.996187,12.173411,8.015159
1007.632812,8.326469,7.458224,14.087004,12.462796
1007.636719,6.660564,10.526367,5.797351,5.891434
1007.640625,6.045974,5.854749,4.591168,4.326255
1007.644531,4.077249,2.069003,6.826456,4.639547
1007.648438,10.005515,7.230911,-3.492232,-2.097784
1007.652344,0.295103,-6.138018,0.761655,-7.303489
1007.656250,0.101897,-3.628704,-10.282058,-5.693140
1007.660156,-4.303310,4.395759,-9.846379,-1.804845
1007.664062,-9.085260,-9.960787,-13.140932,-4.463367
1007.667969,-12.779620,-13.851441,-13.247904,-7.016571
1007.671875,-7.345655,-10.194914,-8.620679,-14.670960
1007.675781,-6.346207,-11.747224,-11.088761,-14.086498
1007.679688,-12.851397,-8.133310,-8.298898,-12.631973
1007.683594,-4.220277,-8.612086,-8.832343,-9.431531
1007.687500,-12.756558,-15.463264,-11.952796,-4.995195
1007.691406,6.360855,-5.488066,2.206551,-4.093478
1007.695312,-4.259875,1.502611,1.140975,-1.398504
1007.699219,-1.033083,3.484676,-3.332956,-6.024797
1007.703125,-4.516455,-0.832593,0.927026,-2.000957
1007.707031,1.319366,3.792905,6.652515,0.019938
1007.710938,8.377827,5.819739,10.163609,9.353066
1007.714844,0.401448,9.482220,11.404649,10.712859
1007.718750,6.200124,8.821318,12.665931,5.854098
1007.722656,11.106327,10.117206,10.850102,10.314874
1007.726562,11.392625,8.102142,10.017907,13.495725
1007.730469,11.872379,11.993281,6.076333,7.588120
1007.734375,13.528566,6.523437,17.873455,4.291532
1007.738281,7.382730,11.413860,2.065847,8.224741
1007.742188,2.969774,1.133188,0.656605,-0.730965
1007.746094,3.586776,4.532724,8.779845,6.643103
1007.750000,-3.840581,2.603144,-1.390090,-0.616197
1007.753906,-1.854412,-8.639922,6.245300,-4.677398
1007.757812,-0.736973,-3.187413,-4.948707,-5.821978
1007.761719,-5.774872,-5.219358,-5.711551,-9.588588
1007.765625,-13.621970,-5.436529,-13.103986,-5.396883
1007.769531,-6.003952,-6.423491,-7.060771,-4.301198
1007.773438,-13.244301,-8.487299,-15.730405,-15.454758
1007.777344,-10.051303,-12.345306,-8.990661,0.181566
1007.781250,0.739160,-10.971151,-12.581160,-5.049500
1007.785156,-4.431784,-3.646952,-14.589197,-10.107160
1007.789062,-13.316150,-5.349827,-4.970709,-8.007182
1007.792969,-5.167732,-8.007366,-8.793105,0.298497
1007.796875,-0.586397,-4.765157,-4.652965,0.271896
1007.800781,-0.682217,-2.975189,5.612295,7.766946
1007.804688,-2.691883,8.425137,2.554558,5.115490
1007.808594,5.655300,5.102627,7.538632,8.439010
1007.812500,11.276977,7.164160,5.367479,7.306873
1007.816406,11.472467,9.469210,9.795080,1.734555
1007.820312,10.253155,4.297901,9.794617,7.967233
1007.824219,8.353489,7.967189,10.084609,10.476321
1007.828125,5.579218,12.571606,11.280760,14.739252
1007.832031,10.322885,5.434870,11.158467,11.799252
1007.835938,8.211345,8.915524,8.945583,7.407251
1007.839844,5.310322,7.172429,9.113585,4.294145
1007.843750,5.906960,5.783550,0.179708,12.928055
1007.847656,5.276175,-0.204168,-4.869298,-5.456949
1007.851562,-7.178961,3.010677,-2.212943,-3.883803
1007.855469,-3.171977,-2.782437,-0.457074,0.564948
1007.859375,-7.928266,-2.039272,-5.029871,-3.976105
1007.863281,-11.350631,-2.297161,-10.784182,-11.132754
1007.867188,-2.126142,-13.486435,-7.178006,-9.437307
1007.871094,-8.641790,-11.069454,-10.103565,-11.975206
1007.875000,-14.394688,-11.541888,-8.233027,-3.762764
1007.878906,-5.420951,-14.544453,-7.955648,-7.856219
1007.882812,-3.439833,-8.381299,-4.640157,-6.262467
1007.886719,-6.204761,-12.209388,-6.907825,-5.180726
1007.890625,-7.298803,-10.090274,-10.323519,-5.935207
1007.894531,-3.342017,-1.614911,3.253736,-8.545725
1007.898438,0.402018,3.062676,-0.770601,-5.888400
1007.902344,2.495120,3.457158,2.918310,-2.211053
1007.906250,-0.361076,7.089451,0.007458,0.154670
1007.910156,7.985175,-5.190419,5.624315,11.858330
1007.914062,5.768767,7.895644,4.930764,8.315820
1007.917969,5.160902,9.894006,3.299495,7.145563
1007.921875,8.487803,11.559306,10.200595,9.981007
1007.925781,7.705497,9.448470,8.831282,7.655101
1007.929688,2.194735,8.059064,6.614276,-4.390986
1007.933594,11.740304,10.900340,11.696388,10.539939
1007.937500,6.922391,6.074573,11.714974,6.115758
1007.941406,-0.206927,3.571430,0.583308,3.514819
1007.945312,9.946181,6.254930,-1.150021,6.158025
1007.949219,5.221935,5.339886,0.732168,2.197525
1007.953125,-4.008532,2.982579,1.605668,3.098692
1007.957031,-4.114865,-3.497566,-9.932557,-8.350780
1007.960938,-8.456900,-7.350501,-8.660072,-1.123016
1007.964844,-9.079450,-0.381410,-6.177099,-9.376028
1007.968750,-5.725979,-9.780733,-18.685033,-15.010481
1007.972656,-11.204460,-13.611019,-13.353674,-7.979400
1007.976562,-1.775500,-9.495954,-10.281496,-10.223331
1007.980469,-9.672307,-11.303846,-19.129271,-9.144220
1007.984375,-2.782448,-5.140783,-9.726020,-7.942269
1007.988281,-12.692644,-11.243867,-1.928715,-1.907562
1007.992188,-5.490021,-1.761534,-0.427105,-7.624262
1007.996094,-5.526551,-0.763366,3.620866,-8.386447
1008.000000,0.712389,3.377292,-1.732911,-0.786755
1008.003906,-4.917165,-6.141223,2.312726,4.991060
1008.007812,2.517063,8.506748,-5.002305,6.413429
1008.011719,7.694096,9.591902,11.476745,8.756500
1008.015625,5.867304,8.511166,5.575621,14.983789
1008.019531,2.416231,9.453928,4.651277,7.061407
1008.023438,13.293895,7.554568,7.053427,10.160381
1008.027344,12.326070,13.704327,7.512227,15.568787
1008.031250,7.686845,3.897110,4.856241,1.613125
1008.035156,6.445675,9.493550,7.227037,14.274753
1008.039062,9.476712,13.715559,10.587854,9.504608
1008.042969,6.436644,9.431183,7.296919,-4.756195
1008.046875,-2.379012,2.005857,0.639392,5.040802
1008.050781,-4.836017,2.144974,-5.316728,-2.404970
1008.054688,-4.569213,2.566449,2.268822,5.219156
1008.058594,-7.242179,-3.551215,-2.474642,-3.325655
1008.062500,-7.220870,-7.782496,-13.442450,-9.050775
1008.066406,-5.004282,-6.622883,-7.508051,-4.602172
1008.070312,-9.569320,-8.302676,-9.856134,-8.834073
1008.074219,-10.299806,-7.812356,-8.538075,-9.035881
1008.078125,-3.539335,-8.320791,-12.022740,-2.686759
1008.082031,-3.769633,-12.334693,-12.906498,-6.036927
1008.085938,-6.453655,-13.668355,-8.978298,-10.330611
1008.089844,-8.991231,-3.728494,-3.895437,-6.528786
1008.093750,-2.353968,0.203428,-7.040855,1.067154
1008.097656,0.200521,-6.520219,-8.138217,-2.612101
1008.101562,-3.544479,10.765372,3.361956,-0.491773
1008.105469,5.498745,9.315715,0.105247,14.289124
1008.109375,6.879397,4.647062,7.316434,1.017549
1008.113281,5.687633,5.882812,9.495554,9.430058
1008.117188,14.023373,7.147396,5.615492,6.914950
1008.121094,10.908372,4.216977,9.741745,7.489895
1008.125000,7.715709,0.688149,6.539625,3.919510
1008.128906,7.774764,7.975463,9.326570,10.492178
1008.132812,0.606396,5.753862,4.972453,6.322000
1008.136719,1.273318,3.112341,5.618635,8.154328
1008.140625,3.864771,-0.282247,1.984820,5.488702
1008.144531,2.901709,5.386162,4.052324,2.843094
1008.148438,0.023364,4.808953,7.575866,6.904419
1008.152344,-1.938202,-10.792235,-0.846589,0.902336
1008.156250,-3.941860,-3.308002,-9.172001,-4.603861
1008.160156,-5.689565,-7.318959,-8.693091,-5.418143
1008.164062,-7.364280,-4.484033,-2.628389,-5.615348
1008.167969,-5.769530,-6.736225,-11.525034,-8.584094
1008.171875,-9.081231,-8.516020,-3.835954,-6.557806
1008.175781,-16.412458,-3.638307,-3.316443,-10.038475
1008.179688,-10.028299,-14.114094,-8.608083,-4.398764
1008.183594,-9.747881,-18.361357,-4.308792,-2.528841
1008.187500,-6.679199,-13.722474,-10.191328,-9.256653
1008.191406,-3.571812,1.622333,-2.296906,-2.355647
1008.195312,-4.892251,-6.153773,-3.094842,-0.148609
1008.199219,-0.701846,3.134721,4.003299,1.868716
1008.203125,2.670125,10.507521,4.599663,7.220200
1008.207031,-6.271914,4.823440,6.537500,0.655866
1008.210938,0.606583,4.685049,8.557721,7.912213
1008.214844,2.452156,12.097928,8.802671,1.160549
1008.218750,7.359173,11.224288,17.709760,4.414931
1008.222656,9.840031,15.334911,10.087327,7.655808
1008.226562,11.043652,8.742588,5.208514,14.245428
1008.230469,12.987267,7.587202,2.508495,13.081572
1008.234375,8.007776,4.628901,8.864081,-0.371721
1008.238281,7.094753,13.595465,6.567529,9.363951
1008.242188,7.683280,2.283935,3.079895,3.306344
1008.246094,4.463773,6.581205,-7.462690,3.069592
1008.250000,-2.515022,1.694075,-1.235072,-4.876952
1008.253906,-7.068969,-1.874247,2.052221,-1.233046
1008.257812,-2.781046,-1.678767,-8.625493,2.225043
1008.261719,-4.192471,-2.024344,-0.227321,-10.839777
1008.265625,-9.877054,-7.084256,-7.679426,-3.102799
1008.269531,-7.829549,-16.442073,-12.002922,-6.189715
1008.273438,-15.072615,-5.231991,-7.290258,-4.420925
1008.277344,-11.503084,-11.719350,-12.656942,-9.162479
1008.281250,-15.139966,-12.629565,-6.301497,-2.589361
1008.285156,-6.026936,-4.800412,-1.561400,-6.532440
1008.289062,-2.637206,-12.217508,-6.010992,-10.198132
1008.292969,-4.376231,-7.776311,-2.692316,-3.974166
1008.296875,-2.870576,0.438893,-6.903510,2.114333
1008.300781,4.814208,4.430888,6.647566,-0.551335
1008.304688,0.746140,-7.031061,-5.994691,3.929002
1008.308594,3.422034,2.107016,-0.603618,1.066756
1008.312500,8.560289,2.681200,2.365900,8.030244
1008.316406,11.038614,13.522305,14.928178,11.265246
1008.320312,6.181371,8.074386,12.551293,16.366770
1008.324219,13.625481,7.045683,11.432891,16.161465
1008.328125,3.991748,5.987803,10.837589,4.785440
1008.332031,15.816220,7.830956,4.103834,19.783889
1008.335938,5.561092,6.150023,2.272107,8.631446
1008.339844,7.913332,-0.661695,-3.583659,12.104957
1008.343750,8.358482,2.781745,2.914158,7.703163
1008.347656,1.176779,-0.919666,5.130395,7.150772
1008.351562,0.277085,-2.361568,1.480370,6.192740
1008.355469,-9.857783,0.497726,-4.597132,-4.399717
1008.359375,4.102534,-6.178419,-6.218672,-11.742276
1008.363281,-12.779377,-10.841855,-15.845784,-13.797224
1008.367188,-9.586392,-4.655666,-6.555047,-10.086808
1008.371094,-14.470999,-7.161030,-5.504065,-4.531149
1008.375000,-12.110661,-9.344641,-12.565490,-8.185854
1008.378906,-11.768558,-7.972999,-6.340725,-5.049628
1008.382812,-8.749990,-16.144423,-8.993908,-4.281410
1008.386719,-4.209105,-5.741690,-5.700833,-7.813088
1008.390625,-7.405333,-1.457198,-6.217761,1.472228
1008.394531,-4.789999,-4.220714,2.904848,-5.533020
1008.398438,-0.758789,-0.036651,-4.347681,-5.914776
1008.402344,10.858862,-10.384761,-0.198504,2.767955
1008.406250,2.327109,0.535426,-1.566963,1.927008
1008.410156,7.659368,4.788230,-0.590300,7.150030
1008.414062,12.312734,10.917273,10.384153,6.953665
1008.417969,14.102283,13.610711,7.334227,10.391342
1008.421875,12.635845,11.735027,11.791763,17.723639
1008.425781,3.857087,6.533013,8.829842,14.070594
1008.429688,3.141255,7.851758,11.704003,5.511530
1008.433594,2.088485,6.256172,11.132947,7.493305
1008.437500,4.797187,9.055712,3.166677,5.158480
1008.441406,1.204679,5.601783,-0.934376,-0.484946
1008.445312,4.523948,6.587068,12.794599,4.754793
1008.449219,3.526774,1.123345,4.768818,1.345626
1008.453125,5.567801,-2.513057,1.933809,-3.713316
1008.457031,-9.189610,-2.758660,2.906652,-4.351372
1008.460938,-7.757379,-9.470167,-5.371678,-7.059325
1008.464844,-7.105818,-6.066937,-10.796937,-7.360248
1008.468750,-4.752455,-16.640646,-7.392444,-6.592315
1008.472656,-5.060038,0.557228,-6.680178,-7.266745
1008.476562,-13.661616,-12.295908,-9.842737,-9.338729
1008.480469,-11.311378,-15.375643,-16.337537,-8.402866
1008.484375,0.472713,-9.524581,-7.606419,-1.897806
1008.488281,-13.621543,-11.765815,-5.830524,-0.787787
1008.492188,-2.674207,-9.441363,0.183244,-7.549047
1008.496094,-0.729848,-2.716599,-1.979245,1.885708
1008.500000,0.759312,-2.597134,6.498825,-2.431753
1008.503906,-0.518375,3.116644,6.638818,-4.788990
1008.507812,5.636403,3.049390,6.900289,4.825205
1008.511719,12.259906,15.933235,2.627195,2.734324
1008.515625,0.002175,2.965143,1.614742,6.780102
1008.519531,10.273367,14.337638,10.117410,11.613702
1008.523438,6.411844,10.595230,7.406011,9.489949
1008.527344,7.314240,11.739487,6.015892,12.615598
1008.531250,11.199650,6.840614,16.313669,9.402012
1008.535156,3.803704,12.160349,3.093786,6.617154
1008.539062,1.590055,15.994744,6.420533,3.653008
1008.542969,-0.871039,5.700038,7.779713,9.558430
1008.546875,0.708984,4.005140,1.943366,4.602637
1008.550781,1.967085,-2.732532,-6.296636,-0.954300
1008.554688,-1.704737,-8.746568,-11.067315,-6.268315
1008.558594,-4.022751,-1.387429,-11.094407,1.283758
1008.562500,-7.309467,-3.627387,-3.503364,-9.140357
1008.566406,-3.287512,-11.898471,-5.439717,-19.674271
1008.570312,-7.291875,-14.635515,-6.112402,-9.673485
1008.574219,-14.658947,-17.619312,-15.251176,-5.638075
1008.578125,-3.678207,-9.299285,-13.670965,-14.915537
1008.582031,-6.737945,-7.417168,-10.812514,-7.212055
1008.585938,-6.946988,-5.859024,0.848709,-12.617383
1008.589844,-4.940943,-5.987416,-4.024988,-7.849167
1008.593750,-10.355796,-3.920364,-0.160058,-4.069399
1008.597656,-0.076122,-10.682692,1.035475,-2.942720
1008.601562,2.607060,2.738823,-2.280038,3.557065
1008.605469,-5.248803,3.075336,5.208377,2.446449
1008.609375,2.880933,-0.685429,2.559110,-0.583156
1008.613281,10.412184,5.565601,6.104057,13.432659
1008.617188,18.020725,1.934048,7.658652,6.322339
1008.621094,8.884674,6.943730,6.587960,13.776846
1008.625000,7.863841,6.068029,7.265470,6.759347
1008.628906,8.360194,8.546544,13.153928,10.806740
1008.632812,3.078661,5.575817,-1.588346,3.665120
1008.636719,10.482431,19.825890,3.934741,12.623303
1008.640625,11.371508,2.840106,8.416110,2.919805
1008.644531,5.834843,1.114998,4.818891,0.565183
1008.648438,-2.683725,-7.719147,-2.011382,-1.434804
1008.652344,5.115825,-7.387065,-6.130349,-1.977040
1008.656250,-2.386182,-2.010872,-3.528802,-4.186350
1008.660156,-10.052326,-2.465406,-2.182505,1.387344
1008.664062,-8.902318,-9.676164,-10.211494,-9.290928
1008.667969,-5.922279,-14.610343,-14.614696,-3.194339
1008.671875,-2.543470,-14.101011,-21.492792,-7.410139
1008.675781,0.285467,-10.668321,-5.113940,-13.716867
1008.679688,-11.069452,-10.618908,-7.637572,-12.407297
1008.683594,-10.100304,-10.086852,-4.869993,-5.152801
1008.687500,-7.205491,-13.100255,-6.491899,-4.451771
1008.691406,-2.834388,-8.158027,-7.525326,-5.424109
1008.695312,0.763969,-4.027365,-4.255230,-2.239402
1008.699219,4.388784,1.785805,6.083245,1.653783
1008.703125,6.141470,5.742812,-5.060553,-2.406438
1008.707031,0.957590,6.397816,5.856511,10.648494
1008.710938,1.812551,7.409554,8.465139,15.692616
1008.714844,10.469796,9.670084,8.782554,13.455285
1008.718750,9.956682,11.499162,12.163504,9.631835
1008.722656,10.541961,8.105889,9.273650,12.293763
1008.726562,5.603246,9.762348,13.648387,2.488494
1008.730469,17.609575,14.982423,14.963443,12.652338
1008.734375,9.652277,10.124455,3.172478,6.449899
1008.738281,3.193231,13.682581,9.265469,5.985914
1008.742188,1.687770,5.350642,1.216557,3.453840
1008.746094,0.752445,3.294019,1.714711,7.718250
1008.750000,-7.006605,1.346339,5.218697,-3.445817
1008.753906,5.818664,-0.159440,-0.713496,-9.308416
1008.757812,-9.546483,-10.500346,-7.526394,-5.964505
1008.761719,-8.433653,-10.439156,-10.807029,-11.138740
1008.765625,-15.140453,-7.368640,-9.268415,-8.654247
1008.769531,-10.640169,-9.363527,-12.100286,-13.606928
1008.773438,-9.511842,-10.221518,-13.281371,-7.506411
1008.777344,-9.906142,-10.348453,-7.540941,-10.359061
1008.781250,-4.981041,-13.481735,-3.140417,-8.534096
1008.785156,-12.176698,-4.316637,-5.567339,-13.885472
1008.789062,-5.052039,-7.349424,-7.518347,-6.843287
1008.792969,-2.031316,-0.719153,-5.912980,-3.095714
1008.796875,-3.305349,-0.715050,0.905297,-4.762415
1008.800781,0.016469,1.115319,4.118753,3.258833
1008.804688,0.929764,0.637821,5.163560,2.942491
1008.808594,2.389444,11.953474,2.475593,5.309134
1008.812500,3.130947,5.308331,4.436274,0.911902
1008.816406,5.910661,14.178231,4.600332,8.156929
1008.820312,7.191203,14.467661,6.462045,10.898618
1008.824219,9.234627,5.085887,14.094975,9.142956
1008.828125,14.504402,14.619604,10.643368,15.049386
1008.832031,6.480584,10.653686,8.774969,7.263594
1008.835938,7.158235,9.496298,7.318471,1.891824
1008.839844,2.827150,3.558282,3.617063,9.618417
1008.843750,-0.190086,-3.926237,6.147739,6.078877
1008.847656,1.891391,6.620466,0.974514,-3.689205
1008.851562,-3.956742,-3.500762,-0.566985,-5.802445
1008.855469,1.768233,0.140689,3.427600,-2.151132
1008.859375,-4.908700,-2.009675,-7.506062,-12.213436
1008.863281,-10.872619,-12.106765,-7.304718,-2.039832
1008.867188,-5.003225,-7.274178,-7.871075,-12.910432
1008.871094,-15.410747,-18.261103,-7.357434,-5.957227
1008.875000,-10.357037,-12.578386,-4.456220,-12.723211
1008.878906,-9.568721,-21.798154,-9.459318,-6.801686
1008.882812,-6.879925,-11.814290,-7.298230,-9.983760
1008.886719,2.299931,-6.587525,-5.105787,-2.913373
1008.890625,-3.857722,-4.833070,-6.877167,-7.745897
1008.894531,-3.428509,-1.728507,-3.739717,-3.479453
1008.898438,-0.295482,1.476112,1.862877,-4.002161
1008.902344,3.040060,0.281320,1.026840,-0.448063
1008.906250,3.858844,-2.694446,4.315851,2.033518
1008.910156,-0.084940,2.755169,7.322585,6.485488
1008.914062,6.962548,8.980109,7.966453,7.388964
1008.917969,10.134708,18.531336,6.914636,0.841566
1008.921875,0.009140,7.103287,11.966530,8.960935
1008.925781,5.356096,10.841390,7.621607,19.139197
1008.929688,3.663885,8.585680,9.536498,6.449287
1008.933594,9.377579,1.257856,7.051253,8.366164
1008.937500,5.748977,14.538929,19.565112,4.207083
1008.941406,12.663757,0.863916,4.000827,-1.996214
1008.945312,0.198329,5.702235,5.885182,2.658936
1008.949219,1.687846,1.509696,-1.116353,-5.854384
1008.953125,-6.481659,-0.732141,-4.915718,3.039649
1008.957031,-4.348747,-1.421512,-7.875276,-0.126103
1008.960938,-6.373470,-9.632180,-2.821657,-10.031177
1008.964844,-9.459119,-11.738431,-2.713669,-13.546190
1008.968750,-13.718851,-7.504782,-11.726015,-8.309454
1008.972656,-8.381446,-10.247211,-14.435325,-8.845608
1008.976562,-8.866371,-14.444438,-15.240295,-10.826659
1008.980469,-15.480402,-9.641500,-9.634860,0.446588
1008.984375,-4.114605,-11.048759,-7.203811,-10.338785
1008.988281,-10.906420,-6.392004,-6.066244,-16.995367
1008.992188,-9.712216,-2.637242,-6.271938,-7.007455
1008.996094,1.564109,-1.215122,-2.330892,-5.268908
1009.000000,-4.782503,9.731543,1.403960,-1.181037
1009.003906,4.775958,-1.316207,-0.853185,7.794673
1009.007812,3.732474,3.505065,14.428079,10.098781
1009.011719,1.643501,7.919335,5.485559,8.712725
1009.015625,21.818189,10.236867,18.394212,-0.351499
1009.019531,8.916748,7.615446,11.285235,11.254146
1009.023438,15.361228,9.853255,7.357478,7.477887
1009.027344,3.462328,8.981005,11.264238,8.705418
1009.031250,6.880757,8.928641,8.391054,13.969922
1009.035156,5.388187,6.766517,9.254016,5.424664
1009.039062,9.332456,6.147239,12.538008,7.284748
1009.042969,2.346106,1.095134,-0.928658,-2.211189
1009.046875,-0.062867,7.234004,7.512536,-2.312663
1009.050781,3.180219,5.738769,2.117306,-0.715375
1009.054688,-4.882947,-9.013832,-1.795042,-7.939232
1009.058594,-8.078588,-4.166470,-4.332119,-11.439056
1009.062500,-12.495439,-6.735405,-6.264913,-11.467448
1009.066406,1.498926,-3.993498,-15.261862,-4.146511
1009.070312,-8.687278,-11.549332,-9.010084,-14.827915
1009.074219,-10.477738,-13.151206,-14.396770,-5.683034
1009.078125,-12.841205,-9.321680,-7.854366,-19.733804
1009.082031,-7.313947,-13.114864,-13.968588,-7.842919
1009.085938,-7.395751,1.354160,-10.921167,-13.087315
1009.089844,-4.789022,-8.936895,-3.395807,-3.817739
1009.093750,-4.672236,-1.101393,-4.300434,-3.912342
1009.097656,-1.808391,-3.299073,-2.804352,2.116119
1009.101562,-0.299906,-2.230903,-4.454757,0.550241
1009.105469,-2.098821,1.496805,8.126644,-0.094476
1009.109375,-1.681691,12.427018,9.682225,4.820255
1009.113281,8.767242,2.206650,12.893872,3.875436
1009.117188,13.281943,6.519564,10.620949,10.440432
1009.121094,7.482912,17.489881,6.126466,13.136580
1009.125000,9.680639,0.488487,8.424189,12.116430
1009.128906,12.650514,3.715193,7.233166,13.551186
1009.132812,9.007494,5.587721,10.736716,7.370029
1009.136719,6.696902,5.316874,7.255086,3.702935
1009.140625,11.054902,1.981720,5.563165,3.800623
1009.144531,2.112657,1.174287,3.755250,-0.323638
1009.148438,2.224819,2.532174,2.166811,0.158089
1009.152344,2.348990,-10.683857,-4.254511,-5.105013
1009.156250,-2.702883,3.233019,-6.042772,-3.458579
1009.160156,5.834190,-6.048347,-4.290182,-8.187696
1009.164062,-3.932093,-5.145285,-14.553614,-5.995462
1009.167969,-16.567069,-6.129905,-12.051545,-13.504801
1009.171875,-7.218322,-16.851842,-6.515705,-6.902712
1009.175781,-13.829466,-9.787624,-6.529767,-1.818251
1009.179688,-6.000182,-12.348217,-13.268835,-13.828283
1009.183594,-6.270717,-10.640365,-7.326010,-8.396392
1009.187500,-4.544458,-4.358596,-4.366134,-7.837233
