timestamp,TP9,AF7,AF8,TP10
1000.000000,-2.920073,1.850755,-8.556246,13.482325
1000.003906,-1.147769,-0.565722,9.660358,6.699364
1000.007812,10.270857,-6.575495,0.481456,6.415403
1000.011719,1.496282,4.198184,10.856778,-1.004631
1000.015625,-0.136493,10.173355,1.827152,5.835692
1000.019531,4.444701,10.827403,5.398550,7.459484
1000.023438,2.746853,10.080639,14.957701,16.155771
1000.027344,11.471814,4.104475,13.739435,7.495137
1000.031250,12.427707,8.933494,9.739243,12.863619
1000.035156,7.865865,9.672713,3.583466,9.334282
1000.039062,1.883056,0.797981,11.544460,6.511585
1000.042969,0.167901,6.846224,1.331040,12.837550
1000.046875,0.966731,-1.140210,7.674451,5.184476
1000.050781,2.467398,1.324144,6.722578,-1.069756
1000.054688,2.930551,-5.203362,1.200882,-3.342493
1000.058594,-3.972109,-6.799038,-3.856594,1.425092
1000.062500,-16.532841,-2.735250,-11.620050,-5.220989
1000.066406,-6.821693,-6.055500,-13.878380,-18.341897
1000.070312,-9.049041,-9.337494,-11.140871,-13.443800
1000.074219,-4.256131,-8.906475,-10.959376,-15.882992
1000.078125,-1.434498,-16.371941,-6.889249,-11.727583
1000.082031,-1.884834,-14.234152,-3.141326,-4.475627
1000.085938,-5.011554,-6.177972,-7.172473,-6.476231
1000.089844,-9.072720,-8.767976,-9.218596,-2.985079
1000.093750,-4.929434,-11.029834,-6.937234,-3.072917
1000.097656,1.649286,-2.544799,-10.869233,1.177207
1000.101562,8.949618,-3.043445,5.232130,-1.472298
1000.105469,1.255266,0.247364,-0.799220,6.364313
1000.109375,6.844630,5.353608,7.536077,4.936938
1000.113281,5.303909,11.246524,7.681602,11.663797
1000.117188,6.966368,5.553372,2.017310,8.837956
1000.121094,13.277405,1.804854,11.260986,3.461028
1000.125000,9.284888,6.240951,9.494578,3.362027
1000.128906,12.631691,13.600011,10.106985,7.586131
1000.132812,8.428888,11.554839,11.926713,7.828434
1000.136719,7.844743,1.719326,10.353059,10.701637
1000.140625,3.281846,4.702279,8.061053,8.675012
1000.144531,4.418636,11.781959,11.108992,2.586329
1000.148438,-1.617424,3.620788,4.233866,7.587973
1000.152344,-4.652037,-1.848608,-10.602348,-0.301921
1000.156250,3.648631,-7.168495,-6.864930,-0.755666
1000.160156,2.695523,-10.736170,-5.802434,-5.578539
1000.164062,-9.215970,-0.985194,-6.006003,-14.694740
1000.167969,-8.732936,-10.780894,-5.772900,-11.469561
1000.171875,-4.671891,-9.130301,-6.894992,-13.379817
1000.175781,-9.095845,-9.356258,-8.420936,-6.553244
1000.179688,-11.834598,-3.756516,-11.136817,-13.293831
1000.183594,0.903224,-6.500724,-8.842331,-15.183458
1000.187500,-0.603798,-5.167047,-9.930426,-13.420222
1000.191406,-12.612172,-8.012870,-2.721623,-3.669015
1000.195312,-4.500981,-2.244619,1.300061,-6.860707
1000.199219,-2.078224,6.159522,-4.924114,-9.739897
1000.203125,0.197414,1.398082,-0.852600,4.688686
1000.207031,9.120216,3.472167,3.315131,1.927860
1000.210938,8.911942,1.701303,1.605803,6.208845
1000.214844,4.266711,1.489692,7.386750,7.935196
1000.218750,6.867840,-0.974109,8.876563,17.825192
1000.222656,8.606579,6.441373,11.556199,12.432762
1000.226562,14.715876,14.438735,16.325926,14.122607
1000.230469,8.863162,6.101105,7.622094,7.561074
1000.234375,11.958017,15.893818,7.315031,1.418442
1000.238281,6.311259,11.762903,6.247591,1.428994
1000.242188,-0.607087,5.714481,7.088994,2.669219
1000.246094,7.756547,1.462885,1.593088,-3.198760
1000.250000,-2.204339,9.115014,4.495322,1.056300
1000.253906,-4.542859,-1.519475,-0.643662,-5.963498
1000.257812,-2.134431,-3.203757,-0.499475,-2.258055
1000.261719,-9.774521,-9.518881,-8.598045,-5.899704
1000.265625,-6.508760,-7.023661,-12.742529,-11.594964
1000.269531,-13.723188,-11.322887,0.303870,-6.497380
1000.273438,-10.583914,-10.181829,-7.578901,-12.107233
1000.277344,-1.846365,-11.640765,-7.180136,-14.240204
1000.281250,-11.118103,-0.189266,-6.443179,-16.611455
1000.285156,-5.531248,-5.193843,0.557399,-6.478688
1000.289062,-9.793061,-7.487700,-11.605817,-3.995812
1000.292969,-7.300293,-0.953734,0.539367,-5.206181
1000.296875,-2.565376,-1.671742,-2.996857,-2.274484
1000.300781,-2.620077,2.070163,2.741230,0.517031
1000.304688,10.675281,-1.512403,8.774315,2.148298
1000.308594,10.312537,4.207756,3.825678,4.430388
1000.312500,9.778680,9.986653,9.940514,7.898350
1000.316406,10.697964,8.199906,10.386963,4.577751
1000.320312,11.923743,8.276959,6.970510,11.253038
1000.324219,7.275608,10.352303,-2.377502,9.088104
1000.328125,9.611957,7.738194,8.613529,17.581108
1000.332031,12.151859,8.045395,15.243214,11.606851
1000.335938,7.159535,11.544181,11.617450,7.269022
1000.339844,4.482212,5.757843,-0.125732,6.530794
1000.343750,10.146186,1.500153,6.867060,3.963559
1000.347656,1.170618,0.209916,2.245090,-1.550922
1000.351562,-5.229685,-4.158850,3.060501,-4.727339
1000.355469,1.509949,-3.194133,-5.119813,2.706601
1000.359375,-8.351174,-7.246087,0.511980,-4.385564
1000.363281,-7.956867,-7.182710,3.195908,-10.588520
1000.367188,-9.396734,-6.761529,-10.438727,-2.047498
1000.371094,-14.384356,-6.381936,-13.670693,-6.645488
1000.375000,-16.746541,-11.791082,-10.144025,-12.836164
1000.378906,-9.396493,-14.780550,-12.333638,-12.025610
1000.382812,-3.962912,-8.039528,-9.172922,-12.162174
1000.386719,-9.863046,-6.807575,-2.704351,-15.458960
1000.390625,4.321118,-3.602566,-10.706224,2.467923
1000.394531,4.725244,-9.707352,-3.404939,-1.608222
1000.398438,-4.283366,-4.961715,-4.418207,3.815526
1000.402344,-3.058239,1.177555,-8.697424,-5.132701
1000.406250,8.204214,3.795273,1.348752,4.942547
1000.410156,12.410662,1.404731,4.726647,4.111028
1000.414062,3.977919,10.778694,7.762773,16.974357
1000.417969,11.447155,10.865838,8.406474,10.422816
1000.421875,12.372550,17.101419,14.279145,16.337625
1000.425781,10.545401,14.989237,7.364847,16.402796
1000.429688,6.001562,13.559048,12.797344,6.588632
1000.433594,7.736519,9.323006,8.365045,7.910064
1000.437500,12.150226,1.591433,9.401902,5.778895
1000.441406,3.773749,6.917895,9.392074,2.118304
1000.445312,-4.072071,4.150886,3.653627,4.540966
1000.449219,3.956798,3.664919,1.952880,4.118524
1000.453125,1.874270,3.698890,-16.544087,-2.950997
1000.457031,-3.390228,-5.519218,-3.176366,-5.897321
1000.460938,-10.872146,-11.355057,-8.147157,-4.219959
1000.464844,-8.335793,-4.359600,-3.902093,-5.574524
1000.468750,-9.867621,-3.802745,-5.445365,-12.005455
1000.472656,-7.161485,-5.931496,-11.412837,-6.502750
1000.476562,-8.864668,-14.923392,-9.044348,-6.483015
1000.480469,-14.185625,-3.572859,-0.463795,-17.250672
1000.484375,-7.986533,-9.754904,-15.547303,-11.459849
1000.488281,-6.167959,1.240818,-6.096088,2.624574
1000.492188,-7.692716,-6.486950,-1.991395,-11.813320
1000.496094,-1.681161,1.619437,-0.310216,-2.240703
1000.500000,-1.846077,-2.954561,3.613869,-4.347219
1000.503906,-1.848600,-1.716371,12.610535,5.682655
1000.507812,8.066086,0.554866,5.916058,5.756670
1000.511719,0.728759,4.701986,8.465790,5.100560
1000.515625,14.935828,7.347366,11.906511,7.538494
1000.519531,6.140865,11.745861,12.317400,10.693019
1000.523438,7.781122,9.275461,8.966970,11.121717
1000.527344,11.020007,18.807224,9.083006,5.579196
1000.531250,10.559424,6.431482,12.538834,6.225515
1000.535156,2.386095,4.831020,11.522063,11.912094
1000.539062,8.219627,14.698991,4.500135,10.343147
1000.542969,1.374471,4.792951,8.456323,12.780639
1000.546875,8.538790,1.131116,-0.783335,-3.081850
1000.550781,-1.429672,9.038692,-1.051453,-0.382968
1000.554688,-2.354240,-2.531579,-4.953080,-4.323272
1000.558594,-6.814486,-4.367578,-0.500845,0.143400
1000.562500,-8.717778,-4.940153,-6.476480,-1.255011
1000.566406,1.807435,-4.733675,-4.681228,-11.835057
1000.570312,-8.663365,-8.341655,-10.203608,-7.831266
1000.574219,-8.137546,-3.774745,-8.407851,-12.670215
1000.578125,-14.885804,-11.881531,-11.457588,-8.770899
1000.582031,-7.636448,-2.346843,-12.967522,-14.923614
1000.585938,-6.442377,-8.494511,-5.225759,-0.706198
1000.589844,0.393681,-10.150404,-3.549322,-4.210868
1000.593750,-6.479069,-4.270114,2.904078,-7.398097
1000.597656,-1.575830,3.950797,-5.834777,0.822595
1000.601562,3.800819,2.200184,-0.520177,1.117692
1000.605469,-4.449777,5.918624,11.958296,0.920371
1000.609375,7.888201,2.329206,12.439991,3.012136
1000.613281,10.667146,9.965638,9.550755,11.709844
1000.617188,6.640033,8.941203,11.353117,11.786898
1000.621094,4.372668,11.186085,10.760855,8.132746
1000.625000,6.217053,5.036477,5.142861,4.268971
1000.628906,14.174309,14.415077,12.304801,2.891805
1000.632812,8.213703,7.484130,6.330963,3.902677
1000.636719,10.261052,10.075241,3.874284,7.773939
1000.640625,8.466222,15.791881,0.669867,-6.336504
1000.644531,8.071524,3.065470,1.561595,3.698746
1000.648438,-0.540320,4.605470,1.971641,3.958737
1000.652344,4.221671,1.472852,-3.062675,-2.808898
1000.656250,-2.534606,-4.085560,2.646048,-7.102142
1000.660156,-6.565907,-11.725486,-7.471616,0.487867
1000.664062,-5.133062,-7.341274,-6.170599,-5.044233
1000.667969,-4.589210,-12.056249,-8.093889,-6.489103
1000.671875,-9.915955,-6.066592,-5.028746,-8.181697
1000.675781,-11.958098,-17.357106,-4.719335,-8.548639
1000.679688,-5.965117,-6.929520,-6.870839,-5.705463
1000.683594,-15.232168,-1.399241,-6.407977,-10.238787
1000.687500,-7.373342,-4.745062,-6.597685,-7.294632
1000.691406,-9.407934,-4.392295,1.131902,-7.624778
1000.695312,-6.558632,-8.101699,-4.957219,3.221374
1000.699219,3.510367,-4.197186,-7.874932,-0.513628
1000.703125,2.359365,1.367212,-0.354955,3.048042
1000.707031,5.538690,5.116838,1.416171,14.088933
1000.710938,12.168956,14.561403,8.558248,4.012936
1000.714844,13.801870,4.005906,10.304040,5.218006
1000.718750,12.085966,5.281425,8.189951,8.964418
1000.722656,9.351330,13.714911,4.151521,12.341851
1000.726562,10.641042,17.382405,11.580565,10.211645
1000.730469,4.544737,12.598935,13.252812,9.571788
1000.734375,7.894192,6.344051,4.616643,11.410309
1000.738281,5.912748,4.013075,2.369647,1.603360
1000.742188,6.543188,4.091958,3.198342,7.024005
1000.746094,-4.290597,2.598006,9.255696,-8.087592
1000.750000,-1.731854,-10.394993,0.406066,1.194086
1000.753906,-0.647044,-2.656829,2.563129,0.497708
1000.757812,-1.334368,0.404428,-0.451554,-8.169080
1000.761719,-8.396209,-2.552182,-0.105357,-17.807395
1000.765625,-5.329692,-8.208575,-12.072291,-4.469295
1000.769531,-11.774973,-3.439944,-15.203032,-10.406151
1000.773438,-9.881493,-7.236341,-11.197293,-14.652966
1000.777344,-9.872582,-5.728012,-3.563107,-10.588751
1000.781250,-12.956367,-0.461184,0.129572,-6.342739
1000.785156,-5.888850,-12.314375,-12.571655,-6.665876
1000.789062,-2.704622,-3.237681,-7.424954,-13.888172
1000.792969,-6.312711,-3.958201,-2.168887,-4.481336
1000.796875,-1.379885,1.182794,-0.508929,-5.366167
1000.800781,1.233063,5.241401,-1.347860,2.570186
1000.804688,11.812998,4.486889,2.716751,-1.662351
1000.808594,1.292013,-1.480937,12.636826,6.542442
1000.812500,8.731549,5.065855,6.732067,13.015885
1000.816406,8.575921,5.594391,3.173374,-0.463058
1000.820312,12.427386,11.870261,2.987259,7.833088
1000.824219,0.086624,9.710610,11.978700,12.214730
1000.828125,10.482383,8.393120,9.743308,4.258474
1000.832031,6.484837,9.510468,8.346625,8.228495
1000.835938,9.990148,6.351040,5.149522,13.449335
1000.839844,8.993857,2.996889,10.930691,4.363421
1000.843750,-5.487283,1.112575,8.096164,-4.966324
1000.847656,-5.047647,-1.881474,-4.625661,-0.404554
1000.851562,-8.734622,-1.184012,-1.367423,-5.984341
1000.855469,7.757348,-0.517825,2.426565,-2.430803
1000.859375,-3.155644,-5.847958,1.571673,-2.118057
1000.863281,-8.541393,-9.130712,-2.877908,-6.958550
1000.867188,-5.454413,-1.875007,-8.064629,-4.194590
1000.871094,-6.941244,-19.858549,-10.639724,-5.771134
1000.875000,-10.803781,-14.142238,-10.067529,-8.907830
1000.878906,-16.224821,-3.404585,-9.719976,-9.890832
1000.882812,-5.769851,-6.243193,-6.056322,0.763704
1000.886719,-10.109326,-3.778897,-3.535627,0.527758
1000.890625,-8.697786,0.680068,-2.589607,-5.588367
1000.894531,-5.544957,-1.556811,1.064490,-6.369850
1000.898438,-2.450606,-6.694561,-4.607198,2.247422
1000.902344,5.472727,1.174758,2.125318,-0.434288
1000.906250,8.756042,5.706577,1.609386,-1.254579
1000.910156,13.399569,3.405806,13.109402,-2.367132
1000.914062,6.541348,15.502225,7.066321,7.313074
1000.917969,6.845725,5.936349,10.583464,6.651031
1000.921875,7.802737,6.187014,8.908828,13.730082
1000.925781,14.904322,16.478312,13.327235,11.403360
1000.929688,7.910846,10.278373,15.030918,12.005537
1000.933594,9.832230,14.227356,4.098017,8.154233
1000.937500,5.447917,2.545124,12.867006,11.446966
1000.941406,1.662857,5.707671,5.721603,3.548941
1000.945312,8.653688,7.193551,5.296818,1.847746
1000.949219,0.261795,2.743723,1.204614,6.230340
1000.953125,1.129186,-11.031327,-2.352843,-2.631310
1000.957031,-10.023159,-7.616148,-3.098359,4.461156
1000.960938,-7.564797,-3.969729,-4.532387,-4.213062
1000.964844,-6.261405,-6.291832,-2.277899,-6.898411
1000.968750,-11.329271,-13.448759,-10.220691,-7.924186
1000.972656,-7.544965,-4.264737,-12.489903,-18.503025
1000.976562,-12.629777,-5.917034,-8.909540,-13.907982
1000.980469,-10.055310,-9.773192,-10.557498,-2.358136
1000.984375,-9.530445,-13.980420,-6.616326,-15.764775
1000.988281,-9.810720,-5.455010,-6.489903,-12.126427
1000.992188,-5.416707,0.747707,0.173127,-3.462389
1000.996094,-7.459213,-3.208882,2.512714,-6.466652
1001.000000,-4.341844,-1.677452,-2.542456,0.059965
1001.003906,5.308980,2.883072,2.490972,-4.692522
1001.007812,-0.541378,7.583383,3.487040,4.328918
1001.011719,8.099936,1.177021,3.681701,5.965815
1001.015625,9.769396,8.298635,5.048628,10.610641
1001.019531,7.788293,7.848430,6.810869,6.591009
1001.023438,5.119029,11.088734,17.721997,3.066512
1001.027344,13.148689,13.136082,7.669914,6.905400
1001.031250,7.382885,5.757677,0.862388,11.799547
1001.035156,15.082260,8.201979,5.627231,4.079475
1001.039062,6.982132,13.124922,1.838254,8.595405
1001.042969,-1.045815,4.684499,0.768335,-2.024414
1001.046875,3.388024,1.836381,7.536314,-1.379272
1001.050781,-2.785506,-5.805741,-7.068179,-1.283799
1001.054688,-1.805467,-9.465511,4.945429,2.399570
1001.058594,-2.316083,-15.643533,-5.585683,-5.183980
1001.062500,-2.663048,-6.702139,-6.578015,-13.463791
1001.066406,-13.539722,-8.865902,-7.218244,-11.975236
1001.070312,-13.306124,-8.988235,-16.796726,-8.907048
1001.074219,-11.926163,-10.205066,-12.193315,-14.533636
1001.078125,-3.534124,-14.950925,-19.359584,-4.027121
1001.082031,-6.231990,0.803014,-10.037342,-8.385265
1001.085938,-8.837080,-8.308379,-5.208778,-5.261211
1001.089844,-12.051552,-8.249829,-5.380733,-11.679572
1001.093750,-2.624710,-8.009250,-4.547016,-5.752548
1001.097656,2.072951,1.564020,-4.694684,-1.856320
1001.101562,-1.484868,4.129082,-3.409382,-2.002595
1001.105469,4.154908,6.196392,2.541006,5.458488
1001.109375,4.333424,11.277737,3.732957,8.816019
1001.113281,0.121567,7.194536,3.371686,10.805337
1001.117188,19.459515,12.360809,14.132402,3.442027
1001.121094,7.223851,7.032889,5.495159,10.447368
1001.125000,9.965782,5.541794,7.940206,11.895163
1001.128906,15.202689,14.242100,9.948517,4.622361
1001.132812,8.738735,10.359356,10.532421,10.486944
1001.136719,9.613629,10.484616,10.216416,8.285924
1001.140625,7.286328,10.884784,8.819717,8.032306
1001.144531,5.463616,-5.682424,-2.912434,3.619836
1001.148438,-5.812379,2.417136,0.044810,-0.517247
1001.152344,2.453562,-6.028523,1.709535,-4.546638
1001.156250,-8.518069,-3.726185,-1.485918,-2.214149
1001.160156,-0.448379,-0.241585,-6.914641,-5.963827
1001.164062,-12.644742,-7.539654,-7.282895,-4.145477
1001.167969,-8.104695,-7.568772,-8.788778,-10.408119
1001.171875,-1.389941,-6.433740,-6.651023,-11.105745
1001.175781,-6.590161,-4.895456,-8.113858,-14.538060
1001.179688,-6.179737,-10.647311,-8.273489,-11.207694
1001.183594,-9.860586,-7.168747,-12.998072,-5.545776
1001.187500,-14.092717,-5.539755,-13.969083,-6.209595
1001.191406,-5.584271,-8.022184,-3.760468,-7.607733
1001.195312,-6.279906,2.231068,4.402573,-3.196128
1001.199219,-1.474282,0.401671,-3.420232,-9.986374
1001.203125,1.909401,3.108341,1.150949,2.196579
1001.207031,5.550134,5.411713,4.236026,-0.216521
1001.210938,3.954226,-1.036322,7.820611,10.362153
1001.214844,2.232020,8.360753,3.847368,11.501786
1001.218750,9.445228,8.967134,12.303077,9.585226
1001.222656,18.241766,16.283483,7.947939,15.085874
1001.226562,11.581426,9.182953,12.194468,5.500927
1001.230469,5.703283,1.679344,13.996392,11.987510
1001.234375,6.269341,13.216736,5.363277,7.184205
1001.238281,5.488015,10.840955,14.533636,9.942828
1001.242188,-1.087520,0.975801,5.111947,6.135913
1001.246094,-4.064643,0.957826,7.440175,2.865257
1001.250000,-6.536915,-6.230617,-2.314851,-10.292459
1001.253906,-5.319410,-4.087784,1.293671,-5.441831
1001.257812,-3.606470,-7.126584,-3.212989,-5.187259
1001.261719,-7.589987,2.893295,-9.971758,-10.017870
1001.265625,-8.880098,-7.650499,-6.440542,-10.061183
1001.269531,-2.152545,-7.556167,-6.917431,-16.670959
1001.273438,-8.777023,-5.761975,-6.869963,-3.483085
1001.277344,-6.601574,-19.099119,-13.806224,-12.558349
1001.281250,-14.396592,-10.264800,-9.646368,-10.657766
1001.285156,-9.392452,-8.762911,-8.960165,-3.738012
1001.289062,-7.717290,-3.481346,-4.926104,-5.867491
1001.292969,-4.698139,-1.557108,-0.708585,-9.450221
1001.296875,-0.366317,-3.914512,2.420456,-1.369631
1001.300781,-0.674658,-1.869584,-6.536642,8.054649
1001.304688,5.248851,2.175246,4.817629,4.977658
1001.308594,-1.734434,8.259627,6.773634,11.616250
1001.312500,6.763390,8.087960,13.731998,5.009764
1001.316406,7.420177,16.220889,9.796505,2.889634
1001.320312,8.720204,7.216338,12.513433,15.337770
1001.324219,9.226509,15.526191,14.438166,12.005457
1001.328125,6.780331,11.530180,8.121193,7.802819
1001.332031,12.703420,14.041379,6.569776,13.108374
1001.335938,12.370215,7.578929,13.379671,2.436226
1001.339844,5.658880,10.650756,10.906483,-1.655477
1001.343750,4.031225,7.905867,5.598561,9.490596
1001.347656,6.732321,0.451504,7.143140,-3.500118
1001.351562,0.772573,1.616506,-3.561742,-4.367050
1001.355469,-0.786753,-6.109136,-4.374593,-2.236338
1001.359375,-5.507323,-10.998090,-2.635277,-8.513951
1001.363281,-13.980231,-7.430695,-2.308524,-7.229915
1001.367188,-16.448420,-12.747853,-10.546974,-8.852198
1001.371094,-9.898157,-9.658668,-12.267715,-7.367571
1001.375000,-12.223945,-9.115543,-12.039378,-7.731961
1001.378906,-11.294411,-16.897307,-4.376532,-2.727750
1001.382812,-11.315845,-6.796027,-9.815931,-7.210706
1001.386719,-4.619824,-10.391589,-6.563450,-6.586237
1001.390625,-8.637081,-7.178686,-3.577428,-8.240979
1001.394531,-1.258289,-3.229108,-9.398299,-3.801408
1001.398438,0.904885,1.829257,-2.474904,-1.805675
1001.402344,-3.817143,6.725713,1.870323,4.507827
1001.406250,10.455199,3.430547,-0.906264,8.970969
1001.410156,6.253813,8.439962,4.765014,4.207388
1001.414062,17.791933,0.059186,0.303573,8.299127
1001.417969,11.426404,9.488067,3.638536,14.085108
1001.421875,13.538320,14.434587,9.018309,10.671565
1001.425781,1.375453,12.225214,9.421740,9.492239
1001.429688,14.256389,11.404257,11.759831,12.367570
1001.433594,3.627993,7.890781,10.607642,4.505375
1001.437500,8.955175,6.013840,0.200253,6.979750
1001.441406,11.451161,4.230768,-2.496647,10.633011
1001.445312,3.789281,1.740306,-6.420150,-1.744450
1001.449219,3.658335,-1.442785,0.203848,2.050976
1001.453125,-0.306137,1.841339,-2.851720,-1.504320
1001.457031,-13.149702,-3.192493,-7.439829,-8.048605
1001.460938,-11.260661,0.300143,-8.571241,-4.571117
1001.464844,-6.858789,-11.343508,-9.470926,-8.859295
1001.468750,-6.224874,-7.280404,-8.218715,-2.925035
1001.472656,-9.862628,-5.625321,3.301928,-14.042014
1001.476562,-11.567804,-11.834232,-14.178158,-10.909862
1001.480469,-8.182963,-9.695585,-3.918821,-9.519643
1001.484375,-9.120294,-3.819954,-11.180194,-6.003542
1001.488281,-6.692893,-8.285665,-7.173519,-1.957377
1001.492188,-7.040841,-3.280749,-5.540461,-4.045397
1001.496094,-4.329812,-12.252836,-5.461572,-8.984610
1001.500000,-6.472999,1.585656,-1.638037,-3.665688
1001.503906,-3.694310,7.947986,5.869191,-0.847759
1001.507812,0.754706,5.593648,8.904291,5.878938
1001.511719,-0.237318,2.495721,7.890948,1.229043
1001.515625,5.046370,4.810505,6.746608,9.708581
1001.519531,12.909890,10.032100,4.852446,8.094532
1001.523438,5.714109,5.289735,10.030785,4.326458
1001.527344,14.187920,11.879932,11.497273,14.652902
1001.531250,12.916146,10.534330,3.827957,12.645848
1001.535156,15.315912,10.910121,0.389943,6.662313
1001.539062,9.776796,4.134201,16.810933,7.160553
1001.542969,-1.200288,2.407285,8.816743,5.101787
1001.546875,8.563521,2.911891,-1.442207,-1.300533
1001.550781,-6.575889,-2.637348,-5.277970,4.675271
1001.554688,-5.206108,-6.918155,-1.236146,-3.467318
1001.558594,-4.138447,-1.774089,-6.384990,-4.238777
1001.562500,-9.633192,-13.865963,-8.246085,-11.998713
1001.566406,-15.997850,-10.669507,-6.893507,-16.245943
1001.570312,-17.695725,-7.608598,-11.134591,-16.021816
1001.574219,-4.574153,-0.768106,-10.414772,-2.000818
1001.578125,-10.919924,-10.617159,-7.225408,-10.490349
1001.582031,-7.479561,-9.629282,-9.015466,-11.234174
1001.585938,-4.198497,-10.264687,-5.138324,-3.522017
1001.589844,4.013645,-3.150773,-3.358552,-7.605103
1001.593750,0.174892,-6.624498,0.857959,-1.291268
1001.597656,-1.144690,-3.540082,3.427367,-1.673668
1001.601562,2.373022,-0.250457,2.806752,0.971075
1001.605469,9.691708,9.294515,-5.964517,-0.692002
1001.609375,-2.348725,0.038639,6.604582,12.437018
1001.613281,10.876586,8.475648,4.955329,7.895976
1001.617188,10.003764,5.860113,7.054236,4.621054
1001.621094,9.801886,9.498473,14.978374,4.778124
1001.625000,7.319368,6.520498,10.079756,3.936527
1001.628906,8.335210,14.145347,6.183281,11.061319
1001.632812,8.043801,12.773221,6.645952,10.565541
1001.636719,5.886653,9.062365,6.159540,7.373784
1001.640625,6.213443,3.853378,3.140819,8.433485
1001.644531,5.061032,11.036606,4.265372,4.351615
1001.648438,3.558584,-1.350982,4.019877,3.687012
1001.652344,1.297299,-8.434451,-2.551978,4.021095
1001.656250,-6.095047,1.945256,-5.495652,-4.792544
1001.660156,-7.982152,-5.026825,-3.670556,-12.985674
1001.664062,-9.891764,-12.623758,-7.549849,-14.200755
1001.667969,-6.904218,-15.362149,-3.719179,-10.541593
1001.671875,-5.887983,-11.164829,-10.808014,-5.571549
1001.675781,-4.808615,-9.561840,-14.327723,-11.090375
1001.679688,-7.768239,-8.398080,-8.286241,-9.260377
1001.683594,-8.944195,-7.943132,-11.165807,-9.297896
1001.687500,-7.659454,-3.213159,-8.228631,-11.314879
1001.691406,-5.465824,-9.255384,-8.517321,-7.450049
1001.695312,-10.102517,-4.307922,-1.923790,-0.788619
1001.699219,2.254285,4.278161,-5.586646,-1.721864
1001.703125,-2.770683,-6.759925,0.421485,-0.688186
1001.707031,4.972102,-1.132394,8.600004,5.375846
1001.710938,7.064344,2.410739,6.786665,10.814519
1001.714844,6.819386,3.712856,6.748261,12.848687
1001.718750,7.271824,9.871542,13.992571,4.664971
1001.722656,4.106134,10.051015,9.660941,5.975791
1001.726562,7.267532,11.406551,9.831342,3.889283
1001.730469,7.524994,10.718883,8.902557,9.877867
1001.734375,8.825970,6.672976,6.429332,16.941915
1001.738281,13.044756,3.540996,8.863199,9.941114
1001.742188,9.440935,0.248142,7.421249,-1.509335
1001.746094,6.785896,1.044552,-1.927181,3.931166
1001.750000,6.860799,-3.659319,-2.225604,-2.214639
1001.753906,-5.939904,-2.870353,-8.029276,3.421436
1001.757812,0.984742,-2.891603,-2.383596,-9.445176
1001.761719,-7.111779,-2.398538,-10.110669,-8.797569
1001.765625,-9.726622,-11.957406,-13.547277,-15.171474
1001.769531,-10.641092,-5.604532,-11.642108,-7.568093
1001.773438,-12.890094,-11.443876,-12.680401,-13.419032
1001.777344,-18.822089,-8.130772,-9.965235,-5.777575
1001.781250,-1.180653,-8.099817,-13.296789,-6.973659
1001.785156,-0.087426,-11.865746,-4.180255,-2.488973
1001.789062,-7.964269,-3.767530,2.304607,-10.564549
1001.792969,-4.963914,-2.166945,-7.383544,-9.310559
1001.796875,-8.360964,-1.006381,6.620963,-5.465089
1001.800781,-2.723304,4.740263,1.071954,-5.065134
1001.804688,1.834478,1.959882,-0.598230,2.935198
1001.808594,8.193060,10.482124,6.304497,2.685987
1001.812500,5.561206,7.211431,6.048293,11.200932
1001.816406,18.219751,4.459366,10.853786,9.060381
1001.820312,6.736804,3.947499,2.487865,10.582056
1001.824219,13.018724,9.831074,17.272779,6.729932
1001.828125,5.513463,11.278418,7.850280,5.457279
1001.832031,12.398538,2.074602,13.864183,8.473587
1001.835938,13.097331,17.591956,9.968578,11.455472
1001.839844,7.685202,9.743682,7.534061,4.679743
1001.843750,1.906417,11.399717,2.685929,4.367348
1001.847656,-0.410136,-0.650720,4.228821,-6.638968
1001.851562,-4.201121,7.330136,-0.104771,4.417957
1001.855469,-2.619698,-2.281192,-5.688306,3.707917
1001.859375,-6.202687,-7.492953,-11.627697,-6.410281
1001.863281,-12.355412,-3.811088,-7.248864,-11.874557
1001.867188,-2.703799,-2.038821,-6.897909,-3.524836
1001.871094,-3.610904,-7.519471,-6.688864,-10.207322
1001.875000,-9.720974,-10.436889,-10.526138,-8.934577
1001.878906,-12.320845,-5.818304,-7.934173,-11.276886
1001.882812,-8.491218,-4.820644,-5.350520,-11.138037
1001.886719,-7.474033,-4.418024,-6.659970,-1.889557
1001.890625,-0.017840,-1.647083,-9.191943,-1.693179
1001.894531,0.756626,-5.710824,-7.552178,-7.070210
1001.898438,-0.760706,2.407479,-8.346370,-1.529933
1001.902344,-4.786102,-1.319354,-2.306880,-0.357191
1001.906250,6.558410,3.600086,4.323140,0.966698
1001.910156,13.929146,6.828459,7.270867,5.370807
1001.914062,11.488105,1.887774,14.333820,8.068891
1001.917969,4.122522,13.181521,12.409493,4.390633
1001.921875,12.774587,10.706724,6.324552,10.404471
1001.925781,8.861750,1.875133,10.691524,4.307817
1001.929688,12.654606,14.630514,4.281867,9.173252
1001.933594,8.571926,19.323841,9.095418,7.534461
1001.937500,11.969578,11.013323,0.369665,0.830005
1001.941406,2.619449,5.943080,-0.733914,5.190061
1001.945312,2.610148,3.591666,7.225833,3.299521
1001.949219,-2.828603,-0.971185,-5.291109,-3.641791
1001.953125,3.082860,2.188040,-7.384214,-11.230674
1001.957031,4.455244,-5.953932,-0.277027,-5.193054
1001.960938,-7.342294,-6.609777,-7.771055,-5.346026
1001.964844,-3.406411,-5.118836,-8.029358,-11.918675
1001.968750,-10.040428,-9.466317,-14.739764,-6.545749
1001.972656,-14.728184,-14.108026,-10.787728,-3.807869
1001.976562,-9.331747,-15.528047,-8.984823,-3.430405
1001.980469,-10.514294,-7.451821,-8.539205,-12.593954
1001.984375,-11.997866,-10.449875,-8.875877,-12.861551
1001.988281,-3.381615,-7.209773,-9.698220,1.341514
1001.992188,-5.302715,-7.615197,0.967172,-7.294091
1001.996094,4.288105,-5.873417,-3.220371,-1.910406
1002.000000,-0.465842,1.762992,-5.920822,-0.048764
1002.003906,6.657787,1.330469,0.813229,6.781552
1002.007812,3.723943,2.815823,3.531887,0.607534
1002.011719,0.094919,13.359541,8.003772,15.089329
1002.015625,10.054444,12.016341,11.965235,4.343937
1002.019531,8.409609,7.326899,7.664535,4.384418
1002.023438,13.894160,12.335810,9.691214,12.435520
1002.027344,3.790119,13.728410,6.494949,6.393417
1002.031250,13.084731,9.039757,-3.672922,2.556612
1002.035156,3.718294,0.528083,5.320429,1.825241
1002.039062,-1.134953,8.709176,-0.544326,10.441796
1002.042969,-0.521353,2.324358,1.564429,8.035361
1002.046875,-0.371321,-0.606676,-1.537815,4.261211
1002.050781,2.722182,-4.155989,2.202278,-0.537124
1002.054688,-11.460282,-11.918150,-6.205175,-8.418983
1002.058594,-2.978122,-12.655560,-3.386971,-2.600942
1002.062500,-2.443691,-8.123630,-2.863416,-3.671753
1002.066406,2.897279,-11.208999,-6.292240,-8.819468
1002.070312,-1.394773,-7.861524,-9.753733,-16.878167
1002.074219,-13.102551,-10.228055,-9.457561,-8.440953
1002.078125,-11.616178,-12.857040,-13.605720,-14.987303
1002.082031,-10.630679,-9.976237,-10.798311,-7.524041
1002.085938,-3.967849,-7.288577,-9.492054,-10.636681
1002.089844,-3.125030,-9.386640,-5.365652,1.974084
1002.093750,-4.604345,-5.715142,-3.361664,-4.650688
1002.097656,4.692944,0.773253,2.219694,0.427902
1002.101562,1.454842,3.695692,-3.141225,-0.470844
1002.105469,-2.645323,1.567177,-1.974243,8.769837
1002.109375,1.630317,7.285157,6.154722,4.944236
1002.113281,9.902813,7.694287,2.559920,2.016212
1002.117188,11.849205,8.902658,1.633209,7.700610
1002.121094,7.852729,11.474080,18.726548,9.391950
1002.125000,11.416347,3.957963,14.733288,15.880324
1002.128906,3.953729,12.658048,12.695233,10.960826
1002.132812,8.783387,15.451533,13.686227,4.688663
1002.136719,6.358233,8.021318,3.190092,11.324295
1002.140625,2.002459,2.433336,9.185481,6.834888
1002.144531,7.488491,-3.838367,6.638719,2.429950
1002.148438,2.997619,2.765027,-0.428845,4.916519
1002.152344,1.088431,-3.857694,-3.110688,1.439980
1002.156250,-5.399240,-5.196848,-3.751591,-6.639792
1002.160156,-6.465922,-2.935484,-5.047811,-3.789550
1002.164062,-7.487632,-4.061124,-15.788372,-2.316752
1002.167969,-9.335825,-9.534125,-9.029455,-7.325695
1002.171875,-8.386236,-15.225843,-3.206222,-11.232201
1002.175781,-10.434268,-14.980587,-9.080841,-5.687379
1002.179688,-6.356120,-7.406788,-7.513487,-16.485616
1002.183594,-3.829839,-2.861411,-6.868232,-6.901702
1002.187500,-3.562781,-6.060117,-13.132937,-10.815376
1002.191406,-2.373964,-2.020503,2.605035,-8.419134
1002.195312,-6.391878,1.997319,-3.122660,1.434607
1002.199219,-2.146747,0.663555,-8.076501,5.510767
1002.203125,5.794530,-2.233222,-2.985019,2.001955
1002.207031,10.701705,3.184900,3.654949,9.473480
1002.210938,4.446988,8.656011,3.832117,3.012608
1002.214844,13.737842,8.877274,4.622253,13.273468
1002.218750,11.755119,8.707625,8.556654,11.776870
1002.222656,7.906132,15.530640,15.385042,13.581990
1002.226562,9.229375,5.360481,8.668887,5.495332
1002.230469,5.704051,14.765881,8.441196,12.396740
1002.234375,1.127768,4.725362,14.594617,5.567567
1002.238281,4.543239,5.740075,-0.433514,6.924002
1002.242188,2.620835,-2.775948,7.327009,10.389690
1002.246094,-1.790885,0.292335,-2.446960,5.415945
1002.250000,0.661319,-1.176495,5.303328,8.567026
1002.253906,-6.683031,-4.395445,-6.443871,-1.366931
1002.257812,-0.406020,-2.596462,-2.242509,-5.340640
1002.261719,-3.759386,-6.164387,-1.929929,-8.257531
1002.265625,-15.438754,-6.200723,-4.825495,-11.566639
1002.269531,-11.902560,-9.450750,-12.065257,-2.634067
1002.273438,-12.372938,-14.898803,-8.982784,-4.909117
1002.277344,-11.321178,-11.901633,-6.511308,-1.318429
1002.281250,2.457450,-9.694809,-7.409543,-10.220350
1002.285156,-4.430490,-9.054777,-6.112295,-1.481180
1002.289062,-1.719260,-8.606405,-8.205538,-3.549887
1002.292969,-9.793715,-9.395750,-0.244048,-6.586192
1002.296875,-7.569188,-2.513362,-5.688015,3.180413
1002.300781,5.529073,1.153587,-1.104122,1.224145
1002.304688,5.095223,2.630211,3.700855,-3.004436
1002.308594,4.571610,4.701424,-0.340593,4.702130
1002.312500,3.996009,2.075284,12.119765,10.968042
1002.316406,10.471334,6.901340,11.163521,9.260628
1002.320312,12.588878,16.376712,8.125992,1.431395
1002.324219,3.939782,17.178893,5.348671,12.223969
1002.328125,10.541530,6.583251,6.869098,9.605179
1002.332031,7.777595,4.898413,15.464328,8.356081
1002.335938,2.890922,7.724863,10.756480,5.490198
1002.339844,2.596742,13.577119,-0.977961,16.457985
1002.343750,7.924551,0.872126,4.297249,6.550951
1002.347656,7.631799,4.765269,-2.489216,4.992674
1002.351562,-1.656159,3.100920,-2.522633,2.628355
1002.355469,-1.348242,-6.226967,-12.217874,-3.558768
1002.359375,-6.032310,-1.517530,-7.885892,-2.707146
1002.363281,-2.640894,-10.273329,-3.940008,-12.401141
1002.367188,-8.361254,-14.145773,-16.414772,-10.211707
1002.371094,-11.623928,-7.818068,-11.356017,-7.896447
1002.375000,-6.873109,-12.569309,-9.629901,-11.351406
1002.378906,-15.470234,-18.032102,-7.830349,-7.262932
1002.382812,-16.593569,-10.623977,-10.922704,-10.077709
1002.386719,-4.852604,-5.945119,-9.448997,-9.057159
1002.390625,-10.328921,-3.399450,-10.086718,-3.984350
1002.394531,-2.935863,-5.500430,-5.664785,-7.834705
1002.398438,-8.449721,-5.390566,1.833766,-3.018830
1002.402344,-4.002121,2.622758,-2.398136,-0.022638
1002.406250,4.284172,4.980667,0.440246,0.379357
1002.410156,0.207680,5.112576,3.977280,-3.159799
1002.414062,10.906380,5.768422,6.000190,9.490681
1002.417969,10.944157,13.747818,15.271883,4.036567
1002.421875,14.548850,13.452447,14.719863,14.385740
1002.425781,8.303094,11.678457,12.635556,10.060951
1002.429688,9.063071,8.105170,7.361551,13.856878
1002.433594,11.525193,6.390789,14.663717,9.625071
1002.437500,5.742474,16.202906,10.552166,12.860756
1002.441406,3.366878,8.374849,1.187105,2.245751
1002.445312,-6.417987,-1.011367,5.393798,2.916175
1002.449219,-4.580722,0.330456,-0.072058,-0.340066
1002.453125,3.558129,-5.351733,-4.211842,7.338538
1002.457031,1.364616,-5.755096,-6.716243,-3.068194
1002.460938,-5.975573,-10.512314,-12.771758,-7.080838
1002.464844,-10.717023,-11.539893,-13.287780,-7.098761
1002.468750,-1.012445,-1.168316,-12.326361,-7.462320
1002.472656,-13.632128,0.706044,-5.037258,-10.261349
1002.476562,-6.863765,-15.604678,-13.588485,-12.246092
1002.480469,-6.981320,-11.734303,-16.359894,-3.006580
1002.484375,-14.273332,-8.386874,-8.790462,-1.727045
1002.488281,-0.692543,-0.239209,2.764793,-8.858534
1002.492188,-5.722388,-3.600852,-8.784832,-1.007951
1002.496094,-8.993617,-0.935986,-5.030422,-3.504733
1002.500000,0.007955,1.055345,-2.515251,2.494696
1002.503906,11.538854,11.474674,2.546909,-4.587630
1002.507812,3.259908,-0.348849,4.151263,3.491006
1002.511719,9.736191,12.391206,8.104767,5.845783
1002.515625,4.336359,10.254587,4.754977,6.863867
1002.519531,9.696060,12.101591,4.484310,8.887114
1002.523438,2.349633,14.126793,10.944577,17.126319
1002.527344,5.875997,13.164366,13.592315,1.337263
1002.531250,4.471621,8.908170,7.077639,16.830809
1002.535156,9.049156,6.821837,11.441208,10.122346
1002.539062,3.947488,5.761638,7.094979,4.566397
1002.542969,-3.998866,6.626023,11.956300,-0.518569
1002.546875,3.726321,7.962867,-5.335234,5.293214
1002.550781,9.789443,-0.334203,1.627415,-3.310487
1002.554688,-2.809093,-5.338920,-3.179044,-11.677205
1002.558594,-0.871976,2.855887,-8.664128,1.799261
1002.562500,-0.517868,-17.622466,-7.906099,-7.844879
1002.566406,-10.191093,-6.925083,-9.048414,-8.445187
1002.570312,-2.374517,-8.639422,-10.128785,-4.975316
1002.574219,-9.269317,-18.704891,-12.646009,-13.085239
1002.578125,4.213739,-8.679671,-7.311789,-11.661824
1002.582031,-8.406999,-13.440752,-15.877347,-6.746509
1002.585938,-14.334414,-4.524221,-11.065333,-7.517201
1002.589844,-4.347502,-1.779181,-5.708182,-6.166819
1002.593750,-7.037902,-3.868602,-5.045028,-6.076927
1002.597656,-6.932457,-0.909799,1.083975,-7.239651
1002.601562,1.559664,-0.928868,1.681863,-0.183262
1002.605469,4.717060,5.937741,9.855471,7.572727
1002.609375,3.686674,2.770242,8.234441,5.079848
1002.613281,3.882703,6.786627,4.281409,11.086249
1002.617188,4.209329,10.207939,17.284680,4.367347
1002.621094,9.982739,2.785823,4.724895,7.486228
1002.625000,7.738977,8.164891,8.360106,14.326256
1002.628906,15.850624,9.817529,6.568362,9.690755
1002.632812,8.279015,6.696394,3.774277,12.982057
1002.636719,6.457222,7.891382,7.548878,3.799012
1002.640625,5.446001,3.312357,5.580479,8.612070
1002.644531,5.314071,3.410751,1.166522,14.323249
1002.648438,6.631080,0.316168,2.425544,0.999391
1002.652344,2.551190,-7.104843,-5.967782,-0.165528
1002.656250,-4.682330,-6.497530,-3.612358,-7.722963
1002.660156,-12.414181,-5.439883,-9.969864,-2.198841
1002.664062,-7.929276,-12.017577,-8.906069,-11.211970
1002.667969,-2.621198,-7.947602,-0.913415,-10.747334
1002.671875,-7.692239,-5.607078,-10.427987,-9.492138
1002.675781,-9.767581,-13.098440,-11.026498,-3.252482
1002.679688,-1.362515,-10.266100,-9.067104,-15.258227
1002.683594,0.080493,-5.737525,-9.265891,-5.439261
1002.687500,-6.880085,-9.393765,3.341295,-10.946463
1002.691406,-8.657552,-5.556439,-6.180851,-11.905833
1002.695312,-2.365945,-6.628721,1.169544,-1.770113
1002.699219,9.379346,-3.654311,-1.239281,-1.080133
1002.703125,-2.757448,-3.534314,5.789301,3.294115
1002.707031,8.733935,2.100160,4.758345,7.879872
1002.710938,7.934211,3.640769,6.679338,13.713361
1002.714844,17.513989,0.808991,5.065669,18.271618
1002.718750,2.122217,11.072796,7.166659,17.346563
1002.722656,17.604808,12.838722,10.452867,8.963303
1002.726562,15.451573,12.661292,15.959300,15.701510
1002.730469,13.776353,10.907138,5.813617,9.017080
1002.734375,16.080025,1.281469,12.455949,14.428988
1002.738281,-2.870670,12.510506,7.568161,6.927079
1002.742188,10.176820,2.195315,3.235819,2.528640
1002.746094,-1.698464,-1.343906,6.852486,3.184985
1002.750000,-2.170107,5.112506,0.037425,-4.285746
1002.753906,-5.553526,-3.046035,-4.653589,-4.321064
1002.757812,-11.991164,-1.423368,-1.866147,-10.748978
1002.761719,-6.223525,-4.356376,-4.549818,-4.792157
1002.765625,4.766050,-13.140103,-9.013694,-7.316544
1002.769531,-7.352103,-13.700509,-8.280373,-11.361146
1002.773438,-12.326863,-7.864615,-6.142314,-10.109433
1002.777344,-13.623793,-5.412865,-12.177466,-9.320963
1002.781250,-5.595265,-11.105975,-10.423282,-12.793801
1002.785156,-10.491738,-7.183558,-6.102732,-7.983496
1002.789062,-9.182141,-12.737329,-6.340919,-6.150108
1002.792969,-9.650054,-3.558892,-10.172605,-5.227702
1002.796875,0.728047,1.649809,-4.547176,1.400988
1002.800781,-0.650498,5.293586,3.242304,-2.980458
1002.804688,0.686588,1.850909,1.185816,6.120793
1002.808594,5.846685,-0.206508,6.291650,3.492531
1002.812500,3.835596,13.701335,9.209415,13.272218
1002.816406,14.003736,9.814526,12.564296,11.364299
1002.820312,10.649563,15.784077,9.687361,10.085938
1002.824219,10.093595,16.878411,12.145580,14.157838
1002.828125,7.358848,9.021022,13.866992,15.688697
1002.832031,10.238853,6.275859,7.611430,3.974823
1002.835938,6.348162,6.099064,5.459877,5.988356
1002.839844,9.485641,14.994062,13.226405,8.819450
1002.843750,0.250179,3.573186,-3.635263,-3.249431
1002.847656,-0.238644,1.622315,-2.366680,-0.679903
1002.851562,-6.866536,-0.907081,0.758582,-3.629239
1002.855469,-6.177081,0.260285,-4.392963,-9.671838
1002.859375,-4.911131,-4.808302,-14.163421,-4.017333
1002.863281,-7.805462,-6.053749,-9.311687,-3.745189
1002.867188,-16.441245,-7.253290,-2.952426,-9.317781
1002.871094,-10.735581,-9.863099,-12.383185,-12.558431
1002.875000,-8.120505,-6.064042,-5.758429,-9.222748
1002.878906,-5.573771,-12.154817,-16.453045,-18.716639
1002.882812,-5.404247,-5.664817,-8.605867,-7.330208
1002.886719,-9.052476,-6.418875,-7.564506,-6.638880
1002.890625,-5.213966,-7.985434,4.056287,-4.056690
1002.894531,-5.189634,-4.745872,6.606556,1.050859
1002.898438,-4.582349,-1.464650,-0.931823,-2.723039
1002.902344,1.387522,-0.020551,-1.502424,-4.163381
1002.906250,9.240591,5.608543,-2.410249,-6.056499
1002.910156,1.933250,3.600132,6.275699,5.540143
1002.914062,13.649145,12.423630,6.293568,5.315289
1002.917969,6.460018,8.950937,6.593226,3.268772
1002.921875,4.319751,9.587440,10.610754,8.965128
1002.925781,12.755804,12.139575,14.052652,2.352239
1002.929688,11.600743,3.875708,0.171143,2.505698
1002.933594,8.985313,11.425316,11.581332,11.556783
1002.937500,6.426929,9.225637,10.481914,7.857556
1002.941406,-1.258218,9.541600,4.384369,3.877864
1002.945312,3.894266,0.563149,13.619613,4.974417
1002.949219,-1.178687,5.009890,-2.431131,3.129679
1002.953125,1.603254,-0.607656,-0.694197,-1.016388
1002.957031,-2.478869,1.628440,-6.153735,-2.746980
1002.960938,-4.523701,-11.389199,0.185188,-3.970294
1002.964844,-8.640221,-9.447056,4.326916,-11.545124
1002.968750,-8.895187,-8.999190,-13.187768,-5.663731
1002.972656,-19.148127,-6.897641,-9.265164,-8.304159
1002.976562,-10.612179,-12.701066,-13.510896,-9.895532
1002.980469,-4.517848,-10.594733,-9.517815,-9.559965
1002.984375,-5.666204,-7.121888,-10.664326,-13.580039
1002.988281,-2.454195,-3.416949,-12.886784,-3.316650
1002.992188,-12.590804,-0.386846,3.886277,-5.399216
1002.996094,-0.009907,-4.551831,0.835655,-5.636819
1003.000000,2.116263,-3.689559,1.579748,0.670881
1003.003906,10.124769,-4.365507,-0.342150,6.818594
1003.007812,6.979018,2.331026,7.736598,-1.692412
1003.011719,-3.116803,4.530384,8.249880,1.611722
1003.015625,8.777043,7.136277,7.218639,0.852424
1003.019531,14.165255,6.438752,7.139029,10.253447
1003.023438,11.338047,3.390311,13.893587,11.617807
1003.027344,6.404869,12.023475,7.293086,15.483476
1003.031250,8.401592,11.790919,11.246720,12.516442
1003.035156,-0.445368,5.849554,4.095644,5.570096
1003.039062,13.053161,3.608305,17.397999,9.071464
1003.042969,5.974970,10.237443,0.083734,5.658908
1003.046875,3.477288,-2.681844,5.858893,0.008983
1003.050781,6.100730,-4.912018,5.131806,6.451721
1003.054688,-2.801994,3.027456,-2.827187,-9.843991
1003.058594,-7.245833,-3.538149,-3.672897,-5.586541
1003.062500,-6.337792,-5.796241,-7.171492,-6.465244
1003.066406,-9.420605,-18.992933,-11.861528,-4.493401
1003.070312,-12.142030,-7.743257,-9.287725,-10.342948
1003.074219,-10.387572,-11.599045,-8.843445,-7.619205
1003.078125,-10.571683,-6.493335,-4.802536,-8.168315
1003.082031,-8.772728,-9.202131,-18.259965,-0.664995
1003.085938,-16.099140,-12.202778,-11.397433,-2.426077
1003.089844,-12.667074,-2.668950,-2.667875,-10.704580
1003.093750,-9.174277,1.232538,-6.174190,-2.851417
1003.097656,-1.315598,-2.527048,-0.135682,-0.263252
1003.101562,1.715301,2.029191,-7.368942,2.675239
1003.105469,0.626497,1.975664,-0.231067,-3.873279
1003.109375,3.718664,3.500412,5.039485,-0.191826
1003.113281,6.958077,13.017066,7.620113,8.293826
1003.117188,6.857076,8.230207,13.777894,14.711678
1003.121094,5.989481,16.280846,15.637336,4.417368
1003.125000,4.163779,11.838379,10.685874,9.263592
1003.128906,12.239766,13.484294,14.962931,11.972134
1003.132812,3.324422,8.452480,13.396240,9.524537
1003.136719,11.421890,3.853818,5.529250,6.574209
1003.140625,5.773668,8.430406,-4.282058,9.621587
1003.144531,5.271774,7.709471,-1.163264,3.563465
1003.148438,3.139087,0.183863,2.224903,1.855834
1003.152344,-0.085371,1.871444,-5.577302,-3.272219
1003.156250,-0.472978,-8.061807,-0.317314,-0.259624
1003.160156,-9.620988,-3.611755,-2.597652,-7.238925
1003.164062,-2.270610,-6.477588,-6.893964,-3.454235
1003.167969,-8.827917,-16.478099,-4.229502,-7.804821
1003.171875,-12.496267,-6.884893,-14.068507,-13.069892
1003.175781,-10.758134,-10.068557,-13.238498,-17.438825
1003.179688,-7.160497,-15.891715,-19.004309,-0.232324
1003.183594,-10.529836,-3.993240,-13.263014,-8.576577
1003.187500,-6.257249,-6.807392,-10.581537,-8.999822
1003.191406,-2.789703,-2.661445,-6.241449,-10.724655
1003.195312,-2.404064,-8.576912,-6.314443,-2.657098
1003.199219,-4.291222,1.660768,-1.390704,0.846455
1003.203125,3.186701,-3.549995,7.358035,6.895952
1003.207031,3.206464,5.027189,1.100036,3.117017
1003.210938,1.698283,4.364118,13.231511,11.317493
1003.214844,-2.038875,2.537686,0.421176,14.322561
1003.218750,7.317064,6.772056,9.489429,13.625054
1003.222656,11.744574,8.397856,13.147398,10.863295
1003.226562,14.713437,13.552739,10.874093,8.899483
1003.230469,3.429515,8.183631,6.437453,7.104553
1003.234375,14.794265,16.753145,7.340422,10.159347
1003.238281,2.056338,4.293680,5.294932,4.776832
1003.242188,3.906981,-1.475961,8.510784,9.299453
1003.246094,0.963208,1.233210,5.702760,6.943943
1003.250000,8.196270,-1.107291,-8.242979,0.267391
1003.253906,2.470835,-12.769672,0.297393,-2.819231
1003.257812,1.374600,-0.405524,-7.039948,-2.156418
1003.261719,-13.106886,-7.328389,-9.842170,-6.102811
1003.265625,-14.508084,-7.370854,-6.847397,-3.357377
1003.269531,-13.454955,-3.653410,-6.170454,-9.534612
1003.273438,-7.035817,-6.077153,-6.329221,-5.184335
1003.277344,-13.449490,-16.008089,-12.649557,-5.058322
1003.281250,-3.362190,-10.362396,-13.660227,-8.007894
1003.285156,-13.156345,-6.138076,-5.310774,-11.602145
1003.289062,-8.971821,-13.677379,-8.587453,-12.765782
1003.292969,0.582634,-5.240532,-8.170511,-6.932903
1003.296875,1.265742,-6.347164,-1.531043,-1.888714
1003.300781,-1.565843,0.142914,6.149497,-0.278356
1003.304688,-3.117087,5.556612,-2.569951,3.250008
1003.308594,-1.295074,8.521908,3.307414,8.722449
1003.312500,8.917881,10.282339,6.247143,12.061033
1003.316406,8.121075,10.308447,7.212294,11.133416
1003.320312,14.944733,7.584572,11.464725,5.104860
1003.324219,12.863698,6.863750,8.108942,18.436364
1003.328125,3.919138,15.848026,13.075419,11.024846
1003.332031,4.661895,16.914551,10.664966,9.223477
1003.335938,-2.220536,8.705708,12.534029,2.499964
1003.339844,8.557995,4.059977,7.832078,11.271624
1003.343750,7.028619,-1.899875,-2.684532,2.848260
1003.347656,-4.431146,-2.284339,2.943981,7.654335
1003.351562,-5.578058,0.385712,4.252269,2.520903
1003.355469,-2.480683,-3.651350,-6.124060,-4.458285
1003.359375,2.465795,1.295435,-6.864424,-3.686097
1003.363281,-4.004832,-6.177622,-8.929085,-13.101247
1003.367188,-6.714020,-5.124565,-15.981625,-2.245826
1003.371094,-11.989804,-13.931874,-15.852709,-10.696277
1003.375000,-11.288825,-7.890198,-9.469750,-16.737939
1003.378906,-12.594430,-8.510631,-8.461071,-17.131081
1003.382812,-9.542012,-16.278843,-13.328132,-8.283147
1003.386719,-9.379419,-8.690880,-9.305863,-8.311923
1003.390625,-3.333123,2.163036,-2.769125,-3.501120
1003.394531,-4.618940,-5.261045,-5.360558,-8.320666
1003.398438,3.015901,-4.646825,-1.447558,3.361953
1003.402344,1.775243,-0.900584,-0.036629,-0.585085
1003.406250,6.721457,4.634156,-4.590166,6.169193
1003.410156,-1.001243,10.790707,12.319924,3.131052
1003.414062,7.394211,15.839450,11.898552,14.421323
1003.417969,11.851499,13.641407,9.194245,2.630550
1003.421875,15.616086,4.263976,11.364630,4.533307
1003.425781,14.182655,11.093943,10.708454,13.304307
1003.429688,8.472831,11.048546,4.365721,15.243561
1003.433594,7.149440,13.464817,6.125028,13.848263
1003.437500,9.390450,-0.752913,10.734606,4.984253
1003.441406,3.435309,1.079193,1.082847,4.070534
1003.445312,-1.446563,7.063672,-0.256761,-3.616167
1003.449219,6.613366,-8.255860,2.248251,-3.666141
1003.453125,-0.429333,-1.508510,-2.907582,-4.266279
1003.457031,-3.894599,0.205532,-5.235224,-11.055976
1003.460938,-5.815536,-3.769554,-0.253776,-4.950514
1003.464844,-10.052258,-5.774644,-3.981222,-8.726883
1003.468750,-11.701398,-1.753387,-6.226756,-12.536441
1003.472656,-7.160361,-9.423458,-7.681262,-5.533898
1003.476562,-6.524997,-10.251602,-13.879396,-9.783192
1003.480469,-8.487236,-10.058658,-10.026673,-8.942576
1003.484375,-5.090491,-13.058324,-7.711404,-22.272250
1003.488281,-6.451188,-9.312183,-13.567208,-6.630922
1003.492188,-1.902613,0.133917,-4.128065,1.109714
1003.496094,0.288918,-8.382249,4.772188,-1.076227
1003.500000,-0.841238,4.535914,2.210610,4.469942
1003.503906,8.323378,2.104333,9.347617,5.418283
1003.507812,3.705694,8.672498,-0.141603,4.858540
1003.511719,4.569306,9.267411,4.524872,8.576614
1003.515625,9.320892,8.839538,12.896736,11.339771
1003.519531,5.236610,8.225569,9.994240,5.198668
1003.523438,9.993172,4.050573,7.569674,14.207468
1003.527344,8.908459,10.222919,7.025764,11.766795
1003.531250,11.085908,10.252131,10.978094,6.992128
1003.535156,1.618186,9.767047,3.899702,0.378292
1003.539062,2.758230,6.297879,3.287388,4.819663
1003.542969,4.508303,7.979697,8.672961,4.635542
1003.546875,-7.362611,1.193056,1.039696,9.185528
1003.550781,-1.094918,-2.629968,-4.715235,-3.905526
1003.554688,-7.170621,-0.346076,1.066730,0.045868
1003.558594,-8.004771,0.517940,-2.066340,-11.003093
1003.562500,-7.029135,-9.151086,-7.001134,-9.627111
1003.566406,-3.476182,-10.195357,-14.934585,-6.033957
1003.570312,-12.343726,-10.692728,-9.294383,-10.138490
1003.574219,-9.788109,-13.994127,-12.134447,-12.435875
1003.578125,-15.824431,-9.593297,-14.225413,-9.902102
1003.582031,-5.119370,-1.958647,-7.384873,-12.714677
1003.585938,-11.683647,-9.936558,-9.105467,-2.546137
1003.589844,-0.489071,-1.863849,-5.114880,-16.337239
1003.593750,-6.913165,2.468036,-3.260699,0.210940
1003.597656,-0.520379,5.914493,-4.879184,-7.727288
1003.601562,-0.947955,3.954629,2.104014,3.042666
1003.605469,5.934713,4.492811,4.333463,-2.034693
1003.609375,4.848947,-0.708778,4.086093,7.434078
1003.613281,7.777930,13.985769,4.004307,0.048503
1003.617188,16.735109,7.817543,15.277921,6.424349
1003.621094,7.809600,10.064550,17.388691,8.014966
1003.625000,12.019954,5.578070,8.009781,18.605032
1003.628906,9.470036,9.111184,3.364953,10.780448
1003.632812,9.836271,6.813536,8.618211,8.054335
1003.636719,12.380830,5.976278,8.936311,3.723823
1003.640625,7.298729,0.882683,3.350880,4.071556
1003.644531,3.268670,1.799540,1.173510,5.380396
1003.648438,4.154285,-3.673197,5.382074,4.455975
1003.652344,-3.129505,-3.889896,-7.633280,-0.723297
1003.656250,-0.761436,2.604119,-2.965708,-2.796609
1003.660156,-1.090010,-2.666323,0.063018,-6.136140
1003.664062,-8.182785,-4.852560,-11.174998,-5.229429
1003.667969,-9.720471,-12.441403,-12.736963,-8.601918
1003.671875,-8.380482,-4.646248,-10.340376,-12.395690
1003.675781,-12.003386,-7.828595,-20.690637,-18.768901
1003.679688,-12.172511,-8.666416,-7.315146,-4.340285
1003.683594,-7.705630,-1.239118,-6.844120,-7.071006
1003.687500,-7.861331,-6.209177,-5.266637,-4.207619
1003.691406,-10.451333,-6.608478,-2.765931,-3.804481
1003.695312,5.106936,-1.779969,-4.775089,-1.089955
1003.699219,1.716423,-1.931686,-1.558080,-3.815188
1003.703125,7.787512,-2.758632,-1.046433,-4.790707
1003.707031,-0.445530,-0.241887,3.393403,8.862368
1003.710938,4.838104,3.096789,1.208670,8.475018
1003.714844,9.147399,9.035753,7.575176,4.969338
1003.718750,10.920347,11.530201,6.627176,4.578228
1003.722656,2.305464,15.638420,9.828792,5.517468
1003.726562,7.056410,5.591192,8.202199,8.568514
1003.730469,14.264573,8.467730,18.075956,17.493917
1003.734375,13.411911,3.696217,0.622486,6.809411
1003.738281,10.647539,8.737318,10.482348,6.097807
1003.742188,4.618538,4.476124,-4.148721,-1.838460
1003.746094,7.394343,1.200104,-7.139810,-1.618253
1003.750000,-0.235007,-7.862967,-5.229037,-2.474359
1003.753906,-0.971915,-6.955605,-3.281107,2.607238
1003.757812,0.900337,-4.094648,-6.955872,-13.707387
1003.761719,-8.816013,-13.938335,-3.897399,-9.859720
1003.765625,-7.032596,-7.332232,-9.716202,-9.661700
1003.769531,-7.500270,-9.464513,-15.052875,-3.544175
1003.773438,-12.243331,-5.915269,-5.121781,-11.407063
1003.777344,-9.648247,-9.879872,-5.792818,-10.573525
1003.781250,-11.464505,-6.744825,-11.236530,-15.453557
1003.785156,-10.667218,-8.227705,-3.679151,-5.812424
1003.789062,-12.212023,-2.793415,-9.150484,-4.398316
1003.792969,0.286870,-9.692809,-4.932825,-2.799267
1003.796875,-1.544494,-3.971783,-4.814668,2.260905
1003.800781,-0.197301,-9.777321,1.211169,9.872676
1003.804688,-5.938050,1.369164,5.822573,-2.060425
1003.808594,5.893863,13.987097,9.513052,5.848324
1003.812500,1.121655,6.433849,10.890652,1.929910
1003.816406,5.460203,5.244165,9.965095,14.238023
1003.820312,8.498356,9.762859,13.713435,6.607390
1003.824219,9.125844,12.588523,9.545670,1.745051
1003.828125,12.753436,9.079836,8.347804,8.655848
1003.832031,5.837068,12.010774,4.970827,13.486045
1003.835938,13.797463,10.380693,9.536552,7.786242
1003.839844,4.720070,2.953356,1.609725,3.239339
1003.843750,9.596701,6.781464,-0.686685,-0.194256
1003.847656,0.122803,6.006868,1.079181,1.636965
1003.851562,-0.587478,0.489565,-4.149576,-2.414968
1003.855469,-2.386175,-6.292491,-8.106589,0.473065
1003.859375,-5.422459,-12.670812,-10.464124,-7.923190
1003.863281,-4.474816,-14.154037,-9.349873,-7.761462
1003.867188,-8.725574,-9.535841,-5.498645,-10.611023
1003.871094,-11.087319,-11.498550,-12.709470,-13.572216
1003.875000,-2.509746,-4.660995,-8.774920,-5.223275
1003.878906,-0.846583,-13.014962,-12.648093,-11.402529
1003.882812,-9.593353,-8.782521,-9.377566,-8.247363
1003.886719,-1.502094,-8.814658,-7.604180,-4.332788
1003.890625,-11.742463,-3.907393,-3.516614,-6.995509
1003.894531,-9.682580,-2.206146,-6.962656,-4.833943
1003.898438,1.148757,-3.512515,-5.285993,-2.605209
1003.902344,-2.019615,5.575432,-3.446004,2.620279
1003.906250,9.949826,3.165347,6.344283,10.191246
1003.910156,3.231676,5.135544,6.991267,5.580453
1003.914062,2.863771,14.194485,12.333667,9.457023
1003.917969,14.670427,5.420487,0.528504,14.229862
1003.921875,14.431214,5.589214,12.587140,16.800645
1003.925781,12.100740,8.008520,15.224586,15.373593
1003.929688,6.397224,12.501937,6.572253,13.482591
1003.933594,8.901244,5.508438,5.956805,11.647133
1003.937500,8.743421,6.224480,18.045033,6.448782
1003.941406,3.864583,0.550788,6.358274,-0.319799
1003.945312,4.982005,7.375660,7.254910,2.236232
1003.949219,-3.453691,-1.667659,1.682613,-3.872266
1003.953125,3.923196,2.872339,-4.264745,-6.362054
1003.957031,-3.738946,-5.568609,-5.256270,-9.039222
1003.960938,-6.471310,-6.452203,-2.221612,-15.267683
1003.964844,-3.394982,-10.386019,-15.422411,-9.970345
1003.968750,-6.694007,-3.766706,-14.887261,-5.167182
1003.972656,-9.786372,-5.047168,-11.020856,-12.895807
1003.976562,-7.853982,-17.219088,-16.414089,-7.771022
1003.980469,-8.854611,-8.742899,-12.222792,-2.781003
1003.984375,-15.113887,-8.734254,-11.738470,-4.505593
1003.988281,-9.633476,-11.613082,-10.982321,-8.068341
1003.992188,3.242824,-7.638585,-6.301610,-2.757108
1003.996094,-4.854118,-1.631039,-3.150788,1.054926
1004.000000,-2.854967,3.289093,5.176565,-2.131620
1004.003906,-4.249823,1.256071,2.564727,-5.459086
1004.007812,8.574869,4.368988,4.814977,4.078322
1004.011719,0.908194,7.070718,4.500181,12.159378
1004.015625,10.024864,10.773381,11.446056,12.008874
1004.019531,18.540750,6.075968,6.825468,1.541326
1004.023438,14.373993,8.862168,15.327316,3.891281
1004.027344,13.882223,-1.734140,-1.143242,10.262720
1004.031250,2.429495,8.797786,11.197756,15.028037
1004.035156,9.025387,15.713441,2.463755,3.696302
1004.039062,4.006607,5.851806,7.638029,4.193999
1004.042969,5.034005,3.833649,6.306070,2.147790
1004.046875,8.921537,0.991902,1.074092,5.006385
1004.050781,-2.263417,2.534322,-0.115632,1.228256
1004.054688,-3.960225,0.005770,2.479674,-2.620232
1004.058594,1.172677,-11.195206,5.294929,-9.986423
1004.062500,-10.484859,1.022234,-10.843332,-7.844010
1004.066406,-14.477569,-9.130390,-4.244506,-9.907163
1004.070312,-16.286694,-13.677229,-10.436778,-2.801456
1004.074219,-12.600365,-6.150905,-12.609023,-12.317167
1004.078125,-10.425544,-12.086377,-14.505374,-12.219691
1004.082031,-9.224801,-1.872596,-8.022513,-6.172783
1004.085938,-14.889731,-3.097597,-6.091026,-16.789817
1004.089844,-2.534340,-6.464868,-1.262856,-9.067409
1004.093750,0.677603,-4.299256,1.673861,1.133345
1004.097656,2.322452,4.926741,-3.766456,-12.318006
1004.101562,0.112490,-3.005722,-4.500130,7.634052
1004.105469,9.094465,5.113062,9.075778,4.347813
1004.109375,0.975596,6.722659,6.634160,3.980505
1004.113281,4.688996,7.444613,7.107020,6.136843
1004.117188,11.130754,13.042328,12.772245,9.838765
1004.121094,6.435241,13.718090,6.464439,3.481061
1004.125000,4.216157,14.631161,4.669599,5.542611
1004.128906,11.188908,11.504418,13.406977,12.142908
1004.132812,11.599175,14.604459,9.534868,15.106569
1004.136719,4.412588,10.749874,5.109726,9.601478
1004.140625,1.568082,11.569807,7.425528,2.456655
1004.144531,5.286486,9.996241,4.550230,3.496917
1004.148438,5.127381,9.728050,-4.068490,2.035196
1004.152344,3.997503,1.642221,-6.717783,2.421909
1004.156250,-4.269813,-0.192467,2.456753,-4.473182
1004.160156,-4.009250,-9.840173,-2.018147,-15.229309
1004.164062,-8.946354,-6.616768,-7.283981,1.206386
1004.167969,-8.062930,-10.023849,-10.882370,-7.957824
1004.171875,-17.519256,-13.271747,-8.597687,-2.709135
1004.175781,-12.415747,-9.212836,-6.271857,-0.521203
1004.179688,-10.840492,-13.210500,-10.070264,-6.063605
1004.183594,-8.566939,-9.937672,-10.447267,-0.797053
1004.187500,-11.091097,-4.912518,-4.459934,-14.750440
1004.191406,-7.670682,-3.095061,-5.825846,-4.046249
1004.195312,3.377310,1.990262,-2.135194,1.298914
1004.199219,-2.389821,-1.962578,4.830169,-5.935869
1004.203125,3.727756,3.258269,-0.707343,-1.115914
1004.207031,5.383206,-1.930682,2.573064,2.442763
1004.210938,8.156500,6.934733,3.201090,11.439290
1004.214844,9.040495,8.682289,10.477541,10.475554
1004.218750,7.004083,5.810055,6.092533,12.330419
1004.222656,13.783814,8.437540,13.795398,14.938005
1004.226562,5.125416,8.331363,14.308092,0.010157
1004.230469,13.151926,3.945858,9.781887,8.678669
1004.234375,2.505320,5.216375,-0.059230,8.961010
1004.238281,4.898544,5.989267,13.874767,3.106960
1004.242188,2.926002,3.523906,4.733620,2.463646
1004.246094,1.120146,3.933354,-2.285175,-2.998559
1004.250000,-0.776334,3.156394,3.315063,-0.202555
1004.253906,0.129109,5.502727,-2.482701,-9.582890
1004.257812,-0.658999,-0.083835,-6.871552,-6.162159
1004.261719,-8.862043,-5.506832,-16.467442,-7.848388
1004.265625,-6.936484,-6.595109,-21.288546,-9.953801
1004.269531,-8.290410,-8.358135,-12.555829,-12.859785
1004.273438,-3.843744,-8.959417,-7.645367,-7.243446
1004.277344,-11.207799,-9.323437,-10.890069,-10.250855
1004.281250,-4.186691,-4.583005,-11.358702,-3.175180
1004.285156,-5.274980,-3.308081,-9.850825,-7.655548
1004.289062,-4.041148,-5.033143,-11.773928,-3.481154
1004.292969,-2.701981,-2.979117,-2.888895,-13.537767
1004.296875,-1.111838,-2.643457,-7.440007,0.181701
1004.300781,1.745255,3.173891,-9.048646,4.855686
1004.304688,-1.597108,-0.573561,1.207727,3.670456
1004.308594,0.637123,4.736847,3.537169,5.837995
1004.312500,9.559969,13.679273,6.110666,12.844032
1004.316406,9.216873,10.861839,-3.005366,6.688491
1004.320312,11.280622,15.657708,9.051674,11.905814
1004.324219,14.693184,11.240458,11.105507,8.400421
1004.328125,14.342701,7.744399,7.502303,10.651501
1004.332031,9.956962,8.392146,5.936244,11.162948
1004.335938,4.713124,4.106063,6.383795,10.142592
1004.339844,2.361961,7.516717,7.580988,7.948261
1004.343750,4.462789,6.451775,3.792543,4.576004
1004.347656,4.805231,4.580399,4.561282,0.341382
1004.351562,-1.037064,7.227919,-1.782976,8.301601
1004.355469,-5.174236,-3.957106,-5.688155,5.191938
1004.359375,-4.987955,-8.714595,0.016424,-2.170397
1004.363281,-11.961627,-9.534885,-5.172559,-2.012208
1004.367188,-13.148014,-13.797259,-4.384680,-5.468109
1004.371094,-12.803268,-2.383913,-4.850805,-7.533160
1004.375000,-8.964582,-4.493992,-4.596122,-13.593574
1004.378906,-13.931141,-7.326875,-4.553333,-8.448108
1004.382812,0.768784,-10.762905,-20.215408,-7.902327
1004.386719,-8.222331,-4.611595,-2.076416,-11.677173
1004.390625,-5.549137,-9.756912,-8.332710,-2.584670
1004.394531,-3.256823,-5.667356,-1.652841,-5.923128
1004.398438,-6.075412,-0.449126,-2.732567,-6.305145
1004.402344,5.783520,1.272160,6.189954,-2.647656
1004.406250,5.342290,3.083171,1.058086,6.570188
1004.410156,7.362121,3.821426,5.366710,11.343496
1004.414062,12.101806,7.313666,7.182390,6.079645
1004.417969,19.455148,7.653970,12.356010,8.570337
1004.421875,11.113322,12.873337,12.909901,8.298435
1004.425781,10.186909,2.262919,17.271974,1.318216
1004.429688,16.121072,11.347637,4.323295,10.239621
1004.433594,6.687568,10.487189,9.322644,8.713485
1004.437500,10.183757,4.729629,7.929545,3.935984
1004.441406,2.859241,5.108391,12.179559,5.807768
1004.445312,7.750041,4.341674,4.424373,-5.646775
1004.449219,-3.067848,1.555166,2.033597,1.270344
1004.453125,-0.878153,2.346020,0.534409,-3.093280
1004.457031,-3.493604,-8.824072,-3.322618,-5.594619
1004.460938,-6.584075,-7.697905,-11.318940,-1.155055
1004.464844,-9.552677,-11.227079,-8.391603,-4.544825
1004.468750,-8.158251,-10.760743,-9.886678,-2.708703
1004.472656,-6.892395,-9.820083,-6.532912,-14.847704
1004.476562,-10.566192,-6.161606,-12.476048,-7.306161
1004.480469,-13.632375,-8.355916,-14.340723,-10.528758
1004.484375,-11.557814,-6.277801,-6.645697,-13.232283
1004.488281,-5.076449,-6.712654,-7.868152,-7.241413
1004.492188,-8.427588,-8.057615,-5.997919,-10.405360
1004.496094,0.537172,-2.351809,-1.192025,0.321069
1004.500000,4.094551,3.229938,1.836754,-1.235980
1004.503906,4.384617,2.377910,-2.953460,-1.859432
1004.507812,1.989773,5.594452,-2.586211,4.926118
1004.511719,9.500317,7.172665,2.428165,11.228000
1004.515625,4.412279,11.078925,7.943915,4.462053
1004.519531,4.066628,13.963287,5.858773,16.726078
1004.523438,11.053235,7.418007,6.607760,13.292235
1004.527344,7.066786,16.582254,17.638577,8.438651
1004.531250,15.111089,6.342362,7.860768,8.215934
1004.535156,9.428562,12.723408,11.769209,10.710033
1004.539062,15.144003,8.621024,1.104955,6.933725
1004.542969,2.170750,6.506659,-2.735665,5.670968
1004.546875,1.251656,-2.775856,6.078280,4.790394
1004.550781,-1.838881,-0.296304,0.902251,0.035619
1004.554688,-2.885519,0.141111,-3.172328,1.056089
1004.558594,-10.275933,-3.430873,-8.217506,-1.682354
1004.562500,-15.799945,-10.894162,-12.015340,-7.811951
1004.566406,-7.902135,-7.554195,-14.181415,-13.070473
1004.570312,-13.828349,-13.347998,-17.777500,-16.260036
1004.574219,-10.841288,-5.461805,-16.201603,-7.845509
1004.578125,-8.790600,-17.457898,-5.575249,-8.863008
1004.582031,-9.000075,-17.054921,-1.307072,-13.135839
1004.585938,-6.566045,-6.945865,-3.679525,-10.767257
1004.589844,-8.305141,-3.651523,-3.787791,6.176667
1004.593750,-6.870281,-0.279712,3.597305,1.065579
1004.597656,-5.031114,-0.274000,-2.314845,3.336715
1004.601562,3.418641,-0.046659,-1.464261,5.510581
1004.605469,1.574374,5.649644,3.475674,5.100242
1004.609375,5.865377,1.704874,4.813682,2.872358
1004.613281,8.156488,5.735917,3.767878,8.739582
1004.617188,4.556339,10.936420,6.709284,8.113660
1004.621094,12.270494,12.878393,16.480618,7.070653
1004.625000,8.866717,10.329332,9.802309,6.848417
1004.628906,12.842369,11.410912,9.576309,12.872300
1004.632812,13.472456,3.133151,6.067999,6.493737
1004.636719,2.820319,8.070094,2.231479,5.283656
1004.640625,6.142329,4.012700,3.444538,1.054211
1004.644531,-1.502763,6.427291,3.905320,2.042601
1004.648438,-1.346416,-0.912385,-3.255783,-0.656874
1004.652344,-2.993351,-7.038398,-5.094681,-9.459406
1004.656250,0.984742,-1.425737,-2.801895,-10.034963
1004.660156,-6.978334,4.719103,-5.071089,-6.104422
1004.664062,-0.725781,-9.263788,-10.002550,-11.109646
1004.667969,-10.053491,-8.314354,-11.973485,-10.731590
1004.671875,-9.316511,-10.667083,-18.548105,-10.525764
1004.675781,-7.267162,-3.508352,-12.845283,-10.430185
1004.679688,-0.180684,-12.804903,-6.072382,-9.141325
1004.683594,-4.762320,0.924473,-12.758965,-12.226088
1004.687500,-10.019713,-8.820441,-10.846513,-2.163541
1004.691406,-10.530495,2.711320,-10.570345,0.186426
1004.695312,2.664809,-4.564112,-0.193315,-5.073791
1004.699219,-8.721332,3.705796,-10.013583,-3.483565
1004.703125,2.823515,0.823353,7.472794,2.123937
1004.707031,0.278552,3.487115,6.115894,5.516843
1004.710938,4.855879,4.128678,1.287633,5.082937
1004.714844,4.316958,5.566982,6.087642,14.285890
1004.718750,12.570856,11.321958,0.632753,11.847397
1004.722656,12.097894,9.505822,12.475592,8.095383
1004.726562,8.506124,13.998278,8.883329,7.839679
1004.730469,0.436270,6.027170,2.635921,12.009221
1004.734375,17.929342,6.027061,14.345627,2.934329
1004.738281,11.956763,6.421289,5.858759,8.044443
1004.742188,0.988066,4.335386,1.373362,8.770191
1004.746094,0.686798,9.052337,-2.764534,2.832032
1004.750000,-5.068082,-2.553370,-1.565852,0.821658
1004.753906,5.070982,-6.386715,3.993710,0.832888
1004.757812,4.428447,0.123131,-11.581244,-4.815427
1004.761719,-7.971345,-8.231282,-3.867363,-3.086525
1004.765625,-12.024187,-6.922504,-11.839610,-6.356829
1004.769531,-6.475857,-9.653347,-17.324790,-7.722164
1004.773438,-5.244916,-8.315331,-4.562436,-14.379639
1004.777344,-4.931527,-13.995056,-8.215025,-6.409837
1004.781250,-11.913390,-11.825660,-8.841668,-11.563046
1004.785156,-9.411357,-8.823584,-3.096631,-7.785503
1004.789062,-12.560104,-16.281819,-11.086479,-5.372092
1004.792969,-9.132599,-11.773523,1.598179,-9.913875
1004.796875,-3.529255,-7.078149,1.560497,-2.512192
1004.800781,5.262794,0.982361,3.277719,1.906409
1004.804688,-0.628036,-3.784819,7.289124,3.222117
1004.808594,9.553862,6.401295,9.308205,-0.384369
1004.812500,12.987488,10.990293,2.968624,-2.798154
1004.816406,4.429484,13.154857,8.019838,8.536949
1004.820312,11.285853,9.782081,6.815746,16.166116
1004.824219,2.703101,11.459178,2.519170,10.710503
1004.828125,2.324557,5.298645,7.413838,10.429018
1004.832031,13.856661,5.677118,13.392172,10.733532
1004.835938,10.464566,11.390531,-0.703528,5.366533
1004.839844,-1.273701,4.756686,10.927576,0.155490
1004.843750,9.231071,0.156306,0.785636,1.914182
1004.847656,-1.566991,-0.174857,3.429364,-3.104710
1004.851562,1.391181,2.699562,-3.646928,9.225604
1004.855469,-2.388858,-1.797920,-4.706988,3.832137
1004.859375,-5.942439,0.992173,-6.762088,-4.866481
1004.863281,-3.569018,-6.164545,-3.567245,-14.410189
1004.867188,-4.751507,-10.487457,-5.178482,-9.095955
1004.871094,-9.185779,-12.425302,-5.251430,-10.689046
1004.875000,-16.110051,-11.212645,-7.288929,-13.233793
1004.878906,-16.023189,-2.154760,-2.633887,-11.552187
1004.882812,-15.605428,-5.057481,-6.505737,-5.361627
1004.886719,-8.843348,-6.067424,-12.309332,-1.642650
1004.890625,-6.750117,-13.494650,-3.575899,-11.229340
1004.894531,0.012882,-0.220793,-7.042394,-3.577517
1004.898438,3.614688,-1.150604,-2.722481,-1.411147
1004.902344,2.977468,1.682628,-2.974468,1.751087
1004.906250,2.605071,-2.203319,-2.760290,-9.007305
1004.910156,7.340143,7.391926,3.859711,4.619448
1004.914062,11.262029,3.398475,9.878938,6.420030
1004.917969,4.879286,9.592012,6.117775,9.979084
1004.921875,15.793538,7.401768,10.469407,8.236895
1004.925781,24.232632,11.675937,8.093419,7.592213
1004.929688,8.204482,14.285586,7.020213,8.393257
1004.933594,10.867275,5.267838,8.868494,7.170120
1004.937500,5.372005,10.075335,6.888770,2.991093
1004.941406,1.731571,4.616503,0.663402,8.447926
1004.945312,7.195840,5.031142,0.765822,-2.220476
1004.949219,-2.357716,0.772645,-0.456151,5.424765
1004.953125,-7.967686,-1.503035,-7.759779,0.376094
1004.957031,-3.784681,0.890344,-5.980259,-7.166808
1004.960938,-6.718551,-6.675626,-4.583424,-2.847807
1004.964844,-7.680957,-3.484525,-1.248074,-3.584882
1004.968750,-12.613934,-4.972143,-3.672671,-12.388744
1004.972656,-16.957923,-10.747672,-7.540268,-12.537974
1004.976562,-12.685278,-10.995751,-7.195251,-5.728264
1004.980469,-6.923055,-5.900147,-13.516005,-10.696766
1004.984375,-14.337811,-11.894295,-13.840949,-10.878952
1004.988281,-1.750004,-2.818014,-14.434098,-8.609399
1004.992188,-1.783419,-1.878369,-3.439269,-8.240309
1004.996094,-4.989352,-2.802384,-0.498608,2.754658
1005.000000,-0.279186,1.037144,-0.600196,1.052227
1005.003906,-2.875520,6.182369,-0.979809,4.506685
1005.007812,-0.180463,7.268869,4.352492,0.713722
1005.011719,8.298644,8.533727,6.790909,10.294623
1005.015625,9.144445,7.497419,9.294321,12.780295
1005.019531,8.179681,13.359796,13.556087,8.934073
1005.023438,16.243819,5.925425,11.773839,2.903827
1005.027344,10.977446,16.675796,7.351575,8.228892
1005.031250,0.033622,10.065856,6.397921,13.344227
1005.035156,7.723617,1.867866,7.204874,6.632885
1005.039062,1.906054,2.492580,3.198900,2.057435
1005.042969,1.947448,8.490341,1.614530,1.813785
1005.046875,4.742978,10.381192,9.330867,3.071036
1005.050781,-5.476577,-2.780934,2.386851,-5.464285
1005.054688,1.740962,-1.799194,-7.259782,1.423074
1005.058594,-4.902033,-7.656570,-9.010084,-14.370670
1005.062500,-2.021265,-10.488119,-3.045278,-11.590334
1005.066406,-9.558701,-11.622902,-9.468007,-6.626748
1005.070312,-3.603905,-9.948820,-12.569674,-6.659083
1005.074219,-8.201979,-10.659446,-9.777524,-12.520152
1005.078125,-5.518330,-5.593408,-12.233948,-1.143402
1005.082031,-9.925960,-0.437145,-9.295314,-8.170124
1005.085938,-1.808223,0.114476,-15.102338,-9.137440
1005.089844,-10.555998,-6.601270,-6.536609,-9.657120
1005.093750,0.502616,3.268815,-9.597898,-7.935498
1005.097656,-6.742761,-4.668258,-5.796685,-3.137800
1005.101562,1.417158,5.596901,2.746037,2.178649
1005.105469,9.042952,4.760655,8.063371,0.710834
1005.109375,2.445836,-4.509869,12.862797,2.494564
1005.113281,14.753955,5.838149,4.230608,11.275546
1005.117188,14.217746,12.183284,7.195364,7.328810
1005.121094,14.137519,4.347415,8.478429,14.133346
1005.125000,14.749099,11.683177,4.718698,6.291289
1005.128906,16.231454,15.238944,3.373277,4.917566
1005.132812,15.524205,8.905433,11.565605,8.755682
1005.136719,10.925036,18.040500,8.759217,16.307528
1005.140625,5.843856,3.411266,2.481548,1.936922
1005.144531,4.791497,-2.361813,3.531606,6.097201
1005.148438,4.071270,-1.741764,-8.204645,-3.663914
1005.152344,-2.443452,3.445628,-3.433255,0.235200
1005.156250,1.578942,-1.503180,1.097733,0.356604
1005.160156,-7.407208,-4.915705,-1.521655,-4.562062
1005.164062,-6.248045,-6.193512,-6.266540,-7.911419
1005.167969,-6.345239,-0.390478,-7.389994,-10.934395
1005.171875,-5.925043,-9.995992,-11.336067,-9.313165
1005.175781,-14.909552,-6.402167,-6.567291,-12.320180
1005.179688,-9.729172,-9.817364,-9.189402,-8.334163
1005.183594,-8.471167,-3.664794,-8.196570,-12.250600
1005.187500,-7.356930,-10.637490,-5.565815,-2.332263
1005.191406,-7.473349,-4.917475,-7.634464,-9.312939
1005.195312,-0.566041,-1.614196,1.607106,-5.890113
1005.199219,-4.276349,1.845359,2.279518,1.275763
1005.203125,-1.496558,4.556362,6.210576,9.258008
1005.207031,8.552919,-0.414279,6.274047,-1.619563
1005.210938,3.744624,3.445553,5.156872,8.674805
1005.214844,14.642743,3.729705,14.991650,11.607400
1005.218750,15.502417,8.085830,3.771991,15.349448
1005.222656,14.001190,12.797472,5.961527,11.449182
1005.226562,13.622040,17.444972,13.307288,11.795739
1005.230469,3.850905,8.479790,13.078642,10.358490
1005.234375,11.234090,11.915510,10.147386,11.035685
1005.238281,10.157566,13.099700,3.674616,-0.940969
1005.242188,8.988553,2.467009,6.133815,5.006592
1005.246094,9.131799,4.545495,-2.895600,3.333910
1005.250000,8.794774,0.798018,-0.600876,-0.869549
1005.253906,3.892587,4.267289,-1.053095,-3.028521
1005.257812,-2.174958,-5.183290,-6.108795,-3.836891
1005.261719,-7.654461,-10.020042,-12.700773,-5.643955
1005.265625,-9.256456,-7.249741,-2.485763,-12.880240
1005.269531,-15.574241,-8.736734,-10.169956,-6.489778
1005.273438,-11.111574,-9.126999,-4.558599,-12.072785
1005.277344,-17.646081,-10.930315,-15.666121,-15.247273
1005.281250,-12.639880,-8.169274,-13.457591,-6.923963
1005.285156,-5.287674,-7.161265,-4.513072,-10.635797
1005.289062,-11.235993,-2.077248,-9.175046,-3.877125
1005.292969,-5.027072,-13.419736,2.473872,-6.566661
1005.296875,-4.965994,1.832006,4.971277,-0.448424
1005.300781,1.671023,2.202498,2.641372,0.362195
1005.304688,6.869165,0.445685,5.593714,6.280741
1005.308594,3.901141,7.652893,4.031144,3.459534
1005.312500,9.103053,10.963353,8.433350,5.336180
1005.316406,8.778650,7.715874,14.383239,14.384766
1005.320312,12.276635,14.974267,17.440716,5.734179
1005.324219,16.920636,8.507770,11.476936,19.768064
1005.328125,9.660219,9.358201,7.570459,14.105827
1005.332031,2.890070,-5.849552,15.370372,4.708963
1005.335938,16.027764,10.686127,11.124887,11.988624
1005.339844,9.810640,10.522458,10.257244,4.566017
1005.343750,2.350608,0.132974,4.739754,3.314944
1005.347656,-0.626311,-0.174070,-4.564054,0.376973
1005.351562,-2.358456,-4.072386,1.536834,4.223827
1005.355469,-2.191833,-3.680863,-4.951658,-6.561805
1005.359375,-8.555542,-5.386210,-3.773829,-3.288455
1005.363281,-7.735576,-8.287532,-0.295006,-6.362988
1005.367188,-10.999545,-9.293517,-3.848012,-18.828595
1005.371094,-11.367889,-7.855589,-8.342753,-9.070852
1005.375000,-18.278387,-10.250276,-8.918883,-15.442197
1005.378906,-5.218813,-8.030918,-10.100748,-12.581787
1005.382812,-12.359026,-3.902878,-10.379311,-10.846528
1005.386719,-3.980467,-6.734576,-3.845976,-3.014292
1005.390625,3.204752,-0.386901,-6.097376,-6.365761
1005.394531,-4.509986,-6.716217,1.884817,-0.051081
1005.398438,0.696375,-3.106004,-5.318836,-2.613207
1005.402344,2.031166,-1.123852,-2.463312,-3.693277
1005.406250,5.089302,2.797034,-4.436831,2.313485
1005.410156,5.169370,8.849197,3.388707,14.422128
1005.414062,9.090080,7.773604,3.839678,10.526136
1005.417969,9.884234,3.381757,10.686349,2.395758
1005.421875,17.140008,3.120507,4.155711,8.787728
1005.425781,9.932423,8.743917,7.040621,8.956085
1005.429688,6.709475,2.243133,6.744714,14.948049
1005.433594,9.569739,10.648279,13.807873,12.471457
1005.437500,9.785902,9.249304,4.147860,6.594801
1005.441406,13.776968,7.512444,4.635037,5.859094
1005.445312,8.866222,0.514688,-2.039593,-2.334724
1005.449219,2.764282,-1.654846,-2.674971,2.403251
1005.453125,-0.234343,-5.785389,0.963214,0.709299
1005.457031,4.546026,-3.815004,-1.729036,-8.398289
1005.460938,-2.999056,-1.645946,-10.779232,-7.586134
1005.464844,-13.602000,-14.678541,-8.024045,1.009863
1005.468750,-8.993584,-8.899299,-9.471733,-5.351200
1005.472656,-8.715022,-10.395110,-8.643678,-21.168050
1005.476562,-2.791410,-11.650240,-5.248017,-10.698916
1005.480469,-7.568049,-10.363700,-6.497402,-6.208397
1005.484375,-7.765559,-5.720852,-9.679065,-15.201566
1005.488281,-7.329892,-9.114486,-10.516774,-11.121727
1005.492188,-6.870903,-2.154792,-6.917436,3.160622
1005.496094,-1.757775,0.005322,4.203250,-0.156555
1005.500000,-3.937908,-2.095668,5.949136,4.993648
1005.503906,5.909149,2.327560,6.730369,1.712614
1005.507812,2.860332,3.119713,2.352358,-4.119026
1005.511719,2.986594,4.217126,4.724753,12.911932
1005.515625,15.836027,7.288857,5.160921,8.273697
1005.519531,12.605474,14.214081,12.773934,10.353220
1005.523438,9.033108,7.558879,3.391489,9.054159
1005.527344,11.139858,12.244816,8.762687,14.628964
1005.531250,15.226194,8.484536,9.197195,8.128737
1005.535156,11.107358,7.632684,5.645723,11.219411
1005.539062,3.859759,5.223326,2.803407,6.436427
1005.542969,6.885430,4.350982,-0.867901,-2.886455
1005.546875,6.692688,2.211880,5.787302,2.596914
1005.550781,6.313077,2.807085,-0.428488,-0.279608
1005.554688,-5.793344,-4.758132,-0.347411,6.058936
1005.558594,2.089053,-2.451813,-2.599521,-0.040134
1005.562500,-5.884131,-9.804288,-5.145087,0.725335
1005.566406,-12.735723,-8.729983,-12.873303,-4.691081
1005.570312,-8.690035,-19.342997,-2.160892,-14.049097
1005.574219,-7.638980,-10.625887,-7.859829,-5.855508
1005.578125,-9.129473,-19.728742,-10.664382,-14.830159
1005.582031,-6.952506,-6.418900,-2.166359,-5.468656
1005.585938,-2.939703,-8.167349,-8.009641,-7.631958
1005.589844,-9.929615,-8.250597,-7.012593,-2.373235
1005.593750,1.656236,-3.278463,-5.680226,-7.539380
1005.597656,0.154636,-1.464948,-5.977013,-7.019308
1005.601562,-3.352376,-2.988043,-4.884925,2.936964
1005.605469,1.249750,2.312139,10.738796,5.918750
1005.609375,-4.002589,9.014314,8.972536,1.205513
1005.613281,4.229541,16.647805,3.480278,9.625584
1005.617188,5.813945,7.521916,2.690189,10.084557
1005.621094,6.441244,8.923391,8.881005,13.150516
1005.625000,14.192525,14.964226,5.401256,11.208837
1005.628906,8.519797,8.813247,10.421644,12.852698
1005.632812,8.189223,4.787781,5.501833,13.785640
1005.636719,9.750454,10.561116,6.897011,9.637097
1005.640625,7.364939,8.696939,3.305438,8.253302
1005.644531,6.200963,1.314675,8.732638,12.826857
1005.648438,4.292791,0.027871,0.559438,-2.621049
1005.652344,-2.578486,1.316669,-7.143876,-4.713454
1005.656250,-7.217691,-2.412348,2.437324,-8.373792
1005.660156,-9.021726,-11.133935,-12.975405,-0.068921
1005.664062,-8.329644,-16.100426,-6.256234,-8.651586
1005.667969,-11.314497,-12.184504,-10.310830,-7.622647
1005.671875,-3.615218,-1.334775,-10.021406,-6.179443
1005.675781,-11.911917,-5.046250,-3.925472,-14.136843
1005.679688,-4.876837,-9.453126,-11.863550,-9.641070
1005.683594,-8.605749,-7.893732,-6.673301,-7.516453
1005.687500,-13.638364,-13.554385,-9.465048,-8.824451
1005.691406,-6.823217,-5.658268,-2.821834,-3.971771
1005.695312,-5.702002,1.485539,1.748518,-1.886640
1005.699219,-1.575491,-0.816646,3.050935,-2.447973
1005.703125,-1.071985,5.452682,0.924257,-1.830904
1005.707031,4.561261,4.802188,-0.764626,11.493544
1005.710938,9.680582,9.046268,7.327590,-4.810756
1005.714844,-1.579121,9.326222,3.875016,6.754487
1005.718750,16.427511,8.988988,10.074683,10.634683
1005.722656,8.765932,5.653471,13.629079,10.190397
1005.726562,11.562525,16.663844,14.583416,5.980185
1005.730469,8.914561,5.188567,8.461667,12.544562
1005.734375,9.378604,14.033355,8.385381,8.591519
1005.738281,2.653647,2.547597,9.814114,6.655420
1005.742188,5.674561,8.110805,8.815145,5.690711
1005.746094,7.398912,2.834014,1.663334,6.041055
1005.750000,-3.293968,-3.215247,0.736833,7.806676
1005.753906,-1.409410,0.012560,-4.165114,-1.378833
1005.757812,-5.306377,-1.495692,-3.545945,-9.425610
1005.761719,1.008580,-7.173165,-7.378086,-7.525433
1005.765625,-13.167415,-8.781565,-6.239081,-8.680896
1005.769531,-7.250778,-9.317568,-1.666326,-7.170166
1005.773438,-8.875152,-12.558764,-12.848829,-4.022827
1005.777344,-11.178319,-9.519426,-11.288854,-5.376721
1005.781250,-8.791958,-13.706231,-10.735277,-5.995384
1005.785156,-11.567125,-6.014365,-11.942959,-14.555545
1005.789062,-7.579197,-4.767610,-9.409642,-3.953110
1005.792969,-9.378450,-2.586771,2.736763,-5.098018
1005.796875,1.843293,-2.691350,0.440431,0.668696
1005.800781,-0.299703,-2.952897,-2.089226,0.329102
1005.804688,4.188518,8.505235,6.213319,1.334733
1005.808594,11.768347,-0.307075,5.471760,8.500846
1005.812500,8.662720,9.604265,6.599240,4.479472
1005.816406,10.448491,13.151926,5.774104,9.743250
1005.820312,9.882436,8.620650,10.789187,15.958828
1005.824219,5.985022,5.307555,4.296828,7.764850
1005.828125,14.812779,6.545136,12.353369,0.314749
1005.832031,5.951057,6.843748,8.094321,10.381421
1005.835938,8.835777,5.597306,12.226314,5.340215
1005.839844,10.544904,3.058109,3.330075,5.917076
1005.843750,5.068008,6.805293,3.174514,-4.412565
1005.847656,3.102854,4.099031,3.217364,-2.879588
1005.851562,1.349817,-7.419349,0.078914,-2.235919
1005.855469,-3.060170,5.265947,3.940928,-1.118172
1005.859375,-14.564831,-11.639705,-9.863079,-8.348570
1005.863281,-9.949087,-4.933377,-4.994458,-7.265387
1005.867188,-8.905160,-12.179904,-6.961498,-10.968509
1005.871094,-13.119748,-8.424416,-8.055741,-14.434600
1005.875000,-10.076853,-15.525720,-11.484018,-7.815496
1005.878906,-11.619244,-9.179971,-4.409493,-13.639071
1005.882812,-6.666163,-12.015079,-14.692604,-8.146885
1005.886719,-11.057168,-6.749151,-5.063321,-7.449694
1005.890625,-10.538628,-13.650016,-8.438681,-5.657872
1005.894531,-6.030527,0.531590,-2.599389,-3.198636
1005.898438,-8.106392,-4.525146,-1.746921,2.879462
1005.902344,1.718157,4.968926,0.409270,2.023879
1005.906250,11.171460,3.958045,4.921721,9.552029
1005.910156,3.184498,5.909268,5.618701,-0.559777
1005.914062,9.202523,7.524957,8.062131,14.522787
1005.917969,12.961346,8.344690,6.479210,9.883638
1005.921875,5.550291,5.068953,14.882265,10.382099
1005.925781,9.944193,11.553241,10.127213,11.433280
1005.929688,7.498386,7.238277,9.674716,3.324483
1005.933594,0.784055,6.311041,7.474150,10.639700
1005.937500,7.027868,9.911509,5.259592,9.032508
1005.941406,5.507196,8.977966,3.827877,5.943018
1005.945312,2.579810,2.043909,-1.855561,-1.187566
1005.949219,-6.182909,-5.073365,0.748586,-0.002906
1005.953125,3.770085,-1.331983,1.017671,-6.981947
1005.957031,-3.057407,-4.465612,0.254734,-5.915647
1005.960938,-5.966824,-6.689126,-4.673804,-7.393463
1005.964844,-5.756111,-8.049814,-3.430403,-9.452182
1005.968750,-11.173953,-4.623703,-12.644353,-9.693339
1005.972656,-6.818604,-3.942784,-11.949515,-11.064394
1005.976562,-8.721883,-9.687672,-18.765295,-12.562872
1005.980469,-4.064006,-13.028402,-7.573613,-11.899370
1005.984375,-14.196415,-9.278705,-10.241364,-7.450422
1005.988281,-2.068691,-11.250611,-6.285207,-9.504987
1005.992188,3.873645,-2.521439,0.891486,-11.182214
1005.996094,-4.608041,-0.711345,-1.573736,3.355305
1006.000000,-0.200400,-1.561589,-5.085826,-1.588141
1006.003906,-4.193662,4.699909,1.311150,6.180553
1006.007812,2.981772,1.378525,6.901805,16.978188
1006.011719,1.707956,5.386589,0.832832,8.651372
1006.015625,11.624345,8.518330,12.664772,5.380601
1006.019531,14.262622,8.552738,15.200323,12.247028
1006.023438,6.028796,18.390069,1.061302,7.060662
1006.027344,5.932254,7.218241,9.990586,8.829571
1006.031250,11.530388,5.934057,1.293193,9.026074
1006.035156,10.085218,6.703729,8.595415,7.290652
1006.039062,1.363953,10.305584,5.087133,9.859078
1006.042969,4.798123,-0.164053,-0.881726,-2.128470
1006.046875,-0.290545,3.288946,9.696109,0.738897
1006.050781,2.645755,-2.420309,3.431015,4.022395
1006.054688,1.411353,3.377038,3.883780,0.090849
1006.058594,-3.213994,-2.015616,-5.165627,-7.988591
1006.062500,-5.304651,2.220040,-6.885032,-8.662339
1006.066406,-10.892562,-7.733188,-2.010872,-8.180178
1006.070312,-10.146912,-6.189692,-5.053044,-12.731247
1006.074219,-11.693494,-8.942253,-9.976153,-11.781697
1006.078125,-14.238931,-11.989747,-14.065730,-6.592162
1006.082031,-11.922228,-4.608715,-12.781597,-13.910448
1006.085938,-5.775346,-9.514906,-7.338854,-7.421936
1006.089844,-6.449511,0.651461,-6.905539,-6.186285
1006.093750,3.853653,-3.381686,-0.369920,-4.711222
1006.097656,-7.458965,-0.124463,2.437793,4.137492
1006.101562,3.119400,2.027259,5.819665,0.350031
1006.105469,2.900518,7.911679,2.694970,4.723471
1006.109375,3.476977,12.047850,4.824465,-0.795095
1006.113281,6.187504,1.169701,8.623573,3.243542
1006.117188,9.223810,15.581531,8.624863,7.549817
1006.121094,10.439566,7.337148,17.328733,5.910199
1006.125000,7.904725,7.026507,5.645144,7.795398
1006.128906,7.431340,13.962155,15.043077,13.305038
1006.132812,2.167741,5.421405,6.193377,5.982043
1006.136719,10.475511,7.143140,8.099131,6.811979
1006.140625,7.533243,3.010135,1.666530,5.734941
1006.144531,3.605821,4.011282,9.881936,7.310845
1006.148438,1.311447,-3.787650,-5.449363,-0.207290
1006.152344,6.234439,2.654889,0.302640,-2.712994
1006.156250,-4.085474,0.544722,-6.145079,-7.870824
1006.160156,-12.560183,-12.597697,-1.469205,-6.816807
1006.164062,-2.770139,-9.565251,-1.575762,-10.561285
1006.167969,-7.330883,-9.974214,-9.393801,-9.756708
1006.171875,-9.122573,-11.667988,-8.697330,-11.322548
1006.175781,-6.539131,-6.455328,-8.434566,-8.238710
1006.179688,-11.711822,-7.582419,-7.261861,-9.962938
1006.183594,3.384404,-8.416830,-9.804060,-13.251231
1006.187500,-3.151435,-9.269600,-10.419026,-8.739154
1006.191406,-6.145759,-15.258911,2.459736,-6.365416
1006.195312,-2.621089,0.796159,4.030996,-3.883930
1006.199219,2.435853,-6.683362,-3.468260,3.355580
1006.203125,-5.573914,-3.753809,3.886236,3.552021
1006.207031,5.664387,-2.966795,13.963706,0.954573
1006.210938,8.598675,2.924064,7.647451,6.108782
1006.214844,13.314407,5.242430,12.661875,13.116408
1006.218750,11.929975,15.438972,10.540215,11.783528
1006.222656,18.151284,13.587876,5.865449,12.062092
1006.226562,5.073359,12.258275,4.331304,7.343459
1006.230469,11.757182,8.823068,5.707869,12.211564
1006.234375,4.146540,12.105744,14.593772,13.118245
1006.238281,5.653637,0.841087,7.589904,9.175678
1006.242188,0.006144,9.433599,2.252183,2.840792
1006.246094,6.900024,-4.957478,3.151412,4.482550
1006.250000,-0.087290,0.319483,-4.445694,6.452552
1006.253906,-5.029969,-4.967668,-2.159429,-1.122030
1006.257812,-9.032580,-7.822030,-2.317156,-2.259159
1006.261719,-4.791509,-11.431823,-6.993952,-4.803983
1006.265625,-12.739580,-13.996664,-12.704458,-12.316887
1006.269531,-6.081710,-12.290669,-17.780015,-11.847986
1006.273438,-5.068733,-12.455925,-4.576169,-10.202696
1006.277344,-10.004392,-2.450570,-10.734096,-3.467567
1006.281250,-5.147261,-12.553623,-10.876230,-7.867608
1006.285156,-7.316374,-17.160529,-10.070958,-4.852672
1006.289062,-8.338153,-3.911269,-0.999474,-8.218065
1006.292969,-4.796322,-0.377868,-2.954594,-1.284497
1006.296875,-13.052732,-4.706546,-4.615723,-8.433742
1006.300781,3.267838,-2.370981,-4.116454,7.696085
1006.304688,6.909656,-1.912355,1.340425,1.211042
1006.308594,10.385807,2.628626,1.208149,10.005792
1006.312500,5.100196,3.680920,8.652836,-3.852474
1006.316406,10.445430,5.837298,12.752481,2.054170
1006.320312,11.525264,8.301736,14.014232,9.830543
1006.324219,9.625369,10.969468,10.456606,10.936629
1006.328125,9.433768,11.603551,12.791778,4.510990
1006.332031,3.391635,9.545136,14.175417,9.409765
1006.335938,15.865076,11.311508,8.331306,8.986457
1006.339844,4.404738,6.569924,7.647680,2.267579
1006.343750,1.117896,4.484580,-3.389755,-4.222756
1006.347656,1.990566,6.292755,-0.868490,6.130751
1006.351562,-9.802125,-4.574919,-4.268699,0.710320
1006.355469,-0.152263,-4.199606,-7.990262,-7.694155
1006.359375,-10.840702,-6.928536,1.923993,-2.160952
1006.363281,-9.535210,-12.199260,-4.484720,-11.319879
1006.367188,-7.877550,-8.685585,-9.150691,-7.022388
1006.371094,-12.302749,-6.242035,-12.628318,-7.941755
1006.375000,-13.669069,-10.257894,-7.557991,-4.721811
1006.378906,-12.118174,-14.103426,-14.952231,-2.974070
1006.382812,-6.000127,-4.506829,-6.091715,-0.915878
1006.386719,-7.345869,-7.948705,-7.221903,-1.083178
1006.390625,-6.832014,-9.607320,-4.734609,-5.942291
1006.394531,-1.723890,5.185138,6.252759,0.269061
1006.398438,1.932605,0.623681,1.031365,1.819897
1006.402344,-2.619602,-0.091990,-0.991835,-0.202796
1006.406250,2.731103,-0.087166,5.424059,4.776673
1006.410156,12.199716,2.989817,7.609820,11.302656
1006.414062,2.727354,10.185639,5.809534,4.952623
1006.417969,-0.192682,10.603716,10.584044,11.963587
1006.421875,15.492724,12.472880,7.991765,12.101975
1006.425781,9.564218,12.931721,10.683757,11.808063
1006.429688,6.958189,12.727013,9.466468,7.178635
1006.433594,14.796440,8.893059,1.629036,9.552786
1006.437500,8.111288,7.523537,8.631120,9.001360
1006.441406,6.263236,10.650454,7.939827,0.152704
1006.445312,3.852516,-2.751877,5.592978,-4.076136
1006.449219,3.729412,6.494108,-1.765735,-0.668112
1006.453125,-8.500057,1.863200,-5.259445,-6.503181
1006.457031,-9.795279,-7.175862,-7.719327,-11.561396
1006.460938,-5.914296,-7.384026,-13.004631,-11.130201
1006.464844,-4.549542,-4.055191,-8.067433,-16.024685
1006.468750,-12.082052,-7.122797,-7.840280,-8.842112
1006.472656,-13.093501,-15.913456,-3.308388,-11.689851
1006.476562,-4.957178,-14.497856,-9.132989,-11.947563
1006.480469,-13.413878,-13.392440,-12.670209,-14.738496
1006.484375,-12.529335,-6.777496,-0.521621,-7.447027
1006.488281,-11.116861,-5.478037,-11.007873,-9.793081
1006.492188,-10.796613,-6.764466,-2.034837,-4.874958
1006.496094,-5.169590,-5.227879,-5.671893,-2.857666
1006.500000,1.054489,3.144996,-4.507513,5.372591
1006.503906,6.208683,-3.000667,4.646591,-6.111432
1006.507812,9.093987,-0.217912,11.853812,1.260919
1006.511719,8.909395,0.935967,7.540605,11.556340
1006.515625,3.208840,11.155805,11.785403,6.351755
1006.519531,11.197033,10.022971,6.660116,13.594461
1006.523438,5.820814,12.874954,12.790055,12.142119
1006.527344,13.248921,16.139614,5.076631,12.901342
1006.531250,14.088422,14.458227,14.280334,11.935409
1006.535156,6.592609,5.218848,12.317971,6.865381
1006.539062,9.989457,9.963851,4.932804,6.425369
1006.542969,4.870621,5.653788,3.383214,-2.894845
1006.546875,3.044924,-1.805808,4.242085,5.826767
1006.550781,6.776040,-4.086804,3.214083,9.142725
1006.554688,10.446790,4.412843,-2.103990,-2.484540
1006.558594,-7.817357,-2.506453,-10.623695,-7.466663
1006.562500,-7.014741,-8.139515,-10.070682,-9.751470
1006.566406,-10.556645,-7.028506,-2.164681,-13.389396
1006.570312,-8.223167,-8.004270,-15.860195,-4.141665
1006.574219,-7.516535,-6.163711,-3.056804,-13.712238
1006.578125,-6.172812,-11.874607,-9.940599,-16.982674
1006.582031,-11.347364,-4.643355,-5.450109,-12.060622
1006.585938,-3.404869,-12.288234,-10.879061,-12.422969
1006.589844,-3.133492,-4.906186,-7.668306,-9.451158
1006.593750,-0.383516,-3.385568,-6.723253,-1.231498
1006.597656,4.671328,-1.066365,-6.547325,0.270859
1006.601562,-5.172207,3.094021,3.496617,-6.344629
1006.605469,9.895348,0.903815,3.213791,9.427172
1006.609375,4.922607,2.261782,10.095334,12.089822
1006.613281,6.389767,7.444626,0.411066,7.486120
1006.617188,12.524555,7.329474,6.212202,7.899560
1006.621094,14.817983,5.438848,11.382380,4.312784
1006.625000,6.822209,11.297137,6.593925,2.223644
1006.628906,9.916934,10.428354,11.127110,7.163391
1006.632812,5.628456,8.302353,-1.128304,14.927025
1006.636719,12.520334,-0.394684,10.117459,7.812377
1006.640625,4.566896,0.906796,4.968863,3.593131
1006.644531,0.691301,-6.945091,-2.625267,3.272134
1006.648438,3.323524,2.274754,8.088397,6.020464
1006.652344,-0.069931,1.258705,-3.497114,-2.395309
1006.656250,-5.120704,-6.326718,-4.465696,-5.821512
1006.660156,-2.010773,-8.563635,-10.600275,-2.209337
1006.664062,-13.003354,-7.074256,-8.157390,-7.425950
1006.667969,-7.849545,-13.710122,-13.947424,-13.046556
1006.671875,-5.190603,-6.934821,-9.210227,-15.520055
1006.675781,-16.703565,-14.809717,-6.200918,-11.973027
1006.679688,-16.608879,-9.619873,-7.264182,-13.908859
1006.683594,-7.438936,-14.696260,-14.039615,-9.949726
1006.687500,-14.334983,-13.593078,-11.110799,-14.446291
1006.691406,-0.110771,-3.455830,-15.584755,-0.197076
1006.695312,-1.971082,-8.953096,-4.611944,-5.194770
1006.699219,-1.875999,3.799863,-4.241079,1.402025
1006.703125,4.150111,-0.159724,-2.142820,3.070154
1006.707031,4.922655,2.764472,11.303758,-4.063884
1006.710938,7.881346,6.128851,7.910040,7.952534
1006.714844,5.852879,6.411611,9.319394,10.694325
1006.718750,11.802393,6.534588,7.947403,-2.542969
1006.722656,5.560362,4.686100,6.877312,8.333341
1006.726562,0.103518,11.749808,15.829684,15.620403
1006.730469,7.204594,8.023561,9.988725,1.977106
1006.734375,11.766207,7.126636,13.157339,9.008357
1006.738281,4.290586,5.591652,8.554204,8.339221
1006.742188,12.137364,8.039905,2.330596,4.274533
1006.746094,-3.256592,-1.038789,0.321336,-0.144687
1006.750000,-3.005692,-5.969277,0.202382,-8.380829
1006.753906,-5.449955,1.681398,-3.780243,-3.192926
1006.757812,-1.339003,-5.701322,-1.062182,-7.850748
1006.761719,-4.248645,-4.415012,-2.221532,-8.753944
1006.765625,-10.504172,-5.913873,-6.866463,-6.838973
1006.769531,-9.397700,-5.415994,-11.785567,-0.153704
1006.773438,-9.267175,-16.143218,-3.490724,-7.719061
1006.777344,-10.815870,-11.224723,-10.053935,-5.911190
1006.781250,-13.698430,-0.175126,-11.759134,-16.499324
1006.785156,-5.478972,-1.852009,-9.828105,-10.014763
1006.789062,-0.248139,-8.358676,-7.077326,-10.798904
1006.792969,-4.710399,-4.928608,-5.257657,-9.998427
1006.796875,1.166522,5.208886,1.845710,-4.113122
1006.800781,7.223397,5.311006,-1.280613,3.349855
1006.804688,0.770774,2.907355,-1.050711,-0.279825
1006.808594,5.184638,5.896373,8.221440,4.920649
1006.812500,9.564820,13.344681,7.578287,9.728491
1006.816406,7.680850,11.200367,11.270139,6.816201
1006.820312,10.394635,8.621540,11.167158,6.076620
1006.824219,17.424491,13.232832,4.552538,13.756074
1006.828125,5.081691,11.760350,8.846095,3.859920
1006.832031,13.365202,8.479443,9.769961,9.874339
1006.835938,10.679768,15.409181,14.820272,6.863422
1006.839844,1.168529,4.765152,1.462653,2.327037
1006.843750,2.702343,4.621153,12.962714,-0.461082
1006.847656,3.635563,6.282162,1.052453,-5.973557
1006.851562,-4.191464,-0.047080,-5.200211,-2.566072
1006.855469,-3.055214,-4.541076,-7.589879,-4.756990
1006.859375,-6.877477,-8.223931,-3.711211,-4.549957
1006.863281,-14.790396,-10.555416,2.921202,-9.986433
1006.867188,-7.620615,-7.095183,-11.379551,-22.522948
1006.871094,-15.878142,-16.147180,-11.433954,-9.229598
1006.875000,-14.673088,-12.552501,-15.188965,-12.259642
1006.878906,-9.044759,-10.620148,-15.226359,-7.217911
1006.882812,-9.641014,-9.998948,-7.307050,-14.881427
1006.886719,-4.560051,-8.927820,-1.072524,-8.848449
1006.890625,-8.771523,-4.979689,-1.667181,-13.280545
1006.894531,-4.110715,-4.338536,-2.315157,-6.409732
1006.898438,-4.834764,-0.221025,-4.744389,-1.783290
1006.902344,-1.324411,-2.272286,-5.325061,1.483353
1006.906250,6.432702,1.691286,4.616687,-1.652570
1006.910156,3.859507,4.747757,11.998197,5.759251
1006.914062,13.560058,9.702023,2.052147,7.425884
1006.917969,13.478766,4.391085,3.090270,7.585457
1006.921875,11.814420,13.024190,13.481733,10.232188
1006.925781,6.120111,7.234689,12.730023,8.207546
1006.929688,6.747020,4.451232,14.780540,13.254177
1006.933594,9.871847,6.058328,3.966254,11.065571
1006.937500,9.906142,5.006861,1.686856,8.284976
1006.941406,9.083380,1.983337,-3.081221,3.914243
1006.945312,-4.060769,10.952620,8.096935,-2.915534
1006.949219,5.651508,-4.053334,-0.646287,-0.528270
1006.953125,3.805896,-0.615121,5.548644,-1.197028
1006.957031,-1.028182,-4.327903,-10.775356,3.107495
1006.960938,-9.514122,-9.759646,5.162969,-11.346949
1006.964844,-9.560541,-10.361067,-8.961741,-2.702401
1006.968750,-5.176701,-6.587792,-1.873695,-8.184980
1006.972656,-13.630663,-15.847942,-13.605595,-8.435964
1006.976562,-11.592160,-15.486092,-13.179721,-3.291084
1006.980469,-14.280883,-8.362215,-5.810416,-13.230168
1006.984375,-10.689624,-8.589137,-19.489210,-4.209800
1006.988281,-1.471586,-10.211284,-4.908569,3.061556
1006.992188,-9.292291,-3.822270,-7.137483,-4.680007
1006.996094,3.540153,3.567230,-2.682073,-3.623334
1007.000000,-1.986583,2.704045,-3.122662,0.559228
1007.003906,5.761294,3.228583,-2.470854,8.296989
1007.007812,-1.151692,8.802095,5.617717,5.755914
1007.011719,-2.256783,6.653188,7.954184,8.007719
1007.015625,8.093415,3.080924,11.001392,15.005753
1007.019531,13.849166,4.471093,5.568749,18.159863
1007.023438,7.206704,9.359919,17.756717,8.233711
1007.027344,18.717101,5.784664,5.856320,10.037126
1007.031250,5.302846,10.921444,11.934078,6.384957
1007.035156,10.894342,5.769690,-2.106608,9.887046
1007.039062,11.281069,11.585028,15.393121,0.975998
1007.042969,10.018850,10.521656,5.566092,-3.048536
1007.046875,1.463228,6.506470,4.270206,11.462765
1007.050781,-2.677508,9.289436,-1.152709,-1.340617
1007.054688,8.553716,-4.714689,-1.147867,-6.421124
1007.058594,-9.493010,-8.020504,-2.198137,-1.913062
1007.062500,-9.078438,-7.935676,-5.707367,-5.026706
1007.066406,-14.177203,-7.976918,-9.739946,-14.109390
1007.070312,-4.071154,-12.871864,-15.987773,-8.553544
1007.074219,-10.603707,-4.072744,-13.546309,-6.976399
1007.078125,-13.701888,-5.322901,-13.194586,-6.655263
1007.082031,-2.844653,-5.774372,-2.599295,-9.334928
1007.085938,-7.962390,-6.569728,-9.394603,-1.370002
1007.089844,-9.200437,-8.029800,-8.062921,-5.284321
1007.093750,8.587325,-1.782122,-0.909755,-8.990556
1007.097656,-6.893833,-5.021572,2.758240,2.727325
1007.101562,-2.226153,5.427800,-1.057706,-0.540318
1007.105469,5.111232,3.657648,2.350658,6.524593
1007.109375,8.773910,0.972013,9.218202,4.782975
1007.113281,10.530060,10.108099,8.707945,5.682226
1007.117188,9.325594,4.504206,4.505602,4.617207
1007.121094,7.850779,1.572229,8.242953,7.076094
1007.125000,7.128211,12.612184,8.904529,5.563164
1007.128906,9.355055,8.652486,22.109429,12.118903
1007.132812,14.498245,17.593248,14.537016,9.428647
1007.136719,2.851308,7.613700,5.522822,2.053142
1007.140625,5.242976,9.752301,3.419972,3.078392
1007.144531,-2.334153,3.087986,5.588905,2.621697
1007.148438,2.706348,2.301562,0.454701,-5.744515
1007.152344,2.428418,6.126123,-5.167912,-4.715228
1007.156250,-9.458572,0.583522,-13.441320,-2.391228
1007.160156,1.038964,-12.183453,-5.702911,-13.644915
1007.164062,-2.760725,-2.802370,-6.957575,-7.199449
1007.167969,-11.798574,-8.313893,5.052223,-6.906898
1007.171875,-9.405836,-8.052042,-5.426306,-9.455238
1007.175781,-10.123348,-8.181760,-9.375710,-6.184460
1007.179688,-5.944497,-8.815434,-7.643791,-12.516268
1007.183594,-12.212392,-10.202022,-10.208704,-11.103128
1007.187500,-9.121527,-0.825219,-6.434256,-11.054764
1007.191406,-3.336930,-5.129379,-1.579005,-5.373884
1007.195312,5.105909,-3.101971,-0.168750,-3.598500
1007.199219,-1.593860,-9.832231,-4.329557,0.653863
1007.203125,2.846493,4.811914,-7.821760,-1.155391
1007.207031,4.955767,5.972239,5.873317,-2.201221
1007.210938,9.610184,-3.430684,10.430689,4.565679
1007.214844,13.363495,8.095963,10.176011,10.070139
1007.218750,7.632279,9.369436,11.908951,8.019349
1007.222656,3.164434,4.426726,10.830184,3.895771
1007.226562,5.281508,5.324297,12.509440,9.876489
1007.230469,7.652741,8.578523,11.894968,12.368293
1007.234375,11.808700,13.935377,11.135836,12.431324
1007.238281,1.925898,6.552909,9.117730,7.643558
1007.242188,7.218457,2.978342,0.915192,3.638716
1007.246094,-2.775192,-3.033394,0.997729,4.807504
1007.250000,-2.153123,-3.091106,6.363114,-0.109382
1007.253906,-1.325369,-5.239202,6.332146,-2.619424
1007.257812,2.474188,-6.700927,-6.026263,-10.418218
1007.261719,-5.249921,-1.771064,-4.861958,-5.850877
1007.265625,-6.555487,-8.933284,-4.301149,-10.394402
1007.269531,-9.144647,-12.987791,-13.073500,-11.687334
1007.273438,-12.368809,-4.550056,-9.825198,-13.073100
1007.277344,-18.801341,-10.411631,-12.435451,-9.288534
1007.281250,-15.458960,-6.527137,-10.205833,-2.765658
1007.285156,-6.138049,0.150755,-3.153649,-4.954470
1007.289062,-6.715007,-2.301603,-8.790828,-4.941699
1007.292969,-8.309539,-0.852394,1.336949,-8.773057
1007.296875,-4.548283,-6.450282,-8.977372,-0.156491
1007.300781,0.994545,2.514038,-1.772177,2.970573
1007.304688,8.747632,-0.121394,0.579715,4.076300
1007.308594,0.679834,10.960816,4.547976,4.369002
1007.312500,-1.146053,9.060087,7.955149,4.738535
1007.316406,5.829435,-2.818400,9.301215,11.309590
1007.320312,15.727521,10.004633,12.541229,15.758270
1007.324219,8.184378,9.631551,5.424475,10.775875
1007.328125,7.968902,11.827567,13.831096,12.116171
1007.332031,9.310462,5.423514,10.212195,9.559053
1007.335938,8.553758,3.808909,-9.069493,5.673566
1007.339844,0.938003,11.394483,5.775810,1.821834
1007.343750,5.625169,0.977861,12.687749,4.788815
1007.347656,10.203836,6.120003,-4.124263,4.584614
1007.351562,-4.195309,3.836499,1.395615,-2.787581
1007.355469,-3.551901,1.745671,-9.279071,-0.202455
1007.359375,-2.431593,-10.430741,-15.432764,-3.196277
1007.363281,-4.062614,-4.446915,-5.570134,-7.948779
1007.367188,-10.462699,-9.204879,-7.215843,-15.591722
1007.371094,-5.638860,-7.247649,-2.226869,-6.578574
1007.375000,-8.558839,-13.624086,-10.265281,-16.613295
1007.378906,-3.328513,-7.314102,-7.726080,-1.642776
1007.382812,-12.532720,-12.334193,-8.541205,-9.114576
1007.386719,-3.097821,-7.492681,-10.829047,-8.126005
1007.390625,-4.973989,-8.329584,-10.302040,-8.857242
1007.394531,-7.671521,-6.182050,-4.344568,-2.947547
1007.398438,-7.556046,-8.325557,-0.784229,6.589096
1007.402344,5.175359,0.648023,4.699690,-3.464305
1007.406250,7.763218,6.030353,2.917745,7.896243
1007.410156,9.217272,5.531878,4.713744,0.902106
1007.414062,10.577676,14.247612,14.539471,10.637749
1007.417969,10.588689,19.363466,13.938671,8.536973
1007.421875,8.350566,5.412954,4.726827,14.854049
1007.425781,14.005540,7.675789,11.250189,1.512413
1007.429688,1.752084,8.977331,18.272208,10.196845
1007.433594,13.687620,15.971120,11.501168,2.293935
1007.437500,3.255270,2.221493,0.058937,9.135501
1007.441406,2.365961,5.470285,4.611567,9.048086
1007.445312,-3.949578,5.983426,0.941765,4.415810
1007.449219,3.799026,-5.126718,0.309403,-1.968153
1007.453125,-0.764168,-3.848347,-1.181085,0.589576
1007.457031,-4.925713,-3.715582,-2.959596,-9.216553
1007.460938,-12.530181,-9.665183,-5.778682,-2.277665
1007.464844,-9.304407,-9.733680,-7.128574,-12.005400
1007.468750,-14.465958,-15.850967,-8.372971,-9.009366
1007.472656,-16.529392,-14.186232,-8.349720,-12.362627
1007.476562,-7.939925,-7.951588,-8.261438,-10.509889
1007.480469,-13.308559,-8.618308,-8.481389,-3.550929
1007.484375,-9.377446,-12.844028,-9.258846,-14.691313
1007.488281,-7.342351,-11.182560,-14.557963,-8.690877
1007.492188,-1.587163,-11.599350,-3.359945,-1.988295
1007.496094,3.737975,-3.762483,-3.061709,-0.460592
1007.500000,1.446732,-2.433844,-6.315513,2.690157
1007.503906,-1.657593,0.029939,-2.682731,-4.636014
1007.507812,6.449410,6.130734,11.506400,3.048762
1007.511719,10.466441,10.899276,6.563422,4.606209
1007.515625,-1.137464,8.664411,13.042783,11.003078
1007.519531,12.617177,11.991108,9.579021,8.215753
1007.523438,9.307835,7.164603,8.115952,12.672781
1007.527344,8.846527,13.837631,10.982757,10.065308
1007.531250,9.691368,1.582373,2.846663,11.378911
1007.535156,8.893719,-0.554364,13.740812,3.992430
1007.539062,10.577046,8.443245,4.183230,3.465785
1007.542969,4.503601,2.337929,0.638060,-2.082895
1007.546875,4.806902,7.668782,4.888600,1.958119
1007.550781,1.865247,3.182591,2.044557,-2.973250
1007.554688,-2.289325,-5.173455,-4.160713,-4.504580
1007.558594,-4.475276,-3.694781,-2.703373,1.318913
1007.562500,-0.218677,-3.984681,-9.859005,-4.169172
1007.566406,-10.100509,-10.210026,0.510599,-7.293668
1007.570312,-7.858540,-10.959042,-11.301594,-12.140358
1007.574219,-8.302585,-12.649207,-3.032782,-5.191970
1007.578125,-14.730184,-11.629351,-6.494311,-9.822717
1007.582031,-15.126933,-6.816908,-8.066522,-11.206195
1007.585938,-9.867191,-4.134220,-8.557095,-7.291947
1007.589844,-5.513613,-3.484070,0.907086,-14.235559
1007.593750,-2.955085,-2.545438,-4.078066,-4.904233
1007.597656,7.328092,-4.911311,0.260661,-1.670159
1007.601562,3.210314,2.015309,-3.797589,0.848043
1007.605469,5.570510,0.236876,3.173982,2.810017
1007.609375,4.736863,7.418915,0.729436,7.683887
1007.613281,4.583176,3.737687,3.078697,11.964324
1007.617188,10.757149,4.335402,10.286063,15.532263
1007.621094,9.408121,3.428335,6.331749,6.164766
1007.625000,2.823126,7.778632,12.105793,13.429176
1007.628906,19.298517,12.527576,10.833614,16.474112
1007.632812,10.340517,9.367629,9.368939,4.847152
1007.636719,3.285143,10.417349,11.503923,7.828788
1007.640625,4.804860,9.469274,7.901583,8.848885
1007.644531,8.487544,3.672296,6.002441,2.098188
1007.648438,-8.667277,5.196229,0.452842,4.377887
1007.652344,-5.570683,-4.575613,5.271916,-13.917848
1007.656250,-4.717391,-3.420399,-4.502628,-3.990297
1007.660156,-12.511102,-6.346063,-4.823981,-9.406717
1007.664062,-4.929954,-5.607533,-7.874587,-4.773743
1007.667969,-6.403314,-11.424437,-12.225963,-3.298915
1007.671875,-3.212153,-8.634921,-8.061879,-12.108872
1007.675781,-12.467272,-10.133079,-11.384300,-17.430113
1007.679688,-12.747001,-12.323601,-8.710839,-12.676969
1007.683594,-12.620906,-10.744471,-8.670554,-3.129689
1007.687500,0.957490,-5.209862,0.237252,-10.628722
1007.691406,-5.381261,-3.316575,-4.072074,-6.359861
1007.695312,-2.715118,-3.328981,-4.576331,-3.464005
1007.699219,7.691875,-0.290128,0.394126,-3.848997
1007.703125,1.413452,2.925182,4.383808,3.001876
1007.707031,0.205518,9.067863,-5.230772,8.284513
1007.710938,4.953829,8.164976,7.732624,5.383288
1007.714844,6.396335,8.327058,5.574829,7.646235
1007.718750,9.272848,11.487284,4.960289,13.105361
1007.722656,6.755763,5.066708,15.770420,14.579652
1007.726562,14.300085,11.682623,7.291525,7.668569
1007.730469,14.204376,7.880460,5.902839,7.314711
1007.734375,12.910521,9.869672,12.694416,9.312887
1007.738281,9.342795,7.282623,1.756376,5.329163
1007.742188,6.698854,8.037032,4.401767,4.503453
1007.746094,-1.017196,4.027471,5.369712,-3.536992
1007.750000,1.940806,-5.967165,1.562688,-1.606422
1007.753906,-1.965695,-2.769966,-7.451037,-5.632797
1007.757812,-0.662431,-5.264152,-5.014961,-3.621958
1007.761719,-7.104369,-8.651659,-14.025225,-8.028265
1007.765625,-12.398330,-12.799132,-9.891219,-5.081555
1007.769531,-5.076641,-6.816513,-6.042677,-11.418132
1007.773438,-7.616052,-10.051308,-11.898087,-5.467804
1007.777344,-14.136447,-11.261398,-10.414936,-3.575557
1007.781250,-15.675761,-7.681884,-9.769894,-3.629145
1007.785156,-6.775515,-11.666161,-7.791349,-5.249640
1007.789062,-0.883444,-8.934855,-8.404855,-8.409269
1007.792969,-2.481586,-5.056915,-1.083688,-6.157906
1007.796875,-7.416957,-7.064645,0.323304,-2.269008
1007.800781,-0.164121,-0.723319,-0.318821,-6.043945
1007.804688,5.026522,7.604270,-4.008636,1.454961
1007.808594,4.813504,10.802889,3.782082,5.504369
1007.812500,5.734377,5.650359,8.867767,12.125494
1007.816406,11.952368,8.661383,5.372804,10.253231
1007.820312,14.071444,8.605824,11.632504,6.668839
1007.824219,16.293941,5.937658,11.925739,9.895071
1007.828125,13.915934,8.686080,7.853975,10.889802
1007.832031,2.446306,14.730923,5.769156,7.512105
1007.835938,5.631086,7.769645,9.702275,17.867305
1007.839844,5.130625,0.619544,10.822995,5.361489
1007.843750,-1.377339,4.248526,1.455591,3.447672
1007.847656,-1.612703,0.351784,7.320649,3.409203
1007.851562,1.952669,-4.912033,6.508514,-3.482650
1007.855469,-1.070213,4.833902,1.486746,-3.757542
1007.859375,-6.791103,-11.924303,-5.470642,-7.205943
1007.863281,-3.421172,-5.264740,-5.300037,-6.673810
1007.867188,-12.385916,-16.155451,-4.256338,-14.529485
1007.871094,-11.001995,-15.824440,-8.766203,-11.265382
1007.875000,-14.079481,-17.353345,-12.475535,-17.131248
1007.878906,-8.897593,-10.613800,-10.784958,-9.805075
1007.882812,-8.957720,-9.821305,-9.499762,-13.061583
1007.886719,-13.005860,-13.778538,-8.899766,0.957029
1007.890625,-7.674302,-6.781956,-13.393899,-7.708271
1007.894531,-2.920181,0.309404,-8.266191,-1.173790
1007.898438,-1.985323,6.201687,-3.200409,0.728878
1007.902344,-0.188001,2.471395,2.295769,3.715121
1007.906250,2.115315,-4.620434,2.964859,1.928835
1007.910156,10.518949,1.572568,3.113378,8.954845
1007.914062,12.910825,11.575266,0.614971,13.717078
1007.917969,15.892387,3.685154,11.499461,10.657440
1007.921875,11.389180,10.140484,3.539373,8.480465
1007.925781,7.554777,6.445104,10.340081,7.409354
1007.929688,9.416258,10.433413,12.558406,12.638739
1007.933594,9.994294,10.981663,8.516095,12.565097
1007.937500,11.520983,10.527171,6.720570,-1.509752
1007.941406,0.515180,5.670100,0.511297,2.214003
1007.945312,1.360164,1.727260,1.449397,-3.814573
1007.949219,-0.422044,0.998647,-3.634518,-2.103163
1007.953125,3.934713,-1.730165,3.524662,-5.555202
1007.957031,-5.252778,-4.227299,-1.907624,-10.150776
1007.960938,-3.334115,-3.135006,-11.309951,-5.296598
1007.964844,-5.804337,-2.882599,-10.072336,-6.029707
1007.968750,-6.088396,-13.559671,-12.258454,-13.445043
1007.972656,-11.209420,-7.785503,-6.192415,-8.735684
1007.976562,-13.507436,-16.734192,-6.822628,-4.422729
1007.980469,-8.529197,-7.292188,-5.494211,-14.432287
1007.984375,-4.722596,-3.515655,-7.473010,-6.578860
1007.988281,-6.760350,-9.791370,-6.980016,-8.246609
1007.992188,-1.151279,-7.829256,-2.032038,-2.464685
1007.996094,6.147818,-0.818223,-8.362395,-7.636496
1008.000000,1.414623,1.665758,-3.030178,0.994637
1008.003906,6.979519,6.649345,-2.164098,0.314416
1008.007812,5.314820,-1.233102,5.127381,2.838098
1008.011719,4.358590,7.269812,8.525325,8.526885
1008.015625,8.504254,4.647712,9.858521,7.007375
1008.019531,12.525602,12.812099,14.512467,7.167674
1008.023438,9.326474,9.244992,10.485731,7.389085
1008.027344,9.003115,6.300584,10.530537,8.617874
1008.031250,9.214076,18.897491,9.636873,4.524960
1008.035156,4.815765,13.055553,9.414121,12.800359
1008.039062,9.798293,5.872738,0.504898,12.157120
1008.042969,1.887070,2.303767,1.186116,7.894415
1008.046875,5.310604,9.077860,7.344858,-0.795389
1008.050781,7.912506,-0.664490,-0.695502,3.600672
1008.054688,3.803635,-4.533579,-3.033741,-1.557801
1008.058594,6.418270,-5.435397,-2.128054,-6.074983
1008.062500,-7.498454,-5.925187,-4.484776,-5.410405
1008.066406,-9.812331,-1.851501,-6.879167,-10.222557
1008.070312,-7.075093,-2.462946,-10.697070,-0.177510
1008.074219,-3.448746,-4.436771,-11.728585,-6.895132
1008.078125,-13.757352,-7.304007,-14.240517,-10.025921
1008.082031,-8.162228,-6.178461,-6.805592,-10.839073
1008.085938,-6.042689,-10.576859,-5.237744,-3.445959
1008.089844,-5.603902,-2.326610,-5.889607,-5.474644
1008.093750,1.051405,-0.561494,-5.651811,-13.500906
1008.097656,1.985825,-4.579223,4.427178,4.675770
1008.101562,2.357333,-6.875062,0.846042,2.578427
1008.105469,2.971803,-3.427625,2.930288,-0.534311
1008.109375,11.405578,12.542453,10.831136,-1.025953
1008.113281,7.801400,8.136973,6.849834,6.140601
1008.117188,11.903292,10.968981,11.649482,0.750390
1008.121094,11.255350,18.045942,13.651540,14.683385
1008.125000,7.974614,11.198074,1.216785,3.683320
1008.128906,9.961193,3.866200,11.453565,13.940196
1008.132812,9.629751,8.532057,3.464319,8.549364
1008.136719,14.002777,2.706675,11.478696,3.075395
1008.140625,5.387464,7.202379,6.647207,6.060630
1008.144531,7.313983,10.973647,-0.629649,1.908604
1008.148438,-8.870398,9.827301,-1.549304,6.304813
1008.152344,-2.308301,1.888532,5.895246,-3.593906
1008.156250,3.940201,-1.543457,-9.712413,-2.732081
1008.160156,-8.680178,-9.404574,-6.700151,-5.311637
1008.164062,-12.562219,-3.877067,-3.216360,-4.458496
1008.167969,-4.016191,-17.611724,-8.165449,-10.630179
1008.171875,-8.037405,-14.037552,-11.192851,-9.769466
1008.175781,-7.933339,-10.420707,-11.192791,-8.216676
1008.179688,-6.468739,-9.391705,-12.393948,-5.904815
1008.183594,-10.545824,-9.316524,-11.778142,-3.667817
1008.187500,-5.174989,-12.393971,-5.734742,-7.489095
1008.191406,-5.592741,-2.409038,-9.899704,-5.867947
1008.195312,1.005986,-10.972930,-1.848885,2.122167
1008.199219,-0.091405,-4.239228,-0.971061,-3.728217
1008.203125,1.866845,2.983943,-2.067095,1.312174
1008.207031,-3.972419,-2.011035,8.392768,3.878072
1008.210938,14.897248,12.531946,8.789330,5.998041
1008.214844,6.213009,11.602419,8.832996,4.825817
1008.218750,6.090466,14.165717,4.346434,16.586796
1008.222656,13.722591,11.127327,15.100509,15.577943
1008.226562,12.251735,11.352919,10.566555,10.176302
1008.230469,13.728054,7.846993,4.821720,12.833050
1008.234375,15.842605,12.052747,9.839114,18.974669
1008.238281,9.310366,3.004591,4.982917,16.266506
1008.242188,9.214690,2.365776,0.338669,4.254666
1008.246094,5.679579,6.910172,-0.335799,4.092100
1008.250000,-5.486445,-0.899231,1.188035,-4.663222
1008.253906,4.976265,0.233630,-2.361680,-2.544431
1008.257812,-7.502020,-3.390683,-5.683247,-3.468020
1008.261719,-1.341827,-2.811584,-4.327687,-12.811703
1008.265625,-6.852877,-6.849484,-10.460005,-8.825924
1008.269531,-2.154741,-5.096199,-11.965156,-16.405582
1008.273438,-10.003665,-8.181943,-12.338892,-9.070048
1008.277344,-7.616067,-6.011516,-5.633989,-6.886980
1008.281250,-10.896597,-13.634740,-8.679835,-2.864593
1008.285156,-7.852791,-6.991901,-9.191854,-8.404289
1008.289062,-10.644595,-3.284824,-2.215805,-6.606578
1008.292969,-8.318199,-4.381832,-4.124410,-0.729217
1008.296875,-1.898556,-6.943500,-2.504980,-2.401995
1008.300781,-1.228771,3.868578,1.123324,-5.211641
1008.304688,5.522137,8.965037,4.516690,1.071272
1008.308594,4.441300,2.277169,9.752441,5.122134
1008.312500,6.171395,10.090139,8.039278,7.794514
1008.316406,9.471241,11.034906,11.568742,5.171416
1008.320312,8.907369,6.973480,13.163116,9.057726
1008.324219,13.022607,6.456820,10.077025,6.741907
1008.328125,6.173197,14.938529,7.669392,16.263591
1008.332031,0.620687,13.550391,11.819592,6.412062
1008.335938,11.076419,12.120444,1.391562,13.075083
1008.339844,8.461378,2.690980,10.832924,12.343064
1008.343750,6.832488,6.801596,-1.450116,3.858526
1008.347656,0.179324,-7.724032,0.323036,4.692373
1008.351562,-2.745984,-1.292083,-4.358404,0.719332
1008.355469,-1.232275,-11.268226,-8.233099,-5.859333
1008.359375,-8.816666,-0.382803,-5.573592,-2.753771
1008.363281,-8.037316,-2.730283,-9.283356,-9.462552
1008.367188,-5.813591,-9.055839,-9.772527,-2.616034
1008.371094,-7.516827,-9.629672,-7.021305,-16.668220
1008.375000,-10.001118,-8.307901,-10.128474,-17.772741
1008.378906,-15.415069,-9.062809,-12.495533,-9.853634
1008.382812,-12.222464,-8.249858,-1.073750,-6.810337
1008.386719,-15.054157,-13.577146,3.836876,-8.715621
1008.390625,-3.292386,-1.553228,-4.483592,3.806991
1008.394531,-0.445652,0.519918,-5.292047,-2.667585
1008.398438,-3.574416,-5.306698,0.150282,-5.442410
1008.402344,3.741277,-3.506048,-0.493105,3.858205
1008.406250,1.896146,3.789083,0.554529,3.386259
1008.410156,7.781456,7.929097,3.112469,8.616065
1008.414062,14.717973,7.256016,4.529728,10.353641
1008.417969,4.917906,14.127878,5.130091,21.469207
1008.421875,18.098288,13.872115,8.119587,5.455102
1008.425781,8.589286,10.721533,12.932580,5.124917
1008.429688,8.806325,9.992744,11.183606,8.275620
1008.433594,10.618855,7.867759,7.707850,2.104685
1008.437500,9.635161,0.727584,6.577482,9.212834
1008.441406,-0.134982,1.456538,8.024452,0.273342
1008.445312,0.071761,4.170930,5.518934,4.023885
1008.449219,6.759155,-5.428886,-0.768124,-1.264188
1008.453125,3.377668,-2.920900,1.672830,2.082295
1008.457031,-1.546286,1.894462,-3.824616,-6.901173
1008.460938,-10.501304,-3.149206,-0.224737,-3.092496
1008.464844,-16.024867,-6.054134,-14.285146,-11.475709
1008.468750,-12.144196,-6.615340,-8.572857,-8.681234
1008.472656,-11.010102,-4.903188,-10.408476,-14.950559
1008.476562,-13.632333,-9.325696,-10.506899,-15.071687
1008.480469,-6.758146,-4.090400,-12.199518,-8.094167
1008.484375,-6.526529,-4.595675,-5.060113,-7.835876
1008.488281,-7.755806,-3.297362,-7.277790,-6.140144
1008.492188,-8.060484,-10.512846,-1.896548,-11.590521
1008.496094,-2.765265,-0.832260,9.196163,1.849953
1008.500000,-2.947759,4.247120,0.184579,-2.454007
1008.503906,-0.145990,-2.925940,5.112969,1.709761
1008.507812,9.909873,4.702605,3.066401,7.394374
1008.511719,-4.380800,6.088183,7.884829,17.242701
1008.515625,9.235792,-3.553894,13.374420,5.957303
1008.519531,8.633833,10.967391,5.488413,12.256200
1008.523438,5.807433,13.048574,13.631414,15.084274
1008.527344,1.110224,6.773237,19.070531,8.880775
1008.531250,13.536980,3.271993,4.609065,18.570176
1008.535156,8.457500,14.728711,5.090330,13.259868
1008.539062,4.578081,9.746383,4.488974,7.266826
1008.542969,4.694515,8.699334,0.091751,-0.253015
1008.546875,-0.372124,0.504569,-5.639271,-4.156719
1008.550781,-3.112884,2.853609,1.179022,-3.452148
1008.554688,-4.260473,-0.137655,-4.669100,0.399007
1008.558594,-10.386054,-9.380980,-9.025966,-6.075464
1008.562500,-10.989826,-9.400197,-3.828065,-15.372573
1008.566406,-9.277799,-4.692277,-7.131131,-3.110865
1008.570312,-8.206582,-11.274654,-11.351855,-5.250220
1008.574219,-4.046513,-11.129344,-16.777827,-8.517546
1008.578125,-5.814067,-7.826306,-6.193014,-10.370872
1008.582031,-6.197145,-7.304813,-0.800174,-8.411828
1008.585938,-10.246793,-8.208315,-5.825249,-7.183348
1008.589844,-4.082844,-2.326320,0.411027,-12.565982
1008.593750,-8.937754,-5.152066,-3.387284,-6.788714
1008.597656,5.272966,0.462353,0.663546,3.602808
1008.601562,-4.259871,6.176505,-5.164927,-8.541436
1008.605469,9.911026,-0.423355,7.034154,7.775853
1008.609375,6.412267,8.948346,4.812969,1.645605
1008.613281,3.940569,2.700758,7.680240,5.942735
1008.617188,4.470327,14.583822,6.460252,2.829783
1008.621094,6.561717,-0.656146,14.809383,6.851283
1008.625000,7.866770,9.530066,7.662448,10.107199
1008.628906,8.844186,7.687872,5.493366,8.209475
1008.632812,17.735880,10.417668,10.669709,10.644445
1008.636719,5.873953,0.995977,3.112257,-2.766237
1008.640625,13.260143,6.089380,3.621963,9.576879
1008.644531,-2.952035,-0.553781,2.468789,6.383006
1008.648438,-2.898792,0.261801,-3.875257,1.108844
1008.652344,-3.301281,-5.807723,-5.513448,2.380070
1008.656250,0.100408,-7.142078,-3.669151,-1.548110
1008.660156,-7.896063,-12.976282,-4.348159,-6.730793
1008.664062,-12.089702,-5.000196,-5.803569,-12.664813
1008.667969,-8.809780,-6.737988,-12.629396,-14.845251
1008.671875,-14.163970,-7.065958,-10.634939,-6.176980
1008.675781,-10.034548,-13.197227,-14.208505,-7.028375
1008.679688,-9.050904,-6.526405,-9.366416,-15.243138
1008.683594,-14.261365,-3.102000,-7.378944,-11.502284
1008.687500,-1.122349,-11.284428,-12.862907,-4.962064
1008.691406,-0.931283,-0.981058,-1.953705,-9.830619
1008.695312,-1.222169,-1.386946,-3.781564,-2.994295
1008.699219,4.846648,-2.401492,-4.535128,3.268375
1008.703125,0.630382,1.532523,-4.687753,3.084026
1008.707031,2.598948,1.520899,4.406812,5.065189
1008.710938,9.177915,5.766727,8.589981,8.938996
1008.714844,10.623303,1.960202,7.117664,12.030920
1008.718750,11.016128,12.609061,9.713533,13.772016
1008.722656,4.773914,13.567434,7.469145,13.721152
1008.726562,10.285400,10.679943,10.076661,13.249764
1008.730469,14.649802,4.301525,8.451975,8.217048
1008.734375,3.419320,8.064078,19.196069,13.015094
1008.738281,5.028329,5.183738,7.835417,3.451615
1008.742188,9.770696,3.633747,5.365116,5.940410
1008.746094,1.373806,5.524455,8.219914,0.706492
1008.750000,-15.947800,-1.174774,-2.363212,4.029918
1008.753906,1.646349,-4.290110,-11.823150,-3.144290
1008.757812,1.963486,-6.188924,-5.494743,-6.853126
1008.761719,-11.683784,-1.009084,-8.919987,-2.179145
1008.765625,-9.580548,-15.430541,-8.413191,-12.861547
1008.769531,-14.224955,-15.369490,-11.441585,-7.505473
1008.773438,-9.334030,-8.916549,-5.445596,-9.431367
1008.777344,-15.027909,-18.109864,-20.132044,-4.692069
1008.781250,-9.914696,-10.518746,-6.455329,-8.786161
1008.785156,-4.770292,-9.093981,-8.254888,-2.313151
1008.789062,-0.883851,4.953839,-4.172363,0.464001
1008.792969,-5.296825,-5.532938,-4.195783,-4.529701
1008.796875,-5.110186,-2.909998,-4.623717,2.838096
1008.800781,7.154877,5.689389,2.716926,-7.494380
1008.804688,4.770844,5.307430,-0.338150,-2.949094
1008.808594,0.055920,6.956698,-1.206427,7.386164
1008.812500,5.095327,8.851589,1.926950,12.197090
1008.816406,1.520306,7.281547,9.208211,5.595102
1008.820312,6.625419,12.092929,14.880000,15.540763
1008.824219,11.315607,9.065829,10.318974,1.038242
1008.828125,9.709980,9.586304,12.603344,9.203058
1008.832031,7.993454,11.388891,6.249533,12.018092
1008.835938,3.456555,4.658068,10.234218,1.871501
1008.839844,5.755076,-0.859046,5.343058,11.791988
1008.843750,4.739311,-0.440125,3.133700,3.225286
1008.847656,-1.660930,-1.766306,-2.155255,4.345839
1008.851562,-3.170218,-0.280449,1.658173,-7.189994
1008.855469,-6.991063,-0.498972,-3.021785,-1.585794
1008.859375,-5.032968,-6.489491,-9.270595,-1.815032
1008.863281,-7.875861,-7.949986,-5.312032,-11.113669
1008.867188,-6.172143,-10.822880,-11.740901,-4.319489
1008.871094,-10.176429,-8.555395,-7.165710,-10.083833
1008.875000,-8.647987,-6.722239,-2.537881,-11.409670
1008.878906,-2.520899,-8.508153,-14.280999,-11.007750
1008.882812,1.602678,-9.632694,-13.515589,-10.066674
1008.886719,-9.007915,-2.736502,-11.324413,-3.916725
1008.890625,-2.898617,-8.117022,-3.244351,-1.415896
1008.894531,-1.317688,-0.956518,-7.751510,-10.950856
1008.898438,-0.809182,0.279987,5.163985,-1.653667
1008.902344,-1.192031,-0.066431,-3.009385,8.334800
1008.906250,3.314660,7.117429,5.983816,7.908530
1008.910156,8.092678,5.071608,7.818846,4.236171
1008.914062,4.400816,7.681351,8.399864,9.776201
1008.917969,13.430279,2.677465,10.524441,10.275468
1008.921875,8.366404,8.267290,6.443978,6.411617
1008.925781,13.511831,2.716245,12.078693,12.012326
1008.929688,9.525049,5.480291,10.993291,16.182704
1008.933594,5.626916,4.833222,9.194111,12.045877
1008.937500,1.578054,11.915252,8.319951,10.166720
1008.941406,6.434019,7.971810,5.596479,11.073800
1008.945312,1.187252,4.431020,4.436706,9.508740
1008.949219,0.339953,2.345735,1.743584,-0.497350
1008.953125,2.895895,-4.949612,-3.915980,3.678536
1008.957031,-6.265323,-7.488472,-7.594250,0.269643
1008.960938,-3.530145,-3.316596,-2.005084,-9.215964
1008.964844,-7.222574,-6.131840,-7.769316,-7.295870
1008.968750,-9.735997,-11.164524,-14.600880,-3.317324
1008.972656,-12.756454,-13.064261,-13.993035,-5.562866
1008.976562,-13.642035,-10.733863,-13.652628,-5.930169
1008.980469,-8.731175,-4.112837,-9.804981,-16.691537
1008.984375,-9.278163,-13.404245,-5.996922,-9.937770
1008.988281,-12.224905,-0.306057,-10.744297,-2.915837
1008.992188,-1.304018,-12.366550,-0.491553,-0.004331
1008.996094,-6.565925,-7.160026,-1.401136,-0.192872
1009.000000,6.222334,4.861754,-6.616329,-1.287355
1009.003906,-0.060348,5.143080,2.282534,3.614080
1009.007812,1.125398,9.903122,1.113403,7.187802
1009.011719,8.104343,-1.297544,6.966383,3.941321
1009.015625,-0.531307,10.152986,10.601773,13.519387
1009.019531,2.439883,10.408787,9.826847,8.237019
1009.023438,3.275838,10.097947,13.616744,16.940444
1009.027344,20.223247,10.452783,5.442626,9.693247
1009.031250,14.353656,1.465005,11.623325,10.373556
1009.035156,2.885265,2.231698,4.584201,6.121654
1009.039062,6.506370,10.157734,2.578095,10.362475
1009.042969,11.773921,6.756479,8.934308,0.295815
1009.046875,5.215261,0.116410,6.962659,2.768737
1009.050781,-1.422314,-2.429153,2.940146,-4.153493
1009.054688,-6.004980,-4.263021,-9.743837,0.279258
1009.058594,-6.192036,-9.277633,-6.452752,-0.652778
1009.062500,-7.960499,-1.650882,-12.018847,-5.654318
1009.066406,-12.974675,-5.385677,-8.247696,-4.819076
1009.070312,-11.926415,-7.981062,-14.984503,-5.418947
1009.074219,-6.003429,-10.919960,-7.999305,-12.090174
1009.078125,-9.839832,-14.967959,-6.797723,-11.201120
1009.082031,-9.419408,-8.943648,-12.423178,-12.562874
1009.085938,-11.558954,-13.292174,-5.669795,-15.738265
1009.089844,1.350632,-6.178131,-10.163773,-12.239765
1009.093750,-0.125335,-6.359069,-7.438727,2.599932
1009.097656,-1.014565,4.152340,0.621761,0.447535
1009.101562,-1.967339,-5.452081,5.176222,-0.807398
1009.105469,6.343417,0.999550,3.062509,-1.357353
1009.109375,4.717042,4.579536,3.538642,6.503516
1009.113281,16.126243,1.465849,11.788056,3.492700
1009.117188,4.416536,2.967536,7.905651,7.986801
1009.121094,5.932800,15.740413,5.214308,4.884026
1009.125000,15.907583,11.876113,12.248194,9.237981
1009.128906,10.987985,10.141648,8.089997,8.843056
1009.132812,13.170165,-0.020020,14.483134,10.167615
1009.136719,0.203846,0.573110,16.761161,8.497744
1009.140625,8.604728,0.142693,8.816688,1.696177
1009.144531,4.328771,1.708285,7.920445,2.373920
1009.148438,6.907129,-3.056045,-1.344097,-3.778166
1009.152344,3.323291,-3.497866,-5.420829,2.358967
1009.156250,-2.700101,1.729797,-4.041978,-4.056398
1009.160156,4.797577,-5.784649,-4.798813,-1.341722
1009.164062,-2.955333,-5.982354,-5.721787,-5.428704
1009.167969,-15.607863,-8.531192,-11.500797,-6.243807
1009.171875,-4.277844,-5.010595,-4.823803,-7.497282
1009.175781,-5.143491,-8.469756,-8.321680,-12.458965
1009.179688,-13.398284,-8.476447,-12.152907,-10.437503
1009.183594,-0.276171,-9.113559,-7.751725,-4.362567
1009.187500,-0.026333,-1.252061,-3.831372,-11.297700
