timestamp,TP9,AF7,AF8,TP10
1000.000000,-6.078187,2.839100,-4.503556,1.187193
1000.003906,2.442804,0.778891,-2.181412,4.124977
1000.007812,9.390043,5.558015,1.071083,3.522771
1000.011719,8.155307,12.331072,6.290035,4.646609
1000.015625,13.966721,7.790950,14.567615,9.443535
1000.019531,10.230040,15.928852,9.336826,4.388868
1000.023438,5.894979,20.751940,13.248676,14.008981
1000.027344,4.055429,12.263158,9.578324,9.059402
1000.031250,15.272175,4.483279,6.316965,12.802402
1000.035156,5.583338,8.635629,9.598473,6.830484
1000.039062,4.073479,8.004916,12.677952,6.006346
1000.042969,2.482762,-0.086278,6.821991,-1.624101
1000.046875,-0.621947,0.787640,8.246030,5.346741
1000.050781,-0.664415,-5.434172,3.888295,-2.525369
1000.054688,-3.033649,-10.549696,-2.170165,-4.953713
1000.058594,-3.124378,-10.242120,-3.766709,-8.370408
1000.062500,-3.933686,-6.259673,-9.775024,-4.846232
1000.066406,-7.102735,-4.754704,-9.203949,-2.069311
1000.070312,-12.058241,-10.839645,-19.579635,-15.983644
1000.074219,-7.955624,-4.113205,-9.711754,-10.145256
1000.078125,-7.278272,-8.729960,-8.405178,-5.094870
1000.082031,-7.989509,-7.692600,-10.112448,-10.560333
1000.085938,-4.642288,-12.328851,-8.134310,-5.541311
1000.089844,-4.688656,-6.771250,-7.770111,-9.224344
1000.093750,-0.342042,-5.955508,-10.012945,-4.745811
1000.097656,-1.690855,-7.431189,1.367565,-2.356127
1000.101562,-0.834463,-1.258393,1.869767,2.915762
1000.105469,2.264162,4.411909,6.619325,4.767673
1000.109375,8.165261,4.778181,2.539952,-1.612883
1000.113281,6.647131,12.609803,2.427744,3.392726
1000.117188,13.330468,9.622700,8.171622,9.930892
1000.121094,12.353857,6.700032,1.500993,6.289725
1000.125000,9.756742,9.092689,14.556353,9.996614
1000.128906,6.456723,5.976773,6.871509,12.968636
1000.132812,14.422349,12.499641,7.282808,6.285591
1000.136719,5.814496,4.021084,4.278672,4.123173
1000.140625,7.652457,12.419583,12.122416,8.737492
1000.144531,1.664087,10.675658,3.291641,6.474130
1000.148438,4.957126,-6.938204,1.094088,5.845193
1000.152344,-0.051633,-3.576738,4.594001,1.459896
1000.156250,-2.677655,0.083708,-8.178504,-6.489125
1000.160156,-7.157871,-0.899348,-5.714803,-7.893274
1000.164062,-16.772763,-13.632885,-3.681498,-5.895180
1000.167969,-14.114616,-10.729178,-6.266981,-2.875727
1000.171875,-8.245805,-8.648030,-6.216584,-2.648982
1000.175781,-4.295837,-14.054461,-12.935026,-11.772881
1000.179688,-12.177067,-11.357660,-15.101806,-10.051991
1000.183594,-4.209663,-7.380265,-8.788612,-13.174445
1000.187500,-19.215753,-8.837807,-1.664350,-12.199124
1000.191406,-9.906168,-7.461808,-2.393351,-2.749555
1000.195312,-10.528450,-5.174845,-7.380637,-1.232135
1000.199219,-0.524044,-4.670238,2.803271,-1.239581
1000.203125,4.742210,-3.603399,-0.088004,-1.022452
1000.207031,2.269491,9.358103,9.510631,10.797587
1000.210938,8.966909,11.681346,11.215885,4.169661
1000.214844,7.050384,6.597418,5.729530,8.565349
1000.218750,7.164970,2.188314,14.061987,7.425346
1000.222656,9.744025,9.900492,9.581819,7.073603
1000.226562,6.526709,15.954873,0.257474,15.924075
1000.230469,7.413788,4.447241,6.970403,9.559165
1000.234375,7.774963,8.115059,9.401099,10.555730
1000.238281,3.920345,7.885711,12.419614,5.442167
1000.242188,6.889740,6.521092,3.944123,4.827424
1000.246094,4.907614,4.237140,2.134282,-0.897910
1000.250000,1.615784,1.675074,1.528862,2.826922
1000.253906,1.759238,-5.896052,-5.907042,-1.793209
1000.257812,-4.044746,-5.457179,-3.435012,-3.491144
1000.261719,-5.262729,-6.745289,-11.919461,-4.389500
1000.265625,-8.623368,-4.026925,-9.094088,-0.814879
1000.269531,-18.175737,-8.879682,-5.095676,-15.475965
1000.273438,-13.984646,-13.310210,-11.914814,-8.541938
1000.277344,-15.945517,-3.060683,-7.738381,-13.370318
1000.281250,-9.381878,-12.377918,-11.224579,-9.329119
1000.285156,-3.935731,-12.573239,-11.944522,-3.190358
1000.289062,-9.395852,-6.494102,-3.578826,-8.776880
1000.292969,-1.065467,-9.384253,-5.287535,-0.450812
1000.296875,-3.501310,-1.825005,-5.339657,-1.326472
1000.300781,1.380863,-0.200089,4.329966,0.360703
1000.304688,4.198139,2.789018,-0.181752,3.715605
1000.308594,5.886597,5.506350,6.835611,3.180488
1000.312500,0.025799,7.982626,8.896162,11.470408
1000.316406,11.914791,11.152263,13.365392,8.875900
1000.320312,8.114266,8.845292,8.227209,12.839906
1000.324219,12.466952,8.772263,19.441095,20.183932
1000.328125,14.704363,14.461280,6.518555,-1.048894
1000.332031,9.663763,15.963628,10.121417,16.291834
1000.335938,10.835638,3.755639,3.618700,8.048638
1000.339844,3.019214,7.769791,8.712697,2.425959
1000.343750,2.318208,8.047889,1.335328,-1.472374
1000.347656,7.551714,-0.680446,-4.288733,-3.781096
1000.351562,-7.659277,1.531029,7.943490,-3.316374
1000.355469,-5.793898,-2.091795,-2.721020,-5.342870
1000.359375,-11.557245,0.181322,-6.449651,-9.448840
1000.363281,-8.518501,-3.285726,-8.776928,-15.738037
1000.367188,-4.523899,-13.572143,-4.605446,-11.850284
1000.371094,-15.867392,-15.442880,-13.058477,-14.121400
1000.375000,-10.682255,-9.970077,-10.094325,-10.669634
1000.378906,-10.707202,-11.451143,-9.334655,-16.402218
1000.382812,-1.327956,-10.602231,-6.927346,-9.970338
1000.386719,-5.774890,-10.255135,-14.480508,-3.099009
1000.390625,-3.666002,-8.458896,-2.812058,-5.203600
1000.394531,-3.575391,2.865389,-6.514472,-6.896919
1000.398438,-1.352237,-1.575061,0.307583,4.093622
1000.402344,1.937983,-0.344308,-0.350100,4.345061
1000.406250,8.361582,-0.194168,-1.758652,-4.256995
1000.410156,8.535492,3.294908,4.632582,6.707869
1000.414062,3.673309,6.671396,11.303656,9.328256
1000.417969,8.895397,13.753759,9.422918,1.755781
1000.421875,9.807218,6.767837,10.266869,9.206294
1000.425781,10.900521,10.573760,10.586717,11.337373
1000.429688,8.002634,8.427606,9.310129,4.804012
1000.433594,7.030465,12.132378,9.089577,9.403090
1000.437500,4.504842,7.269247,-2.441313,7.736509
1000.441406,5.510672,4.157463,-3.614932,6.596516
1000.445312,0.743342,-1.516464,-0.136860,1.873229
1000.449219,5.083304,7.332000,1.881254,13.335680
1000.453125,-5.092814,-1.397802,-3.649360,7.088237
1000.457031,-1.559961,-6.210575,-4.227095,-7.167436
1000.460938,-7.941678,-9.917915,-5.006652,-5.980244
1000.464844,-8.125981,-13.189153,-11.548215,-14.920658
1000.468750,-3.489676,-16.647711,-14.572283,-8.229570
1000.472656,-6.486576,-10.060304,-14.514272,-9.743067
1000.476562,-12.607233,-7.460746,-12.163138,-6.999884
1000.480469,-8.713637,-7.095588,-8.759848,-13.144715
1000.484375,-5.621738,-2.656317,-5.009284,-11.628919
1000.488281,-6.228993,-5.394273,-7.706338,-5.387439
1000.492188,-11.255762,-5.986088,5.649162,-9.986860
1000.496094,-1.463231,1.945118,1.943815,-0.459319
1000.500000,1.591016,1.881162,2.349825,4.123453
1000.503906,2.819360,2.801026,4.845066,5.198075
1000.507812,8.176985,8.238193,-0.070634,8.700891
1000.511719,4.806541,9.215459,6.565272,9.490084
1000.515625,6.821235,9.314850,7.476761,7.866274
1000.519531,11.911801,7.005033,10.223468,11.718594
1000.523438,-0.975207,12.045175,8.456362,14.832604
1000.527344,14.504858,12.032650,9.465920,2.538720
1000.531250,13.734694,10.429047,8.259627,-0.194588
1000.535156,5.872052,9.570919,9.298931,12.141179
1000.539062,6.791719,8.087588,4.721169,3.337046
1000.542969,2.454793,2.147379,6.213693,5.725133
1000.546875,1.334187,-1.423100,-0.462807,4.529707
1000.550781,-0.959880,2.670870,-1.170383,-4.553241
1000.554688,-4.702401,-8.345093,-3.932319,-10.638120
1000.558594,-8.298252,-5.070472,-4.876642,-6.752889
1000.562500,-6.552831,-0.813966,0.008875,-8.239563
1000.566406,-10.801049,-12.152155,-13.914780,-3.002552
1000.570312,-15.143860,-9.139173,-14.503412,-11.092490
1000.574219,-12.667581,-16.648764,-8.871875,-13.018824
1000.578125,-8.362147,-14.780899,-4.256075,-9.853388
1000.582031,-8.427246,-2.941155,-13.071755,-10.033588
1000.585938,-6.952844,-7.709217,-8.532599,-1.730201
1000.589844,-13.775631,-5.182696,-6.637219,-3.926882
1000.593750,-6.804280,0.291740,-5.399039,-4.509347
1000.597656,-1.466432,-8.037057,-2.038950,-0.454162
1000.601562,11.563171,0.505452,5.709090,-5.014386
1000.605469,4.837981,0.816296,2.081074,1.356685
1000.609375,9.507536,4.577622,3.560092,7.180320
1000.613281,1.008886,-0.207601,15.361655,8.186536
1000.617188,11.217990,4.483751,13.634899,10.212396
1000.621094,15.593164,17.246842,8.622652,6.033915
1000.625000,2.088442,5.212703,10.538924,4.701102
1000.628906,6.290058,9.342671,7.343772,9.093800
1000.632812,13.099593,8.014066,12.455328,11.577532
1000.636719,6.320020,10.543690,6.217225,4.560057
1000.640625,10.135284,12.519532,-0.022222,1.058463
1000.644531,-2.419180,3.376304,4.732744,3.646791
1000.648438,0.012266,7.859611,-4.313869,3.986497
1000.652344,-8.089554,-0.601266,-6.026364,0.032703
1000.656250,-5.434245,-3.489487,-4.423262,-5.090056
1000.660156,-11.483536,-3.925742,-8.861052,4.663551
1000.664062,-14.866888,-12.363690,-5.860464,-3.269361
1000.667969,3.118034,-12.843088,-4.698523,-19.297273
1000.671875,-9.988697,-7.346244,-9.480678,-5.410872
1000.675781,-14.415568,-12.736663,-2.073393,-6.321946
1000.679688,-16.875531,-16.562651,-5.266054,-5.205488
1000.683594,-4.153671,-9.807714,-5.226872,-11.232062
1000.687500,-2.688386,-13.273873,-10.166746,-12.909993
1000.691406,-8.233441,-6.418600,-4.657628,4.699455
1000.695312,-3.710663,2.852705,-5.146128,-7.828492
1000.699219,1.405300,5.118771,-3.505346,0.180296
1000.703125,0.393629,1.086978,0.670407,2.188663
1000.707031,1.160306,7.804129,4.943049,-1.393544
1000.710938,7.760879,9.777441,12.788647,10.043388
1000.714844,13.317623,12.659322,11.942176,9.433297
1000.718750,7.814475,14.747640,13.681876,15.722518
1000.722656,11.789164,13.571881,11.703969,7.982941
1000.726562,8.121612,12.582267,8.778546,7.970198
1000.730469,7.989050,6.509648,9.264620,17.161344
1000.734375,5.632000,3.284570,13.494068,4.880132
1000.738281,9.900344,11.362991,8.958825,3.443143
1000.742188,5.964575,5.851013,1.011289,-2.554638
1000.746094,0.575131,11.770687,1.927434,1.460414
1000.750000,-0.471835,-2.883119,2.012114,-0.953488
1000.753906,-4.358234,0.395947,-0.539269,-7.137419
1000.757812,-11.441786,-7.934136,-5.301164,-2.722397
1000.761719,-12.356256,-6.535499,-11.385597,-7.476724
1000.765625,-8.268514,-10.217966,3.518983,-13.916914
1000.769531,-6.488599,-5.762022,-8.758902,-10.598657
1000.773438,-11.829451,-10.779603,-14.985000,-3.559933
1000.777344,-12.033214,-12.032838,-8.500882,-15.689409
1000.781250,-13.028957,-9.082326,-11.843846,-6.383555
1000.785156,-15.069829,-2.529595,-8.665845,-15.417186
1000.789062,-13.363874,-9.008075,-10.293633,-5.422000
1000.792969,-10.164255,2.203746,-8.893242,-1.802844
1000.796875,-6.464895,-0.980701,-3.679875,-2.147871
1000.800781,2.569494,0.555337,9.904608,3.139394
1000.804688,9.448548,3.891856,-2.529046,0.763529
1000.808594,-1.909122,-2.920505,2.701398,2.153322
1000.812500,2.354831,5.119259,6.634273,10.998556
1000.816406,12.696078,7.713839,17.394931,1.630040
1000.820312,14.824700,12.950253,12.354414,12.572571
1000.824219,12.721270,7.773959,10.446442,18.611822
1000.828125,12.605341,12.709022,14.563439,10.618887
1000.832031,17.059975,11.325676,11.153101,5.694395
1000.835938,8.571853,0.755480,10.174472,7.913201
1000.839844,10.737055,5.503519,7.807952,3.454993
1000.843750,7.154100,3.159334,1.451063,5.740090
1000.847656,2.843493,4.976427,0.339123,2.685661
1000.851562,-5.074502,-0.337814,0.941466,-3.746106
1000.855469,-1.415522,-2.967785,0.694908,-3.749174
1000.859375,-5.801106,-2.253626,-4.715194,-6.036178
1000.863281,4.404861,-9.327873,-10.375055,-6.923371
1000.867188,-8.088127,-9.521877,-3.269634,-7.132065
1000.871094,-15.751668,-7.027574,-3.643937,-8.672813
1000.875000,-9.972613,-12.696619,-13.984463,-3.204125
1000.878906,-11.771998,-9.917769,-3.179467,-9.667878
1000.882812,-7.358615,-8.318666,-11.540048,-3.451956
1000.886719,-8.418461,-4.763427,-9.813425,-0.065312
1000.890625,-8.537329,-10.832525,-4.723742,-4.411049
1000.894531,-4.582912,-2.784352,-2.582001,4.248265
1000.898438,-8.007323,-1.626475,0.415993,-4.236009
1000.902344,7.313704,-5.559189,9.904774,-3.422976
1000.906250,-0.072915,0.597251,5.341518,5.655836
1000.910156,3.043809,1.817058,-3.605964,1.239103
1000.914062,8.475571,5.932062,6.555561,4.865254
1000.917969,12.724374,4.708813,5.720776,8.125907
1000.921875,13.119298,11.638003,9.504771,10.545650
1000.925781,14.563069,7.712118,8.302837,18.093087
1000.929688,17.123599,13.420825,11.466703,16.959537
1000.933594,11.869919,5.685819,2.394643,13.165360
1000.937500,10.023202,10.978721,6.933753,6.295808
1000.941406,11.191412,11.633637,7.269119,11.457440
1000.945312,8.272905,-0.418694,2.244734,-1.692086
1000.949219,-2.526677,0.133169,3.976316,2.127148
1000.953125,0.975009,-2.569548,1.081372,-2.095045
1000.957031,-6.523775,-4.363831,-1.807517,-4.237567
1000.960938,-6.862414,-18.982161,-0.701426,-8.788711
1000.964844,-4.437618,-18.424134,-7.469626,-4.652558
1000.968750,-5.222438,-1.745655,-8.248594,-13.335728
1000.972656,-6.154934,-4.550447,-10.806250,-3.867248
1000.976562,-11.167829,-7.809935,-10.549942,-3.249240
1000.980469,-11.428017,-12.687646,-5.824196,-8.877199
1000.984375,-10.702836,-6.625563,-9.344821,-7.732366
1000.988281,-11.677556,-4.671292,-6.640858,-9.026558
1000.992188,-6.518554,2.563749,-9.699559,-8.660499
1000.996094,-9.007364,-3.797544,-1.345405,-6.014588
1001.000000,-7.548774,5.057657,2.411221,-4.523317
1001.003906,-0.930550,3.319969,-2.692380,2.465089
1001.007812,1.360031,1.288856,12.171281,-2.555561
1001.011719,1.790311,1.023716,7.304597,11.231949
1001.015625,13.391933,7.180761,5.988712,7.301306
1001.019531,10.573007,5.018121,6.144226,12.911455
1001.023438,12.350354,8.073875,9.310325,5.987019
1001.027344,2.596592,11.152488,10.943976,13.809234
1001.031250,19.224002,8.083884,8.009645,4.789643
1001.035156,6.902448,9.690931,1.021513,0.393780
1001.039062,6.280930,3.759874,5.856307,7.200544
1001.042969,5.414801,7.395131,9.840697,1.534152
1001.046875,3.357646,-1.946729,-0.263946,2.911901
1001.050781,0.456588,-4.593216,3.765933,-2.226667
1001.054688,1.012258,-2.189105,0.973366,-8.850240
1001.058594,-3.876917,-13.185482,-7.151198,-5.910772
1001.062500,-13.507560,-5.727873,-9.929614,-10.346937
1001.066406,-2.431225,-11.701641,-8.230157,-6.254407
1001.070312,-4.337624,-4.602426,-10.788878,-7.774438
1001.074219,-9.878982,-7.819434,-12.913040,-9.097793
1001.078125,-11.931671,-2.635069,-17.147568,-14.652535
1001.082031,-5.610843,-8.714420,-4.100482,-8.051242
1001.085938,-13.792842,0.212130,-8.476526,-11.943514
1001.089844,-0.699400,-7.454089,-7.428928,-6.040165
1001.093750,-2.597663,-0.662572,-7.750656,-4.647064
1001.097656,-5.883179,-0.231154,-1.469997,-5.002568
1001.101562,1.952245,-1.095707,-1.068579,-3.576095
1001.105469,2.588427,2.464910,5.763734,1.602476
1001.109375,3.906865,4.470271,-3.837097,3.588697
1001.113281,9.474838,6.698309,8.415017,6.658289
1001.117188,7.342946,13.815698,6.543130,14.823956
1001.121094,12.034582,8.789755,12.457253,10.131092
1001.125000,5.604316,8.579759,6.082694,6.385699
1001.128906,16.807090,13.737648,4.378250,8.244869
1001.132812,13.080433,11.865414,7.333863,7.401199
1001.136719,5.272985,3.480873,4.834426,0.177781
1001.140625,6.128932,1.834122,9.173871,5.661392
1001.144531,1.356841,-0.992593,5.587380,-1.826662
1001.148438,6.595839,1.080277,2.176110,1.508071
1001.152344,4.696458,-4.398902,3.481412,-1.793173
1001.156250,-2.430512,-8.351198,-9.195057,0.476799
1001.160156,-9.940835,-8.056495,-10.242069,-6.138409
1001.164062,-9.319733,-4.625454,-14.080865,-14.543666
1001.167969,-9.663222,-16.621062,-13.598021,-8.740477
1001.171875,-14.279480,-8.218031,-9.595818,-14.418334
1001.175781,-13.355458,-15.442361,-13.660803,-11.146570
1001.179688,-10.283928,-11.198526,-11.458998,-8.560500
1001.183594,-13.085019,-5.181043,-11.944968,-12.676319
1001.187500,-6.788339,-6.039276,-6.187820,-5.839136
1001.191406,-5.745716,-6.325469,-6.101595,-4.923623
1001.195312,3.811740,-4.122982,-4.796643,-0.349102
1001.199219,0.366553,-1.966939,-0.871742,6.600691
1001.203125,1.381969,2.316246,14.351361,-0.844493
1001.207031,-0.191114,2.501503,4.223811,12.326850
1001.210938,4.161520,14.728230,10.226453,7.278487
1001.214844,10.226093,4.790809,7.046244,12.540948
1001.218750,9.570054,10.211263,7.880806,7.352200
1001.222656,10.617279,11.221414,9.817847,10.398974
1001.226562,11.381561,8.878638,8.144370,1.754163
1001.230469,11.183695,12.251636,11.909991,23.048002
1001.234375,10.132399,4.556665,10.768304,2.317094
1001.238281,6.083502,3.519497,11.228346,0.500951
1001.242188,12.872644,3.610943,7.269490,7.940647
1001.246094,-2.365304,-3.406363,-2.042958,2.496015
1001.250000,2.640809,-5.271085,-0.602644,-2.479175
1001.253906,-0.039355,3.228148,0.263746,-4.208556
1001.257812,-0.238053,0.875994,-4.454228,3.672013
1001.261719,-2.235248,-1.085596,-6.059174,-7.568493
1001.265625,-13.826667,-9.667866,-1.330657,-4.479789
1001.269531,-11.034113,-19.384508,-14.070907,-17.984099
1001.273438,-12.923524,-7.694700,-9.701413,2.820077
1001.277344,-9.221900,-5.960438,-8.364589,-8.511507
1001.281250,-8.334506,-2.762227,-12.791585,-3.577474
1001.285156,-13.755736,-12.301494,-13.118122,1.674082
1001.289062,-0.820523,-5.152799,-12.283218,-13.080555
1001.292969,-0.710373,-6.729847,-0.945618,-6.091642
1001.296875,-10.546486,2.492783,-1.848219,3.240507
1001.300781,6.407150,-1.798607,-3.381178,6.558694
1001.304688,4.167737,-0.752998,-0.606524,4.003328
1001.308594,4.202023,9.393645,7.991178,5.709416
1001.312500,4.429488,3.056218,7.462617,12.333365
1001.316406,6.732500,1.085797,8.760408,6.687698
1001.320312,14.172729,8.182278,4.748573,13.725833
1001.324219,5.624261,15.143508,10.816954,11.762578
1001.328125,7.944092,3.277264,6.132732,9.686657
1001.332031,7.292456,8.944395,8.299512,8.094313
1001.335938,7.616678,9.520425,12.851007,15.216016
1001.339844,5.841261,8.586802,7.473916,5.879713
1001.343750,-0.954646,0.723918,5.100710,8.572671
1001.347656,8.019986,5.556905,3.667579,8.614204
1001.351562,1.939793,-2.224882,-1.836161,-3.284572
1001.355469,-9.686885,-10.374258,1.212613,-6.417043
1001.359375,-1.594175,-0.400125,-1.872799,-8.307630
1001.363281,-8.080579,-7.264759,-0.086811,-5.390130
1001.367188,-6.313436,-6.839636,-12.078734,-11.753276
1001.371094,-11.527540,-4.522114,-9.145557,-8.715559
1001.375000,-11.321856,-5.213801,-4.237096,-8.765449
1001.378906,-3.879380,-8.944810,-15.553557,-6.498477
1001.382812,-6.702431,-11.966139,-5.602334,-8.374505
1001.386719,-13.256082,-9.599725,-8.772312,-15.293717
1001.390625,-8.450156,-6.480385,-4.729489,-11.966043
1001.394531,-1.765716,-4.272704,-6.272272,0.229410
1001.398438,7.223231,-5.898046,-2.537108,2.073655
1001.402344,-0.107253,6.464207,6.788190,-1.186399
1001.406250,-1.447075,3.697706,-0.942743,-0.232826
1001.410156,8.380110,1.177611,8.006006,8.538305
1001.414062,9.253342,7.228860,3.860498,2.245150
1001.417969,10.534627,5.543837,3.120925,9.854291
1001.421875,10.923141,14.159872,1.920987,7.998332
1001.425781,0.963502,16.314749,4.978169,7.092314
1001.429688,9.634123,8.631291,4.998447,10.554773
1001.433594,7.765026,6.856805,6.340819,5.760606
1001.437500,3.498368,3.989162,6.279685,3.297472
1001.441406,9.733793,6.127761,1.395793,-1.259167
1001.445312,8.556962,6.030902,5.805523,8.012882
1001.449219,-0.116271,2.139830,6.326089,-0.769056
1001.453125,-12.317632,-1.193942,-3.621369,-5.052525
1001.457031,-2.399230,-12.402652,-10.376175,-4.215229
1001.460938,-11.639852,-12.841395,-4.210754,-14.034849
1001.464844,-9.196144,-6.029332,-12.705142,-5.826149
1001.468750,-14.105475,-8.411340,-14.879746,-13.887523
1001.472656,-5.316418,-13.101245,-7.924727,-10.562654
1001.476562,-14.832828,-5.646194,-12.682596,-6.528020
1001.480469,-10.696067,-6.134559,-9.524567,-18.857816
1001.484375,-10.751714,-5.526850,-10.771954,-4.384488
1001.488281,-11.129633,0.785986,-9.329923,-4.380386
1001.492188,-2.941962,-5.838873,-3.982117,-3.291804
1001.496094,-8.033258,-0.499191,-6.599831,0.739340
1001.500000,-5.639229,-3.305575,-0.286462,8.817782
1001.503906,-5.112346,9.458125,4.828562,-6.332695
1001.507812,7.020835,8.831650,2.531767,4.213055
1001.511719,9.210130,4.748871,7.096812,6.502394
1001.515625,11.316365,2.437410,10.883382,12.638448
1001.519531,5.499049,7.879941,7.214715,13.976308
1001.523438,7.979269,9.441668,8.437694,11.069159
1001.527344,10.139681,8.380250,14.872170,9.786150
1001.531250,5.265168,11.637021,13.802156,6.961220
1001.535156,9.187316,6.317275,8.841637,12.737290
1001.539062,6.061107,9.173829,10.174249,2.558277
1001.542969,5.394031,7.543171,-1.101787,5.337053
1001.546875,-0.773920,-3.962276,-4.275873,-4.344028
1001.550781,6.375811,-1.527815,-6.267591,-0.064196
1001.554688,-7.668897,1.147162,-4.832108,-10.618505
1001.558594,-4.543062,-2.859365,1.033588,-3.548612
1001.562500,-0.928584,-3.994210,0.003265,-5.902155
1001.566406,-13.265275,-4.481801,-7.335602,-5.285093
1001.570312,-7.585588,-9.071515,-4.769002,-6.620623
1001.574219,-5.392806,-10.908750,-4.523125,-14.792800
1001.578125,-9.781937,-9.087000,-10.245964,-17.549229
1001.582031,-7.957180,-2.919338,-12.710649,-14.427620
1001.585938,-4.405356,-6.692935,-6.462315,-1.782628
1001.589844,-1.073832,-8.678961,-9.023999,-11.030728
1001.593750,-1.842424,-2.613350,-6.653705,-8.650905
1001.597656,0.366121,0.114464,2.334101,10.162074
1001.601562,2.510623,0.734625,3.046951,5.437166
1001.605469,5.085279,9.546649,1.804679,7.140705
1001.609375,5.744063,3.679226,2.907654,3.508037
1001.613281,-0.666536,10.181726,12.776465,13.082372
1001.617188,12.469260,8.215079,-2.293683,12.872656
1001.621094,11.538983,9.462372,9.536412,9.468401
1001.625000,13.339232,4.666548,8.737550,7.026341
1001.628906,4.178137,11.752070,7.659630,9.525776
1001.632812,8.080601,10.440424,8.937487,16.104122
1001.636719,7.310846,8.546513,5.697949,1.246996
1001.640625,2.967083,10.078299,1.468351,6.637632
1001.644531,3.949026,2.005834,5.957564,11.228613
1001.648438,-4.735655,0.156821,-4.443629,-2.150291
1001.652344,5.058139,-3.829449,-1.977768,-0.523274
1001.656250,-2.589498,-8.650091,-10.716861,-4.917818
1001.660156,-2.051341,3.211304,0.645820,-11.650226
1001.664062,-9.906966,-14.268523,-1.313464,-3.113552
1001.667969,-3.625635,-13.019463,-7.680173,-10.606762
1001.671875,-10.167830,-19.899530,-13.404832,-10.570306
1001.675781,-10.549540,-16.067015,-8.277488,-5.763776
1001.679688,-6.369697,-17.161756,-7.655276,-15.230194
1001.683594,-9.258786,-10.327077,-9.578537,-5.869977
1001.687500,-3.447936,1.078291,-13.405073,0.099955
1001.691406,-5.054388,-8.195785,-9.295111,-1.009308
1001.695312,0.455428,-4.323435,-0.075856,-0.331936
1001.699219,1.964326,-3.359767,-1.315227,4.808013
1001.703125,3.385453,9.368097,2.729594,-2.010170
1001.707031,1.904174,0.172525,0.990762,12.026671
1001.710938,-1.035337,11.092929,9.134317,3.804214
1001.714844,5.910358,19.808965,11.447431,12.351661
1001.718750,11.024327,8.358164,11.065597,8.358633
1001.722656,15.268757,15.341645,15.669519,10.586266
1001.726562,13.589574,9.068375,15.085634,16.691037
1001.730469,2.152586,9.202934,4.870298,8.223783
1001.734375,5.219693,5.261972,3.710051,8.344689
1001.738281,5.423920,4.293166,5.578694,11.887229
1001.742188,3.358227,-1.517896,5.950111,9.013826
1001.746094,7.621076,2.654636,3.129078,7.432781
1001.750000,4.068450,0.766235,-0.384285,0.352545
1001.753906,-3.665235,-0.225381,-6.433795,7.629196
1001.757812,0.259569,-5.337911,-12.349579,-3.956448
1001.761719,-9.041353,-9.172177,-7.045648,-12.265319
1001.765625,-6.980880,-9.938744,-5.247713,-3.647956
1001.769531,1.180754,-6.833590,-9.783866,-12.382878
1001.773438,-8.553398,-4.760633,-15.624654,-9.093193
1001.777344,-8.191945,-13.587049,-8.829297,-6.884201
1001.781250,-13.144100,-6.385882,-11.130887,-5.342539
1001.785156,-9.779528,-10.665371,-3.903494,1.616278
1001.789062,0.188857,-13.369696,-6.331862,-11.251392
1001.792969,-5.466583,-0.759247,-8.933450,-2.290525
1001.796875,1.508364,-1.941869,-2.768621,-4.022670
1001.800781,4.408669,5.268052,6.894584,-6.733839
1001.804688,8.737083,-5.482166,-1.691063,4.916034
1001.808594,8.191511,5.644635,-3.503908,7.116257
1001.812500,10.470701,14.196727,9.294035,8.725468
1001.816406,9.268919,6.717620,9.832330,4.506381
1001.820312,16.322765,11.486064,11.707345,8.816206
1001.824219,10.649949,10.956138,6.694576,10.010637
1001.828125,8.928158,9.051922,9.748712,10.142528
1001.832031,3.516946,14.499033,8.196914,9.598887
1001.835938,5.493555,6.655167,4.541019,13.504393
1001.839844,7.583113,7.420406,-3.296106,5.066805
1001.843750,-0.392998,3.942640,10.772860,3.424336
1001.847656,5.646678,4.321868,6.753909,3.743572
1001.851562,4.250858,0.990226,-3.328414,-2.424424
1001.855469,-6.870964,-7.036704,-4.779587,-6.374438
1001.859375,-3.439734,2.149655,-4.931067,-5.123533
1001.863281,-2.722020,-9.968289,-13.933634,-7.004206
1001.867188,-4.350146,-13.528514,-7.618997,-12.140834
1001.871094,-8.631492,-19.123212,-7.360307,-9.711380
1001.875000,-10.314162,-10.384784,-9.311862,-8.364439
1001.878906,-6.753095,-9.591469,-9.580790,-12.077025
1001.882812,-13.030291,-14.958681,-15.456183,-4.426946
1001.886719,-10.564873,-11.212004,-13.347639,-8.492864
1001.890625,-3.217414,-4.989889,-4.053125,-14.558072
1001.894531,-1.952752,-6.377661,-6.522005,-7.981538
1001.898438,7.303637,-1.195504,2.127150,4.321914
1001.902344,3.988969,2.668169,0.588135,6.653551
1001.906250,9.915108,2.738179,1.759497,-2.048284
1001.910156,9.883020,2.743788,5.898931,1.127284
1001.914062,15.338777,10.581214,9.211856,3.291481
1001.917969,11.037530,10.026614,5.617619,4.136091
1001.921875,18.667405,8.634531,11.715486,9.850428
1001.925781,16.106933,5.230338,2.833188,11.614741
1001.929688,4.033088,11.805665,8.817475,8.531307
1001.933594,2.244251,9.963468,8.930313,15.104310
1001.937500,13.937440,6.326586,4.727945,4.719646
1001.941406,-2.243899,5.484255,8.037902,6.163273
1001.945312,5.295184,10.461188,0.384060,3.504991
1001.949219,-1.856506,0.842215,-0.711881,2.906566
1001.953125,-3.467796,-2.998976,-4.993991,4.673383
1001.957031,-7.854640,2.460850,-1.081992,-8.772765
1001.960938,-3.717083,-10.825224,-12.895086,-9.892715
1001.964844,-8.722063,-10.475023,0.588894,-1.308420
1001.968750,-13.028384,-14.410545,-11.252291,-2.997205
1001.972656,-8.933359,-4.648228,-17.433040,-11.804432
1001.976562,-8.260977,-9.075832,-14.051285,-5.635307
1001.980469,-5.779575,-6.072893,-14.818516,-10.825211
1001.984375,-6.353433,-6.024226,-6.619162,-9.023923
1001.988281,-5.141478,-6.467863,-10.272877,-12.267085
1001.992188,-5.755134,-6.369847,-8.406127,-2.395066
1001.996094,-0.810009,0.362309,1.767166,3.486185
1002.000000,0.967154,-1.531840,6.040075,0.808528
1002.003906,6.021367,2.756737,-2.835774,2.310871
1002.007812,6.767340,1.662406,4.732684,1.928554
1002.011719,4.860316,2.491423,6.911919,2.122194
1002.015625,1.349038,3.708183,1.330385,5.927364
1002.019531,12.756153,10.462005,5.221775,6.021616
1002.023438,6.132485,4.193332,1.969702,15.101274
1002.027344,10.534325,12.084117,6.898095,9.607208
1002.031250,4.011211,19.441938,6.467777,3.062400
1002.035156,1.783767,3.256024,6.303557,-4.034603
1002.039062,1.049954,6.054200,6.774603,10.099858
1002.042969,7.141822,1.849173,1.309897,2.694098
1002.046875,2.861297,2.315440,5.301802,5.301476
1002.050781,1.474653,-4.004236,-0.578217,-1.433224
1002.054688,-2.191458,7.828051,-1.490413,-2.573772
1002.058594,-0.482358,-7.891644,1.935905,-6.561834
1002.062500,-3.727373,-10.122488,-15.689902,-7.360371
1002.066406,-7.831767,-5.948036,-10.663250,-7.979558
1002.070312,-15.815275,-11.072888,-6.502980,-6.816160
1002.074219,-14.576847,-16.409124,-11.696557,-6.859096
1002.078125,-12.421386,-15.306680,-13.263375,-10.322324
1002.082031,-10.152999,-4.862247,-10.929139,-13.615990
1002.085938,-6.622889,-9.852582,-14.386168,-9.372586
1002.089844,-6.326894,-1.798929,-12.657852,-13.620902
1002.093750,-12.508245,-1.124568,0.538598,-2.708244
1002.097656,3.991978,-1.856603,5.498894,-6.021917
1002.101562,3.833234,1.192224,0.717932,2.930711
1002.105469,0.181775,0.728113,2.438228,5.192986
1002.109375,5.726784,6.097910,-2.845419,11.611414
1002.113281,14.208739,4.331422,16.213840,9.242643
1002.117188,10.704192,10.069852,9.429712,10.553939
1002.121094,2.960415,18.182465,16.325357,7.505910
1002.125000,17.660724,14.968827,13.395346,7.356456
1002.128906,8.352493,11.661831,15.831216,5.080881
1002.132812,6.083226,1.915518,14.960235,6.283200
1002.136719,8.128733,11.190117,1.452357,6.466773
1002.140625,-0.585419,7.321491,3.553410,2.912905
1002.144531,2.758889,1.307083,6.100912,1.152241
1002.148438,0.673473,-0.210426,-0.335013,-5.256310
1002.152344,0.887515,-6.479645,-4.139558,-4.041029
1002.156250,-4.022149,-3.055414,-8.967099,-3.047681
1002.160156,-11.848493,-0.375096,-5.178413,-5.145273
1002.164062,-8.268719,-2.780738,-4.938904,-14.592724
1002.167969,-8.456319,-11.494292,-10.881772,-14.031597
1002.171875,-8.928914,-10.420905,-8.550028,-12.488998
1002.175781,-6.621487,-8.936775,-7.268210,-16.120409
1002.179688,-7.675618,-6.287771,0.437461,-11.147187
1002.183594,-9.815768,-12.859276,-11.891787,-10.438710
1002.187500,-10.480733,-0.260509,-10.330541,-1.390601
1002.191406,-4.196796,-8.408137,-6.111211,-0.162883
1002.195312,-6.451697,0.227258,-3.354998,-9.528220
1002.199219,-3.070638,-4.484967,5.675378,-0.388253
1002.203125,3.178549,4.630760,2.680157,5.274174
1002.207031,7.371083,4.924605,0.641773,3.317914
1002.210938,10.733154,4.840593,8.636928,11.179698
1002.214844,16.651446,14.070571,6.141354,7.044633
1002.218750,11.122953,12.555211,11.802550,7.197589
1002.222656,11.112658,13.781645,4.804440,9.397738
1002.226562,14.235160,10.647033,21.063164,6.728293
1002.230469,11.579600,15.573449,-1.214555,9.095605
1002.234375,14.462577,7.560178,13.407074,6.898372
1002.238281,10.892055,4.303903,5.229270,7.587037
1002.242188,10.513932,0.644022,5.869446,2.544387
1002.246094,2.182143,6.087691,0.356915,5.548395
1002.250000,2.957919,-1.913329,-4.181181,-2.940413
1002.253906,-7.119007,-10.734893,4.700056,-0.489174
1002.257812,2.732749,4.015516,-2.789316,-0.653378
1002.261719,-5.653463,-0.033517,-9.229527,-6.381587
1002.265625,-16.458135,-0.574657,-6.994806,-7.123667
1002.269531,-8.151193,-3.835844,-12.459623,-7.973679
1002.273438,-9.352794,-13.288419,-8.916620,-14.018907
1002.277344,-1.663567,-15.485055,-5.953678,-12.363612
1002.281250,-12.221400,-12.814169,-1.300134,-8.834749
1002.285156,-9.716215,-9.704997,-10.104162,-8.623936
1002.289062,-10.326253,-10.417070,-11.990782,-11.593584
1002.292969,-2.772670,-4.672056,-5.029326,-0.745189
1002.296875,-5.867680,-8.192202,-1.550742,-0.636045
1002.300781,-2.528308,-2.504218,-9.480077,8.148349
1002.304688,1.391056,-3.853568,4.128296,5.547103
1002.308594,5.029888,0.287909,11.995129,5.078189
1002.312500,7.155604,1.993574,9.563428,-0.130303
1002.316406,4.259543,14.105066,11.197618,14.631824
1002.320312,10.427344,7.196371,9.253780,13.400967
1002.324219,4.492230,8.960121,3.124871,9.760016
1002.328125,8.377410,8.215905,11.231490,10.574479
1002.332031,6.220844,10.031744,3.287920,5.852232
1002.335938,-0.438919,7.334883,4.791938,6.984811
1002.339844,10.647953,14.688257,11.625106,2.742073
1002.343750,4.709066,9.360957,4.953386,5.902963
1002.347656,10.372897,-2.161222,1.961068,2.481130
1002.351562,-2.565526,-3.055427,-3.329523,7.014181
1002.355469,-8.789022,0.619858,6.103221,-15.432375
1002.359375,-3.392205,-1.961308,-6.552817,0.979668
1002.363281,-9.562205,-9.505396,-6.557961,-12.911136
1002.367188,-6.022692,0.462048,-7.320494,-7.648106
1002.371094,-4.173694,-6.467325,-8.561821,-10.950515
1002.375000,-8.322620,-11.018862,-9.572221,-9.838060
1002.378906,-3.232523,-5.229889,-4.911651,-10.456013
1002.382812,-13.951852,-11.584593,-9.484471,-18.444307
1002.386719,-12.172771,-2.485380,-10.552552,-9.775243
1002.390625,-6.024002,-5.676173,-13.944969,-5.464161
1002.394531,-2.746675,-4.155668,-1.865153,-9.595907
1002.398438,0.897673,1.059842,-0.847385,-2.770415
1002.402344,7.722149,0.507801,5.377262,0.411120
1002.406250,4.054833,-1.321886,0.501151,2.732284
1002.410156,10.635043,10.639156,2.784437,3.554543
1002.414062,11.192145,9.159927,11.703571,8.650865
1002.417969,7.454934,13.210847,2.319050,6.787775
1002.421875,17.882856,10.248454,10.295315,11.528453
1002.425781,6.293704,11.304856,8.402592,8.265082
1002.429688,9.398215,6.033177,5.125129,8.747467
1002.433594,8.181023,9.092716,5.266346,9.383926
1002.437500,7.453568,1.042028,12.662457,5.395205
1002.441406,4.038204,13.530685,4.164337,-0.014914
1002.445312,-0.987207,-1.560139,1.338056,2.171394
1002.449219,-2.355465,5.463667,-2.602362,6.115243
1002.453125,-4.004273,-6.819281,-10.099956,2.330552
1002.457031,-2.606879,-4.152232,-2.215503,-6.495332
1002.460938,-4.660321,-10.898082,-7.085640,-0.752287
1002.464844,-3.827458,-3.254660,-10.273452,-9.969252
1002.468750,-9.614480,-5.053193,-11.226928,-13.117580
1002.472656,-8.165785,-8.281280,-11.124801,-4.075688
1002.476562,-11.178543,-12.876607,-14.867374,-6.773751
1002.480469,-8.201088,-1.851300,-8.561651,-10.049095
1002.484375,-7.707772,-3.756823,-10.163536,-2.973154
1002.488281,-3.526406,-0.756998,-9.043796,-10.204119
1002.492188,-5.280299,-2.091417,-9.368797,-3.170857
1002.496094,-4.405677,-8.803462,-1.380710,-2.102973
1002.500000,8.642613,1.251659,-0.415593,-0.137527
1002.503906,2.346956,3.546050,11.724364,0.839188
1002.507812,3.110697,7.212678,4.026331,11.461088
1002.511719,7.172002,7.190681,4.773823,3.977842
1002.515625,10.777894,10.698949,3.281320,3.934887
1002.519531,10.590568,10.143002,12.220871,12.107910
1002.523438,8.716580,8.641629,9.837749,12.543177
1002.527344,6.582264,7.785895,8.807960,4.573731
1002.531250,5.954172,12.062526,6.434733,9.873122
1002.535156,6.076322,8.241647,8.770233,6.149155
1002.539062,2.975013,5.043220,6.323213,6.034954
1002.542969,-1.894817,0.884417,8.144769,12.357445
1002.546875,0.269918,-3.729194,3.672815,-4.047186
1002.550781,8.413192,-3.853872,-7.036450,1.676315
1002.554688,2.243136,-7.341623,1.383912,1.287073
1002.558594,-6.587939,-7.096256,-8.180240,-4.573166
1002.562500,-9.797424,-12.211652,-12.264666,-15.376468
1002.566406,-8.703539,-10.497489,-8.110061,-4.975656
1002.570312,-6.426654,-11.578495,-11.966692,-1.387211
1002.574219,-15.612527,-14.267849,-9.126499,-9.967430
1002.578125,-8.984088,-8.110019,-7.384351,-9.459077
1002.582031,-5.536285,-7.046715,-10.870346,-11.308611
1002.585938,-7.241526,-7.669989,-8.188168,-8.411197
1002.589844,-5.411566,-4.129133,-4.905155,-0.423391
1002.593750,-6.248766,-3.788925,-3.362028,-6.351371
1002.597656,5.961896,2.117986,-5.847903,-1.825104
1002.601562,2.391464,4.173533,-2.086291,-1.666962
1002.605469,2.757912,1.367594,0.765837,6.265937
1002.609375,6.632006,2.821034,1.799858,4.144359
1002.613281,7.683499,3.129048,8.994716,9.515552
1002.617188,4.405205,11.577040,1.839338,19.048578
1002.621094,4.158025,15.399132,8.463130,4.164558
1002.625000,8.161927,1.250303,16.606384,8.803349
1002.628906,6.677003,12.923028,9.780706,20.111354
1002.632812,4.717777,5.464582,14.390681,8.484719
1002.636719,9.584983,4.347941,8.090030,15.680116
1002.640625,1.007413,2.143607,5.637111,6.373525
1002.644531,7.062119,1.026214,3.589779,3.819385
1002.648438,1.361262,-0.391024,-4.563884,-1.721989
1002.652344,-2.558247,3.230364,-0.034890,-1.393645
1002.656250,-5.532105,-5.474195,-3.457063,-3.822697
1002.660156,-4.269330,-8.205170,-8.093733,-4.367838
1002.664062,-4.600910,-9.092551,-7.901775,-9.174208
1002.667969,-1.146125,-12.231589,-11.541537,-5.688150
1002.671875,-6.248062,-21.454597,-10.888120,-8.891810
1002.675781,-18.689959,-12.670971,-13.986484,-12.468782
1002.679688,-8.132852,-8.133405,-8.219166,-4.854464
1002.683594,-5.749681,-5.444756,-5.084809,-9.656072
1002.687500,-1.219470,-9.766346,-3.036464,-5.183962
1002.691406,-8.293833,-3.944910,-8.911417,-1.453395
1002.695312,-5.403564,-3.168182,-2.746539,-8.100658
1002.699219,1.415677,-0.214161,-0.161650,-0.998532
1002.703125,-1.104869,-2.680208,6.531457,-2.775429
1002.707031,0.675634,8.473502,10.008310,2.706736
1002.710938,5.646550,4.016359,6.106538,6.594806
1002.714844,9.979961,9.829134,9.446387,11.067142
1002.718750,12.992693,9.849597,7.167896,12.402597
1002.722656,10.399216,12.541796,12.718941,7.598321
1002.726562,13.078318,10.828779,5.844046,6.466817
1002.730469,6.817784,12.646651,9.924381,15.009168
1002.734375,6.057565,2.980843,9.056139,10.287564
1002.738281,13.853544,6.359581,6.061242,8.717302
1002.742188,7.660202,6.966897,4.688051,3.935225
1002.746094,-2.578055,-1.107330,6.056984,1.105389
1002.750000,-0.067763,6.705867,0.033722,-1.265213
1002.753906,-3.096823,-2.523414,-1.042940,2.557261
1002.757812,-4.750038,-0.226261,-2.140557,-6.735173
1002.761719,-7.010940,-4.184504,-16.429683,-5.623666
1002.765625,1.122355,-13.296627,-5.146333,-17.594671
1002.769531,-4.010413,-10.641933,-8.763796,-5.631695
1002.773438,-15.921629,-9.140522,-10.076198,-14.760319
1002.777344,-11.341744,-9.135514,-8.292776,-11.022191
1002.781250,-14.114085,-7.763535,-2.511783,-8.758963
1002.785156,-11.241280,-6.686221,-5.812040,-9.260013
1002.789062,-13.982044,-6.824204,0.035925,-3.437772
1002.792969,0.935392,-1.899191,-7.788783,1.130327
1002.796875,-3.374985,-2.763092,-2.756369,-4.793563
1002.800781,-0.794401,5.308253,4.708954,-3.115673
1002.804688,1.383072,-4.519065,-4.185419,2.296370
1002.808594,11.547440,-2.259201,8.167600,0.635366
1002.812500,8.850364,9.801284,-1.538226,10.079128
1002.816406,-0.765986,4.550445,8.351715,3.511767
1002.820312,11.617667,11.011928,13.574795,8.141585
1002.824219,19.771151,7.034041,6.296941,12.358560
1002.828125,11.644571,8.343605,12.034580,7.820178
1002.832031,9.847058,10.964224,8.302277,12.559076
1002.835938,10.883235,7.992418,7.638173,-1.095557
1002.839844,-1.060946,3.690902,5.962251,-5.089986
1002.843750,5.480075,3.948120,1.533291,6.477796
1002.847656,7.393296,-3.859768,8.665352,-0.927353
1002.851562,-1.840699,0.959293,-1.768177,-0.825204
1002.855469,-0.862448,-6.005343,-1.530924,-0.379399
1002.859375,-2.810541,-5.514952,-2.898047,-8.121605
1002.863281,-3.724244,-6.933169,-8.990226,-0.394300
1002.867188,-6.097959,-9.845096,-7.981522,-12.535391
1002.871094,-9.392985,-5.033926,-11.104830,-14.689158
1002.875000,-7.045313,-20.560432,-13.326789,-11.041732
1002.878906,-15.185299,-7.211710,-4.128011,-6.596612
1002.882812,-10.401030,-11.187170,-16.678627,-8.008465
1002.886719,-13.537336,-1.664937,-9.957384,-13.976456
1002.890625,-10.446626,-2.152171,-3.976833,-2.970254
1002.894531,-3.990717,-3.653748,-1.565876,-2.726194
1002.898438,-7.285917,-4.491940,-2.054333,-0.331623
1002.902344,6.828453,2.469144,0.184987,7.832871
1002.906250,0.610345,-3.377121,2.157213,0.757514
1002.910156,3.231948,7.086200,4.579047,10.645749
1002.914062,7.549883,13.742264,9.633028,3.110878
1002.917969,0.419849,13.777042,9.540920,1.963273
1002.921875,5.593781,10.075745,4.338818,9.401107
1002.925781,11.155664,18.819119,6.224038,3.438815
1002.929688,9.949419,4.279655,4.823733,12.950952
1002.933594,7.726229,11.873894,12.280889,13.800872
1002.937500,1.578538,19.352854,8.034360,8.634936
1002.941406,3.675965,3.265515,9.457570,3.380962
1002.945312,4.493134,1.867187,-1.254909,3.801298
1002.949219,-0.023405,-0.118036,1.172120,-2.834488
1002.953125,-2.879291,4.376750,-4.818576,-4.844923
1002.957031,-4.957711,-4.551205,-5.185225,-5.352743
1002.960938,-1.739952,-2.213549,-9.055791,-0.210606
1002.964844,-4.467780,-1.702691,-8.363078,-2.537019
1002.968750,-9.149068,-11.942000,-6.850488,-4.338027
1002.972656,-3.694165,-8.828223,-8.662918,-10.942277
1002.976562,-6.194975,-14.338623,-5.914234,-11.546945
1002.980469,-11.139194,-5.572694,-4.298578,-6.001678
1002.984375,-15.328870,-4.118295,-10.108505,-11.093225
1002.988281,-5.431984,-5.735475,-8.260861,-14.471099
1002.992188,-5.029145,3.463573,-7.818701,-6.193457
1002.996094,4.659048,-7.001056,7.652187,3.220704
1003.000000,-8.241398,-1.101419,-1.920753,1.288745
1003.003906,-0.028324,3.224018,-0.207117,6.037099
1003.007812,2.589185,-2.936864,7.299620,0.481961
1003.011719,6.627425,7.027290,4.601647,7.339819
1003.015625,4.510858,7.025028,16.858563,7.236973
1003.019531,14.940817,-0.745799,12.678224,14.906396
1003.023438,3.811966,13.230576,10.249022,12.914657
1003.027344,2.645086,8.682297,8.035440,8.517703
1003.031250,14.023157,17.624188,9.785812,12.096948
1003.035156,9.925937,6.795998,-2.035617,3.966200
1003.039062,13.403423,7.593562,7.859696,-0.561827
1003.042969,5.878048,0.264870,7.642549,1.003161
1003.046875,5.894140,0.540716,6.507920,5.597593
1003.050781,2.801253,-6.674701,2.965363,3.192242
1003.054688,-3.589519,-2.060232,-4.220944,7.606978
1003.058594,-1.720291,-2.876154,-10.203627,-3.037365
1003.062500,-11.392426,-9.842812,-11.322881,-9.091555
1003.066406,-8.019090,-14.641257,-9.896110,-1.325490
1003.070312,-11.995342,-4.039223,-8.844892,-10.765692
1003.074219,-19.277602,-10.102278,-12.305577,-7.455360
1003.078125,-11.942598,-14.277767,-15.979278,-6.796514
1003.082031,-7.906334,-8.627718,-4.704236,-8.584146
1003.085938,-3.440731,-6.242103,-10.058645,-14.375367
1003.089844,-9.543241,-9.632508,-8.292670,-6.039340
1003.093750,-5.663790,-1.900937,6.034721,-7.538489
1003.097656,4.595712,-2.872629,1.424248,3.164402
1003.101562,-4.101301,4.902381,0.755427,1.393723
1003.105469,4.271515,-1.203957,5.640718,2.558550
1003.109375,16.917426,6.498885,5.602538,0.573077
1003.113281,11.307143,9.896541,3.513843,10.417035
1003.117188,14.229512,11.158679,8.407228,12.226147
1003.121094,7.368453,4.270085,6.422633,5.742742
1003.125000,13.554849,4.768973,11.282050,7.061836
1003.128906,11.067637,8.005486,12.941000,12.409928
1003.132812,6.703176,-1.975990,3.218324,13.425553
1003.136719,9.936227,8.648375,3.657529,10.588532
1003.140625,4.579981,7.221190,8.672047,5.594071
1003.144531,5.297919,11.732357,1.910602,0.833609
1003.148438,2.084610,-1.101861,4.979477,-2.970479
1003.152344,-5.958162,-1.377304,-2.651222,-3.700387
1003.156250,-6.290357,-3.282301,-5.569970,-4.830589
1003.160156,-10.873584,-4.703662,-2.979492,-4.873623
1003.164062,-11.362459,-10.983339,-12.445858,-10.109327
1003.167969,-11.198057,-9.764058,-12.138684,-12.003614
1003.171875,-13.912720,-1.443009,-10.889723,-12.524533
1003.175781,-9.408211,-16.864125,-13.931960,-10.436551
1003.179688,-10.389887,-13.506285,-16.908256,-13.787049
1003.183594,-9.630349,-5.248356,-6.733585,-15.541653
1003.187500,-9.325540,-4.691277,-15.100662,-4.980144
1003.191406,-4.962695,-11.538525,-1.784121,-11.242307
1003.195312,-2.997481,-4.199813,1.181381,-4.935892
1003.199219,8.501964,-5.256148,5.544017,-2.375696
1003.203125,0.597711,5.212563,2.361421,-0.955325
1003.207031,4.046330,3.081551,8.551662,7.699829
1003.210938,5.916832,5.902768,6.786657,9.781508
1003.214844,0.745416,7.142879,2.244315,4.663799
1003.218750,7.025320,9.861687,11.804585,6.471220
1003.222656,9.389057,12.351068,17.547463,16.538497
1003.226562,3.740116,8.071331,6.570163,16.031255
1003.230469,-1.078496,4.023088,8.598221,6.230147
1003.234375,4.803692,4.391046,5.467549,1.957124
1003.238281,0.450879,7.706849,12.415358,4.884689
1003.242188,8.312331,-0.332645,3.592199,1.768425
1003.246094,4.165458,5.421094,4.592205,-1.205088
1003.250000,0.983434,-5.175702,3.656690,-6.974515
1003.253906,-8.965586,-4.322847,-5.666679,-8.770622
1003.257812,-9.582633,-9.889959,-1.632787,-7.489919
1003.261719,-9.162855,-7.258018,-5.144738,-3.829505
1003.265625,-5.280129,-9.130181,-7.177174,-15.646021
1003.269531,-13.808179,-3.843084,0.824710,-1.494865
1003.273438,-9.970085,-16.342505,-7.955704,-5.361072
1003.277344,-8.726263,-10.117798,-4.903910,-1.794866
1003.281250,-4.942768,-9.927392,-8.874407,-7.306656
1003.285156,-13.038826,-11.039311,-5.906298,-3.003457
1003.289062,-4.642240,-7.663707,-10.815186,-7.151232
1003.292969,2.293413,-2.447515,-1.999775,-11.228280
1003.296875,1.355806,-0.439169,-8.170084,0.935510
1003.300781,-1.688501,1.615779,6.482826,-6.395800
1003.304688,0.816785,0.310611,6.833218,0.919993
1003.308594,11.112821,4.858921,8.305897,4.921719
1003.312500,13.621710,2.277989,6.991233,12.896418
1003.316406,8.260992,10.437616,8.078255,9.581981
1003.320312,10.068570,10.691836,11.562049,10.017395
1003.324219,9.054790,9.171048,12.685009,19.747739
1003.328125,9.550092,5.341106,8.867401,11.902290
1003.332031,14.725925,6.478706,11.862414,10.670451
1003.335938,13.709620,3.607755,13.239889,11.573735
1003.339844,6.515594,4.485614,5.648581,-1.968663
1003.343750,5.315092,1.402244,8.184081,1.125806
1003.347656,-4.509971,1.080597,5.931434,11.208501
1003.351562,0.831901,-3.920151,-4.052282,1.332814
1003.355469,-9.319049,-8.116525,1.331748,-2.793931
1003.359375,-5.371604,-8.658011,-4.625512,-5.969689
1003.363281,-8.251447,-11.642479,-10.929598,-3.025256
1003.367188,-7.592548,-8.202487,-8.893055,-7.453539
1003.371094,-4.848707,-14.092073,-11.315074,-3.577199
1003.375000,-15.241001,-8.643215,-8.861441,-9.077015
1003.378906,-4.138718,-10.503934,-2.788097,-2.911330
1003.382812,-10.916549,-6.511815,-5.368392,-15.170345
1003.386719,2.822474,-3.032224,-7.355357,-1.352016
1003.390625,-0.330731,-11.594007,-8.074282,-4.582101
1003.394531,-6.522095,0.122168,-0.824742,4.362370
1003.398438,-1.392496,-9.585408,-2.864644,0.398863
1003.402344,4.279603,-5.734724,1.659687,5.066211
1003.406250,6.941070,4.648723,-1.691513,8.319224
1003.410156,5.899915,6.519292,9.508199,1.436235
1003.414062,4.498616,7.852836,6.201410,6.429794
1003.417969,1.545771,12.882958,4.037246,11.027961
1003.421875,9.159894,5.198218,10.254866,3.274541
1003.425781,8.655315,14.393534,11.079900,12.372002
1003.429688,10.623659,3.812474,5.118448,7.775345
1003.433594,2.381323,17.962487,15.907835,7.222126
1003.437500,6.666221,5.672577,8.240500,6.439837
1003.441406,2.120953,2.744409,4.470835,7.240096
1003.445312,7.131241,8.087176,4.851208,5.486047
1003.449219,0.042680,2.432261,5.024122,-3.922958
1003.453125,-1.887675,-2.876663,-1.923892,-2.067070
1003.457031,-4.012934,-2.294127,-1.683736,-5.570574
1003.460938,-10.133270,-3.604116,-7.576518,-2.359831
1003.464844,-12.342789,-7.886184,-7.305278,-5.446196
1003.468750,-4.202732,-13.008152,-8.945905,-14.334081
1003.472656,-13.917201,-10.013957,-9.249505,-13.813505
1003.476562,-13.920153,-10.214129,-11.580620,-7.793373
1003.480469,-12.192617,-9.604580,-13.285793,-14.511866
1003.484375,-1.249143,-3.835949,-9.358025,-15.790822
1003.488281,-10.301551,-11.618904,1.649353,-4.612897
1003.492188,-7.158030,-0.007347,-10.890238,-1.368365
1003.496094,-1.607709,-5.527696,3.718778,-1.965854
1003.500000,1.044906,-0.058288,-4.861260,-0.995886
1003.503906,4.828300,7.350371,2.738893,3.600071
1003.507812,3.838336,7.083222,-4.714411,2.010549
1003.511719,7.807550,7.322647,1.262374,7.181400
1003.515625,10.509707,8.544414,5.582513,5.192888
1003.519531,9.429106,8.229488,8.826050,12.645868
1003.523438,7.386555,9.852384,13.633552,10.294840
1003.527344,11.731603,9.096702,6.252275,13.417736
1003.531250,10.300176,6.310602,8.364930,15.569223
1003.535156,14.355191,8.359501,3.292091,0.063610
1003.539062,4.188256,7.217905,7.661178,3.055239
1003.542969,5.449287,10.806852,5.624842,6.255621
1003.546875,10.475439,1.528514,2.628094,-3.041598
1003.550781,-2.911039,0.254003,0.619395,2.041376
1003.554688,-3.777021,-7.605549,2.316414,-4.826808
1003.558594,-9.301115,-5.053307,-11.797808,-6.068548
1003.562500,-10.423102,-3.886490,-8.948156,-10.677299
1003.566406,-13.747194,-16.831003,-6.738240,0.717344
1003.570312,-13.671890,-12.938147,-12.002714,-15.019492
1003.574219,-11.872630,-4.794331,-9.612983,-8.266322
1003.578125,-15.052978,-8.759658,-4.732450,-5.340041
1003.582031,-4.936448,-10.170754,-9.120488,-7.241921
1003.585938,-12.398842,-6.299430,-8.084550,-11.860815
1003.589844,-8.209218,6.320113,-3.932260,-10.092499
1003.593750,-10.181767,7.990547,-4.415638,-5.844811
1003.597656,3.911762,-4.663001,-8.986100,2.575849
1003.601562,-6.209784,-5.984401,3.194248,-1.266764
1003.605469,2.030493,5.066799,3.620983,6.807176
1003.609375,6.971101,5.476370,-3.452726,4.527404
1003.613281,2.904267,10.888537,3.976215,8.000265
1003.617188,8.384149,8.760715,17.494301,6.364523
1003.621094,14.275956,2.872800,10.894201,8.200267
1003.625000,8.347082,15.686435,8.261877,13.491303
1003.628906,11.935695,7.163995,16.374011,19.635356
1003.632812,12.074960,11.988532,4.660638,14.898908
1003.636719,3.880863,4.402105,3.258035,6.316844
1003.640625,9.455951,8.174957,7.737271,4.279318
1003.644531,8.281683,2.790750,4.155168,0.467157
1003.648438,1.060231,1.473574,11.757851,-2.260596
1003.652344,2.853874,-0.640493,-2.924139,-3.909852
1003.656250,-2.352914,-8.471655,-5.068540,-0.555415
1003.660156,-6.137431,-5.324192,-0.847459,-7.032735
1003.664062,-2.186183,-13.887366,-1.961687,-9.296740
1003.667969,-13.232448,-8.028057,-9.703107,-9.175721
1003.671875,-4.944246,-8.399665,-11.747362,-5.751111
1003.675781,-10.901947,-15.678273,-7.092002,-9.471609
1003.679688,-11.648138,-1.962381,-8.425468,-13.301006
1003.683594,-2.814886,-9.358833,-8.576695,-12.411522
1003.687500,-4.882939,-2.389129,-2.491551,-5.207039
1003.691406,1.382925,-5.949721,-1.815748,-7.807885
1003.695312,-1.667528,-13.301245,-2.342939,-0.725884
1003.699219,2.790896,-1.736456,0.263236,-2.498299
1003.703125,-0.029322,5.146600,2.871146,2.734565
1003.707031,7.185517,0.863330,2.288679,10.598836
1003.710938,4.640258,11.277811,3.085734,12.733700
1003.714844,8.023211,6.054118,6.957804,7.796957
1003.718750,11.282601,11.489402,12.755292,16.749350
1003.722656,10.513145,4.570509,8.805296,15.578987
1003.726562,11.608129,11.715920,4.573750,8.982041
1003.730469,9.976122,7.140122,6.617844,4.566614
1003.734375,7.246983,6.270777,5.094786,8.154429
1003.738281,10.425852,4.048986,6.047592,3.244415
1003.742188,0.319982,2.037474,0.963710,4.875216
1003.746094,-1.760817,5.278942,-2.652772,-1.514229
1003.750000,3.007498,8.682472,0.582203,-2.142996
1003.753906,-6.350107,-1.615275,0.908738,-5.452764
1003.757812,-8.958080,-6.921414,-3.996299,1.389712
1003.761719,-9.533232,-6.847412,-8.106050,-0.877228
1003.765625,-13.233702,-10.939708,1.338015,-5.125013
1003.769531,-4.653695,-9.497861,-2.789834,-11.970203
1003.773438,-2.029984,-6.847413,-15.127423,-8.951266
1003.777344,-14.987668,-7.920648,-4.004648,-3.951778
1003.781250,-4.382427,-11.945237,-14.699049,-10.121128
1003.785156,-4.235244,-10.200456,-7.272756,-8.945102
1003.789062,-0.403167,-13.255675,-15.205966,-7.925495
1003.792969,-3.604156,-10.596253,-4.741510,-5.955482
1003.796875,-1.196122,-1.499617,-4.079605,1.348186
1003.800781,2.483508,2.298565,5.256235,-1.294745
1003.804688,10.740076,2.920597,2.583846,3.493248
1003.808594,-2.023695,5.503995,6.476644,-4.254339
1003.812500,5.616493,11.795194,5.373826,3.851450
1003.816406,10.839129,13.496754,15.533825,7.341559
1003.820312,6.995224,10.358681,12.483597,-0.319798
1003.824219,8.294316,10.630122,16.883233,8.717276
1003.828125,9.160662,7.913033,10.316776,10.355214
1003.832031,10.673639,8.602767,11.284741,12.031978
1003.835938,10.198412,10.860448,5.957673,4.472985
1003.839844,0.909158,8.792381,6.200657,0.181063
1003.843750,4.948681,-1.544741,1.874303,3.513310
1003.847656,4.440555,2.661794,5.078606,8.374352
1003.851562,-0.103796,-4.197653,-4.369918,5.548942
1003.855469,-1.205822,-4.821407,-0.399930,-3.169514
1003.859375,-3.055137,-10.547602,-1.898496,-14.511807
1003.863281,-6.156785,-7.249272,-9.086114,-11.732902
1003.867188,-9.825203,-8.375948,-7.865244,-14.319987
1003.871094,-13.046690,-10.169342,-8.209071,-9.016904
1003.875000,-3.125627,-8.558492,-4.552122,-7.494281
1003.878906,-6.934083,-8.658273,-3.706040,-18.419923
1003.882812,-11.399878,-12.965006,-6.965363,-16.733727
1003.886719,-7.952923,-12.757370,-13.591300,-10.298539
1003.890625,-5.696524,-7.058877,-4.222388,-5.946696
1003.894531,1.940884,-1.910212,-0.581577,-2.656613
1003.898438,-2.542243,4.136767,-2.255654,-4.238871
1003.902344,9.766320,3.865539,3.736726,2.770514
1003.906250,0.632255,2.890856,9.705744,1.098002
1003.910156,-1.043831,8.139059,6.840406,0.402327
1003.914062,7.463653,9.899890,4.960643,4.968885
1003.917969,5.903085,8.713979,14.515866,9.018708
1003.921875,5.633516,16.391376,3.447400,10.054686
1003.925781,7.945880,14.287477,8.395812,10.423742
1003.929688,10.271797,8.869823,5.380559,7.541929
1003.933594,6.901090,7.749170,7.720136,13.346557
1003.937500,5.217952,7.779537,4.720224,11.855620
1003.941406,7.166461,2.143254,8.314056,0.508402
1003.945312,2.639791,-2.865958,-0.732506,0.561282
1003.949219,-5.588815,-2.173525,2.191954,5.266817
1003.953125,-1.808739,-3.967521,-6.148046,-0.292234
1003.957031,-0.273240,-4.291956,-4.763371,-3.441031
1003.960938,-2.671533,-2.247120,-1.131139,-3.773428
1003.964844,-6.937628,-8.662985,-7.124712,-1.453846
1003.968750,-17.849120,-11.040664,-10.262083,-10.172221
1003.972656,-8.323504,-9.977057,-16.995225,-0.978685
1003.976562,-8.030804,-8.235251,1.856199,-6.901645
1003.980469,-3.034986,-4.946957,-7.637567,-9.984499
1003.984375,-11.522921,-7.818279,-7.998561,-3.892051
1003.988281,-7.104758,-7.216685,-7.881899,-8.272421
1003.992188,-0.128466,-7.395968,-8.682438,-1.861637
1003.996094,-7.676343,2.008066,-2.729818,-7.499755
1004.000000,3.629305,7.344271,-0.087579,-1.670604
1004.003906,2.852519,1.122549,2.341400,1.643511
1004.007812,9.423903,4.741805,3.042992,10.438684
1004.011719,5.847818,5.561686,4.715997,4.413846
1004.015625,1.196376,6.002275,4.094559,7.047903
1004.019531,6.819219,8.692727,5.264909,5.769209
1004.023438,8.196413,5.650362,2.893550,2.317658
1004.027344,9.971441,10.082639,20.446728,13.497931
1004.031250,7.334780,7.962365,7.855732,15.027618
1004.035156,5.608698,8.293037,7.326343,3.882991
1004.039062,5.550214,4.561118,11.384718,11.099528
1004.042969,1.160565,6.999153,2.622698,5.268007
1004.046875,0.806020,-0.350830,4.047104,1.720654
1004.050781,-0.618252,-0.324161,-3.470625,3.954632
1004.054688,-0.789679,-2.784348,-6.657364,-1.863667
1004.058594,-7.369429,3.614213,-7.740908,-6.901048
1004.062500,-1.718393,-10.246308,-15.638535,-6.669978
1004.066406,-10.663230,-6.545120,-5.929126,-7.841213
1004.070312,-15.296772,-14.163873,-11.702843,-4.725753
1004.074219,-6.323464,-5.510513,-2.482520,-16.785654
1004.078125,-9.312522,-8.018041,-2.473048,-13.128821
1004.082031,-11.093161,-7.999402,-7.109638,-5.174249
1004.085938,-4.335829,-10.154192,-2.968484,-14.629675
1004.089844,-3.908237,-1.481552,-6.687141,-0.410103
1004.093750,-10.999108,1.032909,-1.329740,-2.707866
1004.097656,-6.699406,-5.475397,-4.678351,-5.771389
1004.101562,6.631775,-7.185192,-3.472392,-0.200003
1004.105469,-2.668342,-3.655707,-3.067999,12.179588
1004.109375,3.785138,4.302446,4.697962,3.240151
1004.113281,2.685808,4.248728,3.560040,8.482918
1004.117188,6.441936,9.536573,3.260097,7.179833
1004.121094,4.299622,15.765449,12.768450,9.860528
1004.125000,10.287490,3.116389,0.551573,7.574817
1004.128906,6.122783,12.786734,5.476242,14.517782
1004.132812,8.159384,7.186657,3.288029,4.946631
1004.136719,13.761522,6.278786,12.702259,11.176467
1004.140625,-4.976627,0.332614,1.593639,2.947202
1004.144531,1.255133,6.747956,9.038610,1.325780
1004.148438,-2.021979,-0.075307,-3.806241,2.984060
1004.152344,-3.016708,-0.258147,1.723916,-3.768019
1004.156250,-3.303412,-2.809883,-4.903296,0.337674
1004.160156,-5.689570,-1.669786,3.221876,-13.409556
1004.164062,-7.549854,-9.777904,-9.773268,-0.669443
1004.167969,-17.234458,-12.365013,-4.225880,-13.135236
1004.171875,-7.071458,-8.405004,-11.348830,-15.784660
1004.175781,-6.888639,-10.300655,-11.072446,-15.592641
1004.179688,-0.010311,-17.871688,-3.847432,-6.530887
1004.183594,-10.447557,-10.407944,-6.951496,-1.394567
1004.187500,-12.619133,-4.104318,-6.724061,-11.512278
1004.191406,-11.622959,0.966763,-6.791230,-6.240355
1004.195312,-6.692811,-2.294403,-7.136882,-2.725756
1004.199219,-1.629850,-8.743221,3.010322,8.855095
1004.203125,2.004969,0.947429,1.291034,-2.390369
1004.207031,0.577958,2.838207,8.378819,-0.908055
1004.210938,16.921629,7.302498,2.195335,5.410751
1004.214844,10.229852,9.178474,12.940749,8.154913
1004.218750,8.436750,13.551272,6.089666,5.123438
1004.222656,7.297894,17.621448,4.214825,5.814846
1004.226562,12.282229,10.180406,9.186253,7.334452
1004.230469,11.703380,7.901374,6.975163,17.013499
1004.234375,11.628069,1.606529,7.415832,6.803720
1004.238281,9.911544,3.897305,10.573298,12.559197
1004.242188,-0.866033,1.176121,6.829149,0.960047
1004.246094,1.513459,0.864652,4.755245,-1.923409
1004.250000,1.097391,-4.013607,0.755939,3.371680
1004.253906,-2.752538,4.076914,0.143270,-5.234831
1004.257812,-1.787697,-3.732580,-10.864425,-8.793073
1004.261719,-9.333938,-6.708540,-14.762420,-3.095016
1004.265625,-14.451233,-8.490370,-12.153065,-9.068431
1004.269531,-4.594321,-7.140803,-9.728946,-8.458603
1004.273438,-4.783302,-15.556780,-20.628422,-11.157133
1004.277344,-11.629605,-11.263736,-11.836411,-8.607518
1004.281250,-13.321820,-2.612306,-8.792596,-9.345492
1004.285156,-9.101222,-11.388548,-1.408972,-11.412278
1004.289062,-8.801056,-9.142249,-8.304688,-10.979099
1004.292969,-2.559599,-8.386689,-2.490499,-2.723969
1004.296875,-3.791217,3.285067,-11.003600,-7.401804
1004.300781,0.528896,0.019583,2.585965,-3.468235
1004.304688,-1.496855,3.927539,9.618752,1.869947
1004.308594,-1.658937,10.848532,12.470115,5.649563
1004.312500,3.726648,4.063087,-0.344431,8.016343
1004.316406,3.360973,2.911790,12.699476,3.498198
1004.320312,6.766044,10.986654,9.534779,3.351783
1004.324219,10.132155,15.541746,11.013833,7.389913
1004.328125,9.593811,6.655917,5.600674,7.941449
1004.332031,18.602013,6.111504,16.613270,11.457828
1004.335938,8.766418,5.833532,10.502492,5.862775
1004.339844,0.394584,9.639533,-4.188538,10.568470
1004.343750,0.506611,-0.096549,4.845080,0.465627
1004.347656,-0.734465,4.430949,0.858493,-1.111898
1004.351562,-1.139928,-4.545810,-2.616993,-2.277679
1004.355469,5.393216,3.072765,-2.239169,-7.218734
1004.359375,-3.325344,-7.664293,-8.813822,-16.717550
1004.363281,-11.526926,-6.967337,-9.995855,-3.859238
1004.367188,-9.879921,-8.366946,-9.476763,-9.139207
1004.371094,-15.888916,-7.181971,-5.865820,-2.291508
1004.375000,-16.245089,-8.520064,-11.622421,-12.914665
1004.378906,-8.422300,-11.324826,-16.895197,-8.600447
1004.382812,-8.992805,-14.517258,-11.790467,-10.685513
1004.386719,-6.053879,-10.655669,-3.716645,-8.376279
1004.390625,-8.211351,-2.575399,-9.065983,-9.365154
1004.394531,-1.081635,-0.304277,3.072287,1.044288
1004.398438,-5.419539,9.034374,-6.546367,3.955104
1004.402344,-2.451282,-1.395224,0.753307,-4.508853
1004.406250,-3.115699,-4.356867,2.364360,-4.403864
1004.410156,11.458528,3.264498,3.675832,8.537353
1004.414062,12.379655,7.279353,5.103891,8.794990
1004.417969,7.207360,14.020739,10.498113,7.802981
1004.421875,11.926094,13.421428,8.695414,6.906452
1004.425781,4.905350,6.951812,11.012234,11.666807
1004.429688,4.528101,11.542643,18.560303,13.893672
1004.433594,9.067303,12.184649,10.106455,13.716807
1004.437500,8.799308,7.889975,3.654420,11.098564
1004.441406,6.450280,3.301887,0.892252,13.028299
1004.445312,7.390305,12.531464,2.376460,5.296587
1004.449219,-0.957437,-2.767670,4.713804,4.821098
1004.453125,4.727957,-8.717395,-10.757708,-4.682787
1004.457031,-3.685597,-4.489629,-10.723166,-1.739028
1004.460938,-8.378870,-7.062756,-3.590442,-10.501399
1004.464844,-15.903333,-4.251343,-1.106423,-12.750499
1004.468750,-13.567302,-8.025993,-11.071419,-9.983932
1004.472656,-10.595190,4.039875,-11.926410,-13.515512
1004.476562,-9.283151,-11.473131,-10.084216,-9.581147
1004.480469,-8.784761,-6.111129,-7.263949,-10.944234
1004.484375,-8.275263,-11.854117,-13.260452,2.475679
1004.488281,-2.744782,-3.651799,-2.865858,-0.191001
1004.492188,1.018981,-3.487990,-2.841715,-0.814112
1004.496094,-5.248162,-3.142663,-3.320692,-14.230132
1004.500000,-3.750065,-2.369188,-4.292207,1.586178
1004.503906,1.743186,6.289429,-1.108040,-1.489578
1004.507812,5.432835,1.415124,7.202909,1.916473
1004.511719,10.548076,8.615692,7.886604,2.634485
1004.515625,9.812895,15.034186,4.646556,7.386164
1004.519531,4.786632,6.122233,15.635526,11.476117
1004.523438,6.776410,7.814229,12.842294,6.285104
1004.527344,8.996239,9.232867,14.986305,-3.226668
1004.531250,9.393429,9.611624,7.066828,6.965893
1004.535156,4.178473,4.245425,10.787131,6.699130
1004.539062,-1.765534,4.880933,7.482535,6.595291
1004.542969,5.254642,2.128852,-7.176946,9.912056
1004.546875,6.672815,0.838060,7.482955,-3.277722
1004.550781,1.052843,0.738504,2.377954,4.305256
1004.554688,-6.864967,-1.642890,-4.203338,0.343295
1004.558594,-1.080642,-7.245937,-6.244716,-9.986478
1004.562500,-9.833487,-6.786516,-5.794843,-4.861022
1004.566406,-3.686246,-7.377038,-1.348637,-14.838546
1004.570312,-15.446474,-10.308890,-14.224045,-12.287621
1004.574219,-8.676355,-11.699700,-1.224588,-8.617977
1004.578125,-7.796339,-14.680552,-14.161537,-14.485630
1004.582031,-4.352798,-9.889805,-14.128048,-7.672302
1004.585938,-10.499091,-8.893808,-10.306002,-6.893902
1004.589844,-0.177167,-1.021927,-5.077071,-2.005788
1004.593750,-4.456481,-4.877073,-9.694940,-0.876565
1004.597656,-1.162236,2.666756,-2.735375,-7.460202
1004.601562,5.284012,7.294969,1.020044,1.834510
1004.605469,1.907249,5.533078,5.700517,5.595616
1004.609375,0.385379,7.469162,5.740516,7.107825
1004.613281,3.467585,5.192022,4.985095,8.693856
1004.617188,-0.573403,3.588807,6.187328,16.040325
1004.621094,10.442768,14.587668,9.512787,13.901475
1004.625000,5.010377,16.933767,13.696144,12.017073
1004.628906,9.307069,8.053558,9.632908,6.633127
1004.632812,1.676467,7.598911,5.119070,10.162730
1004.636719,11.522781,15.735595,14.535056,16.255877
1004.640625,8.153845,4.236951,-2.816036,11.965342
1004.644531,6.353668,6.208189,-0.842132,9.148623
1004.648438,6.330266,8.272245,-1.824115,0.557680
1004.652344,-2.245764,-2.365820,-4.187605,-2.501403
1004.656250,-8.290797,-5.275110,-5.136716,-4.615061
1004.660156,-8.665907,3.553050,-5.186096,-7.406490
1004.664062,-14.547616,-6.907782,-6.965613,-15.180184
1004.667969,-10.740838,-12.795641,-7.392791,-9.316489
1004.671875,-7.566664,-17.190729,-9.012853,-10.634382
1004.675781,-3.467432,-11.553476,-9.194698,-9.875193
1004.679688,-6.826398,-8.544760,-11.693227,-10.915459
1004.683594,-11.016483,-9.434982,-8.847827,-4.607433
1004.687500,-4.719934,-1.284890,-7.716961,-6.949635
1004.691406,-7.986919,-8.685648,-5.917469,0.752212
1004.695312,0.386640,0.731736,1.558378,0.134613
1004.699219,-0.452758,-2.024156,0.404976,-4.211038
1004.703125,-0.441765,5.261803,0.578706,5.721762
1004.707031,2.693958,5.991389,3.994450,3.717890
1004.710938,9.775550,8.188602,7.268389,6.360098
1004.714844,0.192841,5.097535,10.445109,5.448426
1004.718750,10.680837,5.771297,11.964135,8.198010
1004.722656,12.576547,8.293442,5.150474,11.834611
1004.726562,16.389741,9.882303,7.545978,8.221289
1004.730469,8.712582,14.575050,10.385047,13.498882
1004.734375,7.749487,8.792413,11.950162,1.672398
1004.738281,6.440807,-1.258901,6.694928,4.976367
1004.742188,0.752903,1.771188,7.875181,2.804503
1004.746094,7.728747,5.058424,1.937977,6.358238
1004.750000,-6.100373,5.007006,8.656436,0.698926
1004.753906,-5.077963,-1.199064,-4.748578,7.022154
1004.757812,-7.159333,-0.995972,-0.186990,-4.594894
1004.761719,-9.242906,-9.217381,-9.919971,-10.852367
1004.765625,-5.185187,-5.108084,-5.519740,-6.990886
1004.769531,-5.282374,-12.482175,-9.539944,-8.254111
1004.773438,-6.983064,-10.210994,-4.613218,-12.716104
1004.777344,-1.245309,-11.112489,-12.358298,-6.483647
1004.781250,-11.054119,-11.527316,-13.099874,-6.176994
1004.785156,-5.735589,-8.691330,-9.169498,-2.489017
1004.789062,-2.029408,-2.687177,-6.099178,-4.348285
1004.792969,-1.547195,2.004176,-6.921507,-11.611555
1004.796875,0.817506,1.100090,-7.282990,-9.270754
1004.800781,-1.274230,2.831280,-2.667951,-0.230780
1004.804688,1.314747,0.627352,6.688689,3.186926
1004.808594,7.566465,3.682266,12.913985,4.477516
1004.812500,7.572876,6.402973,3.554759,8.696517
1004.816406,11.647390,10.217515,8.686438,13.515968
1004.820312,15.073661,11.262698,9.312972,7.237249
1004.824219,5.745628,11.314387,2.211391,11.856231
1004.828125,3.136185,15.569834,11.088576,8.816388
1004.832031,9.092247,15.872213,11.051610,5.980051
1004.835938,9.200011,11.215851,10.148620,6.761745
1004.839844,4.716715,7.373531,4.421938,1.179787
1004.843750,-3.320691,3.384316,-3.910573,5.555237
1004.847656,7.883563,-3.069715,2.699630,-4.320333
1004.851562,-4.140233,-3.032465,-0.910871,0.708234
1004.855469,-12.363319,-4.185853,-8.815863,-9.342348
1004.859375,-5.485403,2.301598,-7.112444,-4.038494
1004.863281,-9.673175,-9.172407,-10.039865,-0.807077
1004.867188,-10.048648,-12.195093,-11.733275,-9.791080
1004.871094,-10.750436,-6.184481,-8.358423,-9.613728
1004.875000,-10.238417,-7.738347,-4.083991,-8.945985
1004.878906,-8.862371,-8.123370,-9.049871,-2.987590
1004.882812,-11.256192,-7.861093,-13.338138,-6.167796
1004.886719,-2.292483,3.199584,-0.057268,-9.716432
1004.890625,-7.584854,-8.693755,4.738155,-6.431523
1004.894531,-4.507682,-3.685369,-13.946484,-0.048075
1004.898438,2.933267,2.196182,-0.898874,-1.782610
1004.902344,-4.048179,5.444920,-0.636251,1.991933
1004.906250,2.060647,6.240928,5.075362,5.070405
1004.910156,2.239273,13.822037,4.731205,9.737483
1004.914062,6.574542,3.094836,11.530896,8.089274
1004.917969,5.046357,12.956181,13.731591,2.050660
1004.921875,4.981328,13.511327,7.431742,5.947994
1004.925781,7.519459,7.285916,14.904541,5.674374
1004.929688,12.613056,13.183051,7.388258,4.286632
1004.933594,-2.308421,9.643383,5.051004,3.875220
1004.937500,3.551099,10.097364,4.478932,1.796840
1004.941406,0.591923,12.638168,-2.638578,10.053162
1004.945312,-2.018862,3.048890,4.597689,1.037850
1004.949219,-0.772269,2.422951,-5.538550,2.711039
1004.953125,-9.289817,-0.575561,-5.220256,-9.763464
1004.957031,-4.184211,-7.758700,-10.720074,0.496574
1004.960938,-12.011878,-8.684045,-5.965778,-5.605882
1004.964844,-1.492551,-6.467755,-11.025919,-4.324570
1004.968750,-10.083609,-4.865445,0.320846,-5.812384
1004.972656,-9.593806,-12.152327,-0.776130,-16.233073
1004.976562,-6.281978,-13.512811,-13.380814,-1.609565
1004.980469,-16.619837,-8.611839,-9.027073,-12.466700
1004.984375,-10.603213,-15.244118,-12.534248,-8.199628
1004.988281,-10.907951,-4.298484,-6.084383,-9.411699
1004.992188,-4.843215,-1.732825,-6.511376,-4.655827
1004.996094,-9.001204,-0.841977,-6.730020,-2.452178
1005.000000,-0.460450,6.961973,7.671823,2.640135
1005.003906,8.399814,6.101626,10.255393,-0.023162
1005.007812,3.466590,0.152788,6.206398,1.386133
1005.011719,6.311188,7.044610,-0.610194,9.204927
1005.015625,3.326079,7.459829,9.604742,2.050753
1005.019531,6.740335,11.928402,9.991709,8.705921
1005.023438,4.608891,15.611203,11.544342,13.841272
1005.027344,11.070875,6.927242,16.955939,9.520246
1005.031250,5.307460,18.493644,18.222545,8.327400
1005.035156,11.101199,7.178757,10.706713,11.462612
1005.039062,10.141099,7.214106,4.877658,3.910328
1005.042969,10.959559,7.287888,-1.436549,5.568349
1005.046875,1.285821,-1.932567,-0.863590,1.791364
1005.050781,8.105204,-1.131671,-2.859153,5.800165
1005.054688,-0.201864,-6.278103,-1.172303,1.522982
1005.058594,-12.076367,-5.663260,-11.648966,-1.974457
1005.062500,-6.111210,-7.375372,1.359916,-4.500198
1005.066406,-9.503781,-8.069669,-6.274558,-11.319766
1005.070312,-7.274088,-0.293425,-7.962229,-20.067167
1005.074219,-5.909229,-16.525798,-13.397408,-6.170190
1005.078125,-7.230957,-16.846584,-22.354296,-10.720786
1005.082031,-3.731264,-4.754689,-8.663090,-16.011377
1005.085938,-15.768065,0.462459,-11.285568,-6.641877
1005.089844,-8.683736,0.727197,-2.166823,-5.030622
1005.093750,-3.149881,-0.676814,2.440934,-2.252340
1005.097656,-0.292643,-2.279453,-5.392750,-1.595151
1005.101562,0.296715,5.471130,-0.931792,3.701090
1005.105469,-0.601727,4.275029,-0.888268,8.242642
1005.109375,11.915627,1.873789,8.318999,2.774624
1005.113281,7.695529,10.674504,3.900441,3.645501
1005.117188,12.095147,4.328143,13.200173,2.679813
1005.121094,7.024146,12.322178,11.238716,2.099997
1005.125000,16.046877,6.063242,14.625858,9.972214
1005.128906,5.713016,14.115595,4.319808,10.731773
1005.132812,5.176429,10.014348,8.642287,9.159693
1005.136719,14.406848,9.069543,0.830118,3.206743
1005.140625,8.061916,8.397088,5.292309,8.373539
1005.144531,0.226022,8.749156,7.764935,-2.935403
1005.148438,5.032522,-2.010020,4.410539,2.494915
1005.152344,3.335996,-4.638811,-0.867336,1.280371
1005.156250,-5.983541,-1.134120,-3.446783,-0.797432
1005.160156,-13.065408,-0.352242,0.042864,-0.836710
1005.164062,-5.792431,-10.439350,0.236986,-5.152673
1005.167969,-14.116476,-14.132033,-6.290444,-5.493546
1005.171875,-9.272244,-6.181374,-4.193449,-4.379053
1005.175781,-10.056150,-9.700509,-16.961003,-11.214688
1005.179688,1.934557,-5.822383,-10.643617,-15.815717
1005.183594,-10.562428,-2.954932,-7.949012,-1.786174
1005.187500,-7.751935,-11.734643,-3.219256,-1.998077
1005.191406,-3.267857,-4.194880,-2.958784,-1.631159
1005.195312,3.014505,-9.471943,0.236369,6.585953
1005.199219,0.634013,-1.753865,-2.946759,-4.199594
1005.203125,-8.608138,-1.781547,2.671711,1.776539
1005.207031,3.283538,7.454299,7.870222,9.519909
1005.210938,12.159896,15.110136,4.180500,2.973806
1005.214844,9.674705,14.224798,8.208901,10.900628
1005.218750,11.907297,3.863030,9.456835,5.219848
1005.222656,11.457389,11.522300,10.239842,6.043863
1005.226562,10.529442,6.791226,7.151932,13.016553
1005.230469,2.713505,12.625807,14.987590,5.340378
1005.234375,6.929501,4.832653,5.842173,8.549757
1005.238281,2.134794,12.774194,6.150490,-2.363532
1005.242188,5.509057,0.971266,4.150749,2.157846
1005.246094,-1.015306,7.694882,4.291858,-5.619302
1005.250000,1.016343,2.324099,4.609809,1.331703
1005.253906,-2.111637,-6.282348,-1.059141,1.488309
1005.257812,-10.099329,4.006219,0.510035,-5.977663
1005.261719,-9.078523,-8.234285,-4.330361,-11.399208
1005.265625,-4.314168,-2.674559,-6.780354,-15.609874
1005.269531,-15.521547,-7.798470,-4.720111,-12.559667
1005.273438,-3.060615,-12.198783,-12.773949,-11.296800
1005.277344,-11.268739,-9.437742,-17.590659,-12.976383
1005.281250,-17.751285,-11.481312,-8.158569,-15.154853
1005.285156,-3.074214,-13.385663,-10.477838,-8.970734
1005.289062,-3.044455,-4.447580,-9.379335,-8.022809
1005.292969,-5.307443,-7.883350,-6.073292,-4.455935
1005.296875,-1.664703,3.440343,-5.439148,-3.075176
1005.300781,-1.501174,-3.112346,7.363031,-0.646218
1005.304688,8.631381,7.268046,-0.273176,9.760828
1005.308594,7.671081,6.802329,0.912276,8.882389
1005.312500,6.160902,10.616210,4.991740,11.889890
1005.316406,5.254845,9.117289,7.266307,12.822490
1005.320312,14.793421,5.774236,12.349567,11.589167
1005.324219,2.759893,7.661256,9.790501,1.603584
1005.328125,15.283326,2.367576,7.124704,11.370723
1005.332031,3.084405,8.980267,10.911716,9.518236
1005.335938,12.581320,9.769202,6.452453,14.442623
1005.339844,3.250886,-0.673782,4.526712,17.459238
1005.343750,-0.424292,10.062539,-2.624689,4.966349
1005.347656,6.668116,-2.741193,6.520337,-4.179500
1005.351562,-2.423368,-6.307668,-1.159266,-3.562152
1005.355469,-2.257824,-3.959579,-3.605848,1.190714
1005.359375,-0.029387,-6.350302,-4.666521,-0.466663
1005.363281,-14.592687,-5.311269,-10.599097,-10.627384
1005.367188,-2.227078,-0.167906,-9.269581,-8.485818
1005.371094,-8.853974,-5.091270,-11.831002,-6.831237
1005.375000,-11.073641,-7.806129,-9.170137,-7.423358
1005.378906,-16.048350,-12.870207,-15.904131,-10.245067
1005.382812,-5.525091,-3.031487,-8.560526,-8.204691
1005.386719,-6.971806,-4.470273,-8.191249,-5.814822
1005.390625,-7.588141,-11.692223,-8.801481,-0.477752
1005.394531,-9.041123,-6.756991,1.745319,-0.090344
1005.398438,-2.558693,1.220099,-3.336642,2.430830
1005.402344,0.834930,5.045158,4.167925,-1.895855
1005.406250,3.134993,7.769018,-0.841820,2.232806
1005.410156,5.152988,6.482478,4.320137,0.379000
1005.414062,5.715851,3.420134,-0.115806,8.770981
1005.417969,8.919050,7.835820,7.872261,13.349719
1005.421875,12.272112,6.001739,12.809490,14.489029
1005.425781,10.244807,11.939425,14.117212,9.136903
1005.429688,5.436458,11.486568,14.670961,8.760477
1005.433594,8.105214,4.103956,8.119512,8.510216
1005.437500,-0.629542,0.760054,4.566713,9.513502
1005.441406,3.567924,4.871700,4.274258,5.740658
1005.445312,2.588647,6.400532,11.515595,8.595693
1005.449219,1.098801,-1.837059,-0.982080,2.265139
1005.453125,-0.882401,-0.461010,1.469684,3.876192
1005.457031,-5.044725,-7.353694,-2.757063,-2.586309
1005.460938,-1.494348,-7.427346,-3.727630,6.494772
1005.464844,-5.185656,-7.974422,-7.687459,-9.287227
1005.468750,-13.265940,-7.961303,-10.751916,-8.898647
1005.472656,-11.690041,-7.669503,-12.971903,-14.534998
1005.476562,-13.597565,-9.984008,-15.818729,-15.744047
1005.480469,-10.438783,-9.881238,-13.378042,-8.935258
1005.484375,-7.214175,-6.817700,-10.857451,-9.325415
1005.488281,-4.841393,-9.818410,-0.910164,-5.667924
1005.492188,-4.472091,-2.693696,-5.455627,-3.571090
1005.496094,-5.497067,3.995767,-2.931029,2.097332
1005.500000,-1.638782,-1.350396,0.417531,0.845213
1005.503906,0.540903,2.091403,2.120005,1.757624
1005.507812,2.058505,9.915273,3.737273,-2.612785
1005.511719,4.943199,7.929515,6.593170,10.699476
1005.515625,11.292434,16.575720,3.250736,4.391890
1005.519531,9.885987,15.516379,10.028016,8.062754
1005.523438,1.059471,13.143773,10.201653,17.786489
1005.527344,10.324522,10.083389,8.415274,9.894938
1005.531250,9.687848,9.791476,8.714272,16.045868
1005.535156,5.809667,2.793760,2.382744,10.036174
1005.539062,1.218392,10.863075,8.270496,5.073526
1005.542969,5.655787,3.207909,10.186809,5.703211
1005.546875,0.373485,1.339914,-2.878014,0.329517
1005.550781,-0.613885,-2.166999,3.246899,3.771211
1005.554688,0.403131,-10.308142,-6.511346,-6.065910
1005.558594,-5.906704,-6.011264,-0.804026,-6.197954
1005.562500,-5.519391,-1.714887,0.907374,-5.911455
1005.566406,-3.719125,-8.886494,-11.561600,-14.055902
1005.570312,-7.157661,-17.682342,-8.598255,-7.813690
1005.574219,-8.193312,-10.284457,-9.291390,-8.632272
1005.578125,-11.926135,-6.499710,-6.435573,-9.926527
1005.582031,-6.022676,-10.102914,-12.669996,-11.590280
1005.585938,-14.637583,-10.674134,-16.215055,-6.933532
1005.589844,-6.517636,-11.489068,-0.399855,-9.443744
1005.593750,-7.456066,-7.317430,-6.410072,-5.219698
1005.597656,0.530919,-5.916421,0.288902,-6.876405
1005.601562,-4.551884,-0.314991,-1.131091,0.955099
1005.605469,1.017583,1.079549,8.424994,2.363298
1005.609375,7.900928,4.169130,2.194793,4.045513
1005.613281,6.510950,7.763427,6.251574,4.953577
1005.617188,10.610022,-0.958026,4.900853,9.100037
1005.621094,12.344226,9.776595,8.497859,7.304030
1005.625000,8.983652,9.794847,8.939468,8.735837
1005.628906,11.955818,10.461285,14.309740,6.021302
1005.632812,9.039292,8.568170,9.398032,10.689125
1005.636719,5.764019,5.500517,3.199332,0.585590
1005.640625,4.343416,7.114068,5.402984,11.554442
1005.644531,4.023535,0.520795,3.516979,-0.784346
1005.648438,2.765008,1.959009,0.394783,-1.784362
1005.652344,-2.064463,-4.631802,-4.485224,-1.623411
1005.656250,-2.523963,-4.255916,-9.133044,-1.023273
1005.660156,-6.548049,-8.565567,-5.842425,-6.674178
1005.664062,-6.951245,-8.993246,0.826594,-7.617936
1005.667969,-10.400781,-6.129061,-11.900982,-9.211785
1005.671875,-11.551096,-9.315040,-15.969268,-13.684316
1005.675781,-10.240677,-14.601045,-4.028430,-4.763871
1005.679688,-3.634335,-12.159170,-9.766528,-6.947004
1005.683594,-5.361078,-7.767506,-3.205199,-8.478610
1005.687500,-1.094162,-8.518265,-10.281151,-5.841815
1005.691406,-6.468678,-10.180523,-11.832721,-7.168489
1005.695312,-2.101531,-2.667247,-1.277153,-6.985427
1005.699219,-0.582389,-5.366630,8.522507,3.872988
1005.703125,-1.721615,5.068664,-1.947224,0.472813
1005.707031,5.740172,1.777601,1.148302,8.923048
1005.710938,0.909217,8.039678,2.088925,11.108713
1005.714844,10.161508,-0.553274,11.162430,8.461869
1005.718750,7.407635,8.417953,2.939994,11.779392
1005.722656,4.567138,5.310098,9.518866,9.862576
1005.726562,11.426760,3.156771,5.582819,14.559227
1005.730469,10.825449,16.338871,7.087814,9.019161
1005.734375,7.924268,6.977640,11.589158,8.593747
1005.738281,3.287627,5.654026,7.379536,10.824091
1005.742188,-0.198560,7.892428,6.765681,5.913802
1005.746094,0.260451,2.875084,1.940311,-1.602505
1005.750000,4.813860,-1.732419,1.512402,-4.890535
1005.753906,-4.182365,-1.208613,4.045181,-6.884293
1005.757812,-3.679400,5.757374,-4.554944,-3.331010
1005.761719,-14.022625,0.406016,-17.875747,-3.009013
1005.765625,-5.689945,-5.768848,-9.954747,-7.716422
1005.769531,-10.859745,-4.951861,-8.124873,-12.346443
1005.773438,-10.113694,-7.779325,-7.814174,-12.284619
1005.777344,-10.866909,-12.164877,-14.491058,-8.359458
1005.781250,-9.381186,-11.584254,-10.308471,-8.452764
1005.785156,-0.690422,-3.113035,-6.845522,-14.318862
1005.789062,-0.006275,-1.044210,-12.547219,-4.264295
1005.792969,-8.275501,-8.191084,4.030888,0.190121
1005.796875,3.697283,-8.736769,2.661868,1.674171
1005.800781,3.273998,3.149500,0.808203,1.038921
1005.804688,-3.000390,6.677289,2.881117,2.146614
1005.808594,14.320165,9.981794,-1.461544,4.019884
1005.812500,9.360707,5.495268,10.469127,3.309139
1005.816406,10.206389,10.941843,7.814872,3.565727
1005.820312,8.612984,19.948595,10.428330,16.512262
1005.824219,9.531206,7.811913,10.099874,7.685126
1005.828125,10.867793,8.636589,7.433056,11.833844
1005.832031,9.776194,12.429689,5.727904,6.321341
1005.835938,7.385751,12.440382,6.949309,11.580948
1005.839844,1.953545,-1.376033,14.403149,14.482179
1005.843750,7.500950,5.750294,1.100850,6.000444
1005.847656,4.139727,4.293908,-3.432141,3.153639
1005.851562,2.911849,1.481149,-1.283321,-6.994890
1005.855469,-3.006272,-1.883347,-9.480458,-3.375299
1005.859375,-0.654739,-2.440896,2.959414,-5.653873
1005.863281,-0.020110,-12.320850,-9.227209,-13.476306
1005.867188,-4.743872,-13.627115,-6.087909,-5.922841
1005.871094,-12.992902,-5.838969,-7.459613,-17.874926
1005.875000,-10.317413,-2.933470,-11.393331,-15.918932
1005.878906,-5.963197,-6.052840,-10.651499,-7.355940
1005.882812,-12.184488,-15.851168,-8.391905,-12.009862
1005.886719,-14.377244,-7.275048,-11.343369,-12.983231
1005.890625,-11.286789,-2.298730,-5.429744,-5.517840
1005.894531,-1.899825,-6.331101,-9.748844,-6.184390
1005.898438,2.541855,-1.328811,4.564604,-3.762970
1005.902344,6.291444,2.530418,-5.189738,-0.478365
1005.906250,5.265381,0.218542,2.995717,1.569824
1005.910156,10.867032,12.589318,3.499050,3.875683
1005.914062,9.256130,12.160421,-2.534755,3.274204
1005.917969,12.204071,10.329476,17.000397,11.799621
1005.921875,7.292610,10.870306,10.571754,13.566963
1005.925781,10.602006,12.889824,2.067219,15.114752
1005.929688,14.162779,10.052090,9.991265,5.213534
1005.933594,8.660645,14.681335,5.177239,8.237062
1005.937500,16.727310,9.233277,9.874392,9.305016
1005.941406,7.519326,2.897134,1.810425,3.337230
1005.945312,2.709246,1.300479,10.769252,2.406511
1005.949219,0.485728,-2.623970,2.230901,1.287002
1005.953125,-0.487775,-0.217723,-3.201224,-5.554775
1005.957031,-4.904215,-2.299356,-3.051132,2.058215
1005.960938,-4.545437,-8.327110,-8.485754,-4.928026
1005.964844,-9.391637,-6.696969,-9.940110,-9.429065
1005.968750,-10.794266,-5.045880,-8.691290,-4.065263
1005.972656,-4.851248,-6.957178,-7.596558,-14.405541
1005.976562,-11.763098,-10.546352,-8.465206,-17.637265
1005.980469,-4.056201,-8.479094,-10.866971,-12.154181
1005.984375,-5.327257,-18.499592,-6.599168,-5.432213
1005.988281,-13.828604,-5.031532,-7.000027,-6.713141
1005.992188,-3.483379,2.646909,1.929833,1.589794
1005.996094,-4.426717,0.510855,0.837322,-3.604974
1006.000000,0.319326,9.242283,3.048783,-1.652602
1006.003906,7.768954,-2.851052,4.202536,3.885708
1006.007812,7.975699,3.988191,5.364507,3.999927
1006.011719,10.859523,2.253322,1.416989,11.336359
1006.015625,6.299578,10.534050,10.619370,17.959936
1006.019531,7.163358,5.446128,8.187741,6.701002
1006.023438,9.745629,4.760393,8.020339,23.367245
1006.027344,4.059003,5.995502,12.327480,3.817473
1006.031250,15.412170,6.806833,9.131500,9.846197
1006.035156,5.079870,2.974296,7.590294,0.453120
1006.039062,11.195387,3.911657,1.803942,-1.266476
1006.042969,-6.650462,-5.829517,9.444027,13.050445
1006.046875,-1.646091,5.964498,-0.807679,5.564805
1006.050781,-2.176923,-5.181029,-0.604813,-3.421104
1006.054688,-7.303163,-9.256865,-6.225183,-2.539930
1006.058594,-6.747710,-13.857101,-10.458246,-1.926140
1006.062500,-1.114313,-9.250254,-8.824763,-12.521848
1006.066406,-10.279808,-2.192336,-7.824492,-4.152172
1006.070312,-4.629906,-4.546218,-5.993183,-9.903976
1006.074219,-10.541482,-16.563735,-8.899326,-5.626049
1006.078125,-9.044399,-6.854822,-8.032186,-7.884966
1006.082031,-12.321631,-7.106033,-13.006437,-19.128784
1006.085938,0.103277,-4.817084,-10.407898,-10.814936
1006.089844,-0.404180,-17.482980,-13.009013,3.875167
1006.093750,-1.225872,1.381676,-3.193560,-3.629643
1006.097656,-4.457855,-8.002807,-4.878788,0.215523
1006.101562,5.218481,3.372758,1.251904,-1.024285
1006.105469,7.542112,1.412557,2.986466,5.098048
1006.109375,1.706972,2.371557,7.036954,2.038767
1006.113281,13.639203,8.973489,10.460772,7.199090
1006.117188,10.161512,1.483146,1.705518,9.163439
1006.121094,13.530218,12.351909,4.823142,13.894866
1006.125000,8.326239,9.639010,6.258245,9.445688
1006.128906,14.426834,5.748019,7.504070,10.104257
1006.132812,10.428920,7.890723,-0.033298,13.691900
1006.136719,9.083339,6.572137,14.238396,7.311373
1006.140625,8.727751,3.816027,8.834455,9.820921
1006.144531,2.238533,4.633716,-2.109577,-0.443139
1006.148438,-3.641261,-1.802604,5.258554,-1.316115
1006.152344,-8.961241,1.167439,0.193764,0.340785
1006.156250,-5.251976,0.308349,-8.118313,-5.790636
1006.160156,-2.894175,-11.330981,-12.831648,-2.364567
1006.164062,-6.823633,-5.845802,0.951962,-13.631747
1006.167969,-10.395562,-10.258129,-12.227471,-14.698473
1006.171875,-11.633320,-10.171123,-10.199829,-8.017058
1006.175781,-3.438161,-10.837111,-9.101853,-10.789692
1006.179688,-9.950361,-3.418479,-8.420324,-14.195477
1006.183594,-6.182696,-7.311186,-5.863836,-4.804022
1006.187500,-10.866354,-3.315278,-7.447066,-11.497644
1006.191406,-2.915651,-0.394294,-6.820420,-4.648543
1006.195312,1.832222,-2.397628,-6.193842,-1.213086
1006.199219,-0.208409,-8.597776,-2.398276,-3.002321
1006.203125,1.168939,7.776482,5.831588,3.312759
1006.207031,8.349515,-1.838579,9.186094,11.851598
1006.210938,7.092648,10.623360,0.636333,7.202300
1006.214844,10.227577,9.238044,9.720202,8.994381
1006.218750,6.364991,8.392237,6.565599,12.702250
1006.222656,14.679710,7.802284,11.242332,10.754519
1006.226562,7.789002,13.162578,14.901194,9.645001
1006.230469,6.052601,9.615960,8.244106,7.231154
1006.234375,9.558396,13.842426,6.991545,12.933494
1006.238281,6.032060,4.292917,3.145966,4.045350
1006.242188,6.934624,3.642803,-5.995785,11.387803
1006.246094,2.830236,2.375158,0.305020,-0.451503
1006.250000,1.340029,-10.735003,-1.852416,0.392383
1006.253906,1.301402,-2.831649,0.187677,0.005661
1006.257812,-8.680591,-1.999747,-12.083660,-11.801221
1006.261719,-4.085603,-9.653356,-2.790766,-3.108431
1006.265625,-4.951574,-0.628029,-10.908358,-6.550962
1006.269531,-11.095151,-5.190389,-9.369803,-12.942374
1006.273438,-12.709148,-6.920212,-4.277163,-6.287902
1006.277344,-4.014906,-8.159269,-9.577179,-13.407944
1006.281250,-10.850513,-11.552335,-16.312837,-9.943957
1006.285156,-9.698124,-8.245958,-9.466778,-6.147428
1006.289062,-5.639233,-3.026604,4.628114,-3.025789
1006.292969,-3.894979,0.105929,-7.859994,-6.106310
1006.296875,-0.352715,-5.620866,0.508565,6.978056
1006.300781,2.778114,-4.387671,-0.536332,-8.120800
1006.304688,3.930995,5.277595,1.527728,-0.110743
1006.308594,11.894258,4.970281,8.736295,1.065797
1006.312500,6.275367,10.671188,3.428202,5.173124
1006.316406,3.589407,9.759354,15.856621,5.578004
1006.320312,9.857247,11.580054,8.917515,4.370215
1006.324219,4.471202,13.399402,6.707102,4.672663
1006.328125,13.404997,8.251739,7.453698,13.349080
1006.332031,14.496414,20.480374,2.504710,13.731788
1006.335938,8.812616,12.295489,-2.681272,2.664737
1006.339844,9.929273,3.974753,5.572862,4.282558
1006.343750,2.206795,2.262494,6.348470,4.646595
1006.347656,-7.773284,6.372633,2.271781,2.074879
1006.351562,-1.855092,3.307667,2.700857,0.845491
1006.355469,-2.566146,1.344810,-3.512836,-3.164393
1006.359375,-11.638673,2.634585,-6.912286,-8.019443
1006.363281,-6.137918,-4.355296,1.267522,-3.832085
1006.367188,-4.603955,-8.627154,-8.823737,-11.103835
1006.371094,-3.338540,-11.690709,-15.413980,-6.732771
1006.375000,-3.134830,-14.300710,-3.035955,-5.854319
1006.378906,-7.615142,-8.379366,-6.606640,-11.024914
1006.382812,-8.098220,-10.255514,-13.591145,-9.902000
1006.386719,-8.291566,-10.143141,-12.660981,-10.144896
1006.390625,-2.067567,-0.799780,-8.764182,-5.954499
1006.394531,-5.137408,-5.837655,-2.923788,-7.260587
1006.398438,4.476076,-0.340851,5.100769,-4.241641
1006.402344,6.031816,-0.968095,-1.479886,6.988913
1006.406250,5.555403,4.421431,3.415011,8.591925
1006.410156,13.759504,6.167617,-0.152377,2.073978
1006.414062,11.488476,11.392014,14.782475,6.992260
1006.417969,5.714144,12.139656,10.502552,5.628423
1006.421875,8.739410,6.074873,7.478579,11.433598
1006.425781,9.797491,6.192933,7.931806,6.924905
1006.429688,4.131673,8.590536,15.555721,12.921458
1006.433594,12.625500,7.759640,10.975950,5.206356
1006.437500,9.811157,9.506628,9.954012,0.740688
1006.441406,15.266238,0.524992,3.733990,3.127459
1006.445312,2.573546,-3.344274,2.329672,4.626442
1006.449219,-2.605090,-1.916799,-5.413284,-3.203830
1006.453125,-3.037804,-0.598892,-7.371959,-5.559098
1006.457031,-5.037878,-6.976016,-4.192490,-4.703281
1006.460938,-3.339863,-6.442825,-6.452202,-11.445306
1006.464844,-11.017271,-16.186321,-7.976119,-8.682907
1006.468750,-10.839577,-10.980356,-17.079412,-12.144774
1006.472656,-10.691761,-6.034376,-0.757417,-6.411158
1006.476562,-6.192988,-8.659307,-11.737564,-13.394193
1006.480469,-13.633763,-5.384678,-10.454822,-5.297692
1006.484375,-3.574885,-9.098441,-9.265437,-8.116214
1006.488281,-2.817378,-8.547977,3.055392,-3.104227
1006.492188,0.801862,-2.451420,2.659872,-7.538552
1006.496094,1.350064,-1.514099,0.234751,0.298044
1006.500000,-0.199079,3.145086,1.899409,2.675982
1006.503906,10.790166,1.709645,3.963997,8.046609
1006.507812,5.713586,2.751235,5.296381,6.875044
1006.511719,7.079865,3.422495,1.036560,7.393431
1006.515625,5.848844,9.850239,13.038344,6.934193
1006.519531,8.179888,8.605128,12.339573,10.757340
1006.523438,7.313861,10.310415,14.285960,9.654366
1006.527344,14.461747,9.160343,15.333107,13.786377
1006.531250,10.255125,14.942780,10.524069,4.724083
1006.535156,9.636201,6.093299,8.643953,4.865832
1006.539062,6.886058,5.360589,6.968220,7.319156
1006.542969,5.962671,6.417180,3.221071,4.126442
1006.546875,2.027210,-1.140881,-0.350898,-3.737067
1006.550781,-3.843114,1.782406,-6.134401,-2.228353
1006.554688,-1.949131,-9.119280,-4.545580,1.165324
1006.558594,-2.138365,-3.482839,-6.992066,-10.033445
1006.562500,-3.420923,-8.272241,-7.525113,-3.119309
1006.566406,-12.571969,-9.140699,-4.051010,-11.317458
1006.570312,-8.769823,-20.120990,-12.182117,-8.457424
1006.574219,-5.767393,-15.302126,-14.932188,-15.363322
1006.578125,-10.879051,-14.041890,-17.850779,-10.541989
1006.582031,-8.862967,-12.054522,-2.887015,-5.475033
1006.585938,-10.011027,-8.288118,-4.013606,-8.339163
1006.589844,-3.202096,-12.927582,-6.003427,-10.763530
1006.593750,0.932833,-0.672376,-6.567639,-5.343997
1006.597656,-4.878358,3.385858,-5.216022,-1.183058
1006.601562,-4.733631,3.124967,-3.502284,-3.729593
1006.605469,-0.721800,3.893724,2.614695,2.054529
1006.609375,5.593196,5.692840,3.137908,2.339194
1006.613281,10.072751,10.950220,8.183831,11.555451
1006.617188,8.361947,10.373390,11.825080,9.501792
1006.621094,4.980336,6.525604,6.531333,5.903715
1006.625000,11.615590,2.001299,6.180707,7.597383
1006.628906,5.298827,6.907764,7.064371,8.891914
1006.632812,12.317629,8.173799,9.494554,3.051224
1006.636719,4.530919,6.590191,7.257191,6.387827
1006.640625,9.332954,5.940981,13.701752,5.058450
1006.644531,1.843688,8.990109,0.275819,4.384018
1006.648438,2.137986,4.353519,3.829794,-3.806707
1006.652344,4.594056,-6.097580,3.663905,-6.263246
1006.656250,0.568699,-2.923791,-5.042017,-2.440938
1006.660156,-5.709917,-1.504924,-3.442186,-0.034507
1006.664062,-10.893192,-5.382632,-4.710326,-10.113860
1006.667969,-5.410381,-8.708245,-6.294438,-14.642521
1006.671875,-10.461911,-1.079562,-10.841385,-10.003257
1006.675781,-8.779211,-14.304381,-9.957713,-6.448127
1006.679688,-5.221271,-4.592082,-14.447154,-11.498054
1006.683594,-9.798852,-17.038247,-6.763618,-6.481491
1006.687500,-7.934787,-3.950636,-14.418640,-10.933932
1006.691406,4.241762,-5.103099,0.590114,-0.232448
1006.695312,4.144712,-5.306250,-10.199575,3.740323
1006.699219,3.195613,2.497223,-1.037148,-1.316643
1006.703125,-1.409503,1.059688,3.439732,8.976383
1006.707031,6.971158,0.162482,4.784379,5.802573
1006.710938,15.805326,2.640459,6.083814,6.783487
1006.714844,14.285683,12.393016,5.753652,10.175258
1006.718750,13.350680,7.445746,12.419150,6.898372
1006.722656,10.731086,12.742426,13.052067,7.194611
1006.726562,8.342861,17.148119,9.707916,7.123191
1006.730469,11.953426,12.486155,15.443104,11.279809
1006.734375,8.829040,6.010182,6.282793,8.936239
1006.738281,7.289280,8.974681,2.005579,6.229253
1006.742188,4.631117,4.092595,3.498773,4.130144
1006.746094,1.913703,8.077903,2.842969,1.104767
1006.750000,0.782146,2.384853,-4.800378,-11.751560
1006.753906,-3.958159,-3.876834,1.400244,-13.629563
1006.757812,-5.694889,-3.252476,-4.194056,-10.936833
1006.761719,-6.572771,-13.386065,-8.042308,-11.777550
1006.765625,-2.677932,-8.436857,-5.508661,0.917186
1006.769531,-18.805528,-10.982574,-7.414325,-9.932260
1006.773438,-11.516871,-13.955087,-10.388724,-6.266628
1006.777344,-13.146584,-5.983128,-8.845632,-4.486740
1006.781250,-12.256955,-4.092141,-4.406432,-11.085475
1006.785156,-20.639447,-12.449409,-16.021682,-8.980724
1006.789062,-4.685596,-15.313432,-7.219723,-12.243173
1006.792969,-3.922749,-3.513215,-3.977124,-6.684329
1006.796875,3.710044,-5.568725,2.446269,3.589684
1006.800781,-0.799289,2.332571,7.114259,-4.342901
1006.804688,4.507578,1.378414,2.919167,3.716868
1006.808594,2.400931,-11.390355,-0.093510,15.103325
1006.812500,7.440361,5.385193,6.576117,1.434644
1006.816406,12.943114,13.751873,9.960017,5.993049
1006.820312,11.901758,8.698239,16.110443,3.068807
1006.824219,10.750498,13.348652,8.017821,8.935550
1006.828125,10.715277,6.848698,11.130309,12.044634
1006.832031,9.295115,7.399810,9.773699,7.937260
1006.835938,3.476711,9.618487,11.432978,5.327173
1006.839844,6.641884,-0.195816,-3.875623,9.590389
1006.843750,5.755941,1.218156,-1.792724,0.123369
1006.847656,-0.456330,-3.341982,-4.344613,2.366785
1006.851562,-1.008658,-2.699356,3.483200,-2.687765
1006.855469,-3.613308,-2.590059,-1.925806,-0.146979
1006.859375,-12.904027,-6.555534,-6.189663,-2.627200
1006.863281,-6.481264,-7.467863,-11.321032,-9.817724
1006.867188,-17.763174,-12.086738,-14.649405,-6.993454
1006.871094,-9.571523,-6.206271,-8.185248,-8.888061
1006.875000,-1.362753,-8.897174,-13.560387,-9.733626
1006.878906,-11.621497,-13.585072,-6.958080,-12.560373
1006.882812,-11.811882,-13.598424,-5.678738,-9.468363
1006.886719,-4.620373,-12.549332,-6.000015,-13.157719
1006.890625,-6.610038,-9.675427,-7.107484,-4.032284
1006.894531,-4.005289,-1.046314,-7.571161,-6.587560
1006.898438,-2.255000,11.285015,-9.014664,1.045579
1006.902344,2.625694,-2.762874,-1.104151,-3.117887
1006.906250,-0.679860,7.024457,1.416778,6.754576
1006.910156,8.087232,6.607491,9.450853,1.908905
1006.914062,11.354092,3.891464,8.347935,3.822892
1006.917969,9.495608,10.078069,6.817323,12.135407
1006.921875,14.179113,9.152116,7.249416,3.946042
1006.925781,7.442571,13.578880,11.548230,3.949074
1006.929688,7.578478,4.139337,11.649445,13.183015
1006.933594,11.476769,3.710255,5.402942,10.764502
1006.937500,4.075373,15.016007,4.497737,1.168819
1006.941406,4.654374,1.121751,2.667857,10.914567
1006.945312,-0.653548,5.511280,3.133015,-5.916503
1006.949219,0.519019,2.028576,3.004759,2.024341
1006.953125,-4.969600,-0.885470,-1.031926,-0.691739
1006.957031,-1.390118,-2.842993,-5.109820,-8.233173
1006.960938,-5.153300,-6.069931,-7.655155,-8.079740
1006.964844,-4.913459,-13.041249,-0.096736,-7.188051
1006.968750,-9.087566,-12.092187,-6.588865,-16.482888
1006.972656,-12.525150,-3.957245,-3.158218,-10.425965
1006.976562,-2.306595,-12.083363,-16.376493,-7.747521
1006.980469,-5.538315,-8.444068,-6.153298,-5.696728
1006.984375,-9.451339,-6.220771,-8.259713,-7.167430
1006.988281,-7.122574,-11.088151,-10.108306,-10.654876
1006.992188,-1.687740,-3.918059,-6.132616,0.146176
1006.996094,-7.416176,-5.582814,0.924340,-6.158495
1007.000000,1.715807,3.146862,-0.221010,2.624211
1007.003906,-4.178665,-2.910605,5.140087,2.359134
1007.007812,4.130847,8.663188,9.359609,2.542590
1007.011719,6.005151,2.981949,15.116417,7.841088
1007.015625,-0.607429,13.401831,7.083002,2.154006
1007.019531,12.086373,6.609927,-0.889265,7.767064
1007.023438,7.598186,10.286614,15.037870,4.694390
1007.027344,9.458232,14.583223,16.967176,12.887332
1007.031250,5.577032,6.466061,11.108935,15.527887
1007.035156,2.275328,11.250027,8.466521,7.861342
1007.039062,12.176293,6.618480,10.434616,2.602878
1007.042969,-3.436299,2.793911,-2.485441,-3.661385
1007.046875,5.992185,2.404636,5.931236,5.883940
1007.050781,-4.344376,4.072243,6.280686,-12.614641
1007.054688,-0.012894,-11.409775,-4.840290,-6.300074
1007.058594,3.857374,-0.172468,-4.470454,-3.328770
1007.062500,-12.246798,-9.856899,-10.455776,-1.655864
1007.066406,-7.307119,-15.441550,-4.193544,-11.876884
1007.070312,-2.993105,-17.926557,-12.356583,-12.243145
1007.074219,-9.257269,-8.882362,-9.998318,-6.123571
1007.078125,-12.343096,-6.804118,-13.755824,-12.232025
1007.082031,-0.989632,-12.682142,-11.423940,-5.562518
1007.085938,-4.946234,-4.152082,-13.860830,-4.321888
1007.089844,-10.943929,-1.635775,-3.231966,-5.234619
1007.093750,-3.954541,-5.901186,-1.964302,-0.356496
1007.097656,-3.638998,-2.863725,-3.976116,-6.300202
1007.101562,4.059603,-2.268377,3.737622,6.709906
1007.105469,3.374542,-1.124936,-4.840326,-2.386019
1007.109375,1.018547,-2.424963,3.679332,4.157623
1007.113281,5.746131,6.317846,7.063152,10.870710
1007.117188,11.001556,4.707423,15.785110,14.186588
1007.121094,8.982972,8.670436,9.574713,9.035262
1007.125000,12.776511,9.995702,9.158731,6.934186
1007.128906,10.741894,7.361300,5.819552,11.430177
1007.132812,3.113866,5.494433,2.462144,10.200170
1007.136719,3.987960,9.177021,0.358462,13.048591
1007.140625,0.307797,0.179490,4.017381,3.643338
1007.144531,-2.837218,4.415428,-0.233529,5.431245
1007.148438,-0.419877,-2.530941,-3.626656,5.402836
1007.152344,-3.086266,4.117491,-6.060566,-1.034056
1007.156250,-1.873943,-3.792235,-5.101559,-3.717755
1007.160156,-2.433881,-10.443346,-2.333420,-11.078446
1007.164062,-10.511429,-12.778275,-4.825748,-4.287940
1007.167969,-5.190058,-5.497324,-4.051337,-13.062612
1007.171875,-7.465996,-15.963957,-12.250796,-14.117099
1007.175781,-12.081449,-4.973690,-4.603912,-6.695754
1007.179688,-12.832796,-12.738736,-7.720257,-6.873368
1007.183594,-14.876620,-11.761206,-5.806906,-11.375016
1007.187500,-6.486478,-13.366604,-3.639752,-5.555786
1007.191406,-7.790288,-0.663698,-1.533911,-6.566276
1007.195312,2.475856,-12.001926,0.990522,-1.743789
1007.199219,-2.036804,-2.050428,2.198683,-4.745892
1007.203125,4.163990,0.203482,-0.290311,5.071848
1007.207031,2.851831,7.462473,-2.558429,-1.075802
1007.210938,9.560220,0.214526,4.282604,0.522982
1007.214844,12.704295,15.764158,11.031544,0.583986
1007.218750,12.414112,10.626921,12.532520,10.120435
1007.222656,11.313606,8.049020,14.818752,11.291663
1007.226562,9.251340,8.229347,14.347393,11.766516
1007.230469,4.585971,8.375387,2.366403,10.513917
1007.234375,9.925913,9.299267,2.039342,13.505737
1007.238281,6.783318,7.440201,14.178273,-1.208248
1007.242188,3.020981,13.480367,-0.130391,1.553681
1007.246094,2.514013,10.262821,-3.179561,1.953261
1007.250000,0.746635,-10.673977,-2.384713,-1.300775
1007.253906,-5.372064,2.691473,-4.641817,-1.521724
1007.257812,-0.283133,-1.474315,-4.826586,-6.315608
1007.261719,-14.612061,-6.510808,-4.595357,-8.239400
1007.265625,-11.223878,3.124719,-0.857725,-7.730959
1007.269531,-9.404951,-12.828384,0.393275,-9.634285
1007.273438,-4.431652,-8.092677,-5.944836,-17.816809
1007.277344,-17.569271,-10.387313,-2.991293,-8.398073
1007.281250,-7.819994,-14.435090,-7.098280,-10.063323
1007.285156,-9.037325,-8.904391,-5.677422,-12.112613
1007.289062,-6.082934,-12.725011,-6.386469,-4.384475
1007.292969,-3.702934,0.238439,-1.447839,-1.335158
1007.296875,2.671424,-5.770836,3.223097,0.048834
1007.300781,1.082433,4.608803,2.575635,2.412594
1007.304688,-2.358042,0.993942,4.555730,8.054971
1007.308594,14.976262,3.093838,7.100069,9.205471
1007.312500,9.373128,6.740789,5.668471,10.725051
1007.316406,7.402585,17.694378,6.341733,12.242204
1007.320312,15.694555,14.601325,2.598136,9.121916
1007.324219,8.124831,6.230461,11.048153,4.392175
1007.328125,11.808167,9.011681,13.662423,13.803420
1007.332031,14.509922,2.077807,7.617102,15.491964
1007.335938,9.127813,13.359378,12.512069,10.739767
1007.339844,6.786909,4.339754,12.993911,5.819777
1007.343750,-2.175400,3.764453,5.899885,5.339307
1007.347656,1.976220,-1.526903,3.289191,5.039859
1007.351562,-1.747274,-2.119551,-4.375365,-8.170145
1007.355469,-3.218459,-2.498551,-2.061396,-13.489738
1007.359375,-10.188533,-7.711819,-10.143744,-7.262918
1007.363281,-9.095399,-2.792518,-5.989704,-5.880788
1007.367188,-7.169385,-13.392248,-5.718481,-5.896275
1007.371094,-8.876469,-4.991695,-8.525167,-11.733874
1007.375000,-10.060875,-4.386680,-12.260911,-7.035962
1007.378906,-8.342932,-8.183281,-4.441090,-5.740295
1007.382812,-1.361665,-4.420293,-8.591264,-10.751633
1007.386719,-1.673698,-4.093094,-6.280099,-7.668148
1007.390625,-7.148208,-12.826468,-8.093649,-9.891706
1007.394531,-5.482545,2.784777,1.509330,-3.898620
1007.398438,5.101211,3.977020,1.660029,2.814959
1007.402344,-4.730026,1.803930,5.731801,1.842830
1007.406250,2.783485,3.423395,1.939123,5.743224
1007.410156,6.616944,7.470805,5.489651,8.566648
1007.414062,9.599443,14.196203,5.062670,3.517787
1007.417969,10.249328,10.097719,4.223162,10.018813
1007.421875,4.412936,15.855121,9.649352,5.567338
1007.425781,14.169180,6.433516,20.730423,10.513314
1007.429688,11.836733,6.994397,18.663633,15.954278
1007.433594,4.883815,9.065151,10.603462,6.639166
1007.437500,8.614825,3.360931,8.913508,9.176124
1007.441406,7.061497,6.312265,9.454098,-2.400191
1007.445312,-6.301708,-0.838545,-5.610339,3.230389
1007.449219,1.685148,-0.676709,-2.321003,1.456749
1007.453125,3.118498,-5.404219,-2.648326,-5.604306
1007.457031,-2.208688,-6.659066,-4.447112,-6.129891
1007.460938,-5.352837,-5.230990,-10.074641,-5.736272
1007.464844,-10.220556,-15.161440,-6.659935,-10.351654
1007.468750,-11.672769,-12.714343,-4.166105,-17.209744
1007.472656,-6.021665,-13.455216,-14.703877,-3.683453
1007.476562,-12.315504,-9.616710,-10.887322,-10.016213
1007.480469,-20.374820,-10.697268,-7.291133,-10.199884
1007.484375,-9.191203,-3.132662,-8.689573,-6.144471
1007.488281,-6.506236,-1.725621,-10.539350,-11.561993
1007.492188,-7.587344,-9.486593,-6.014048,-10.920196
1007.496094,0.054017,-3.932225,1.923233,2.079808
1007.500000,0.371950,7.077138,3.384859,4.672057
1007.503906,1.918701,0.281758,2.944854,2.788454
1007.507812,4.160190,-0.101352,7.133895,6.407550
1007.511719,2.766746,7.293002,2.391186,12.871278
1007.515625,10.149553,8.790925,6.086728,10.574590
1007.519531,11.705358,10.955374,11.023495,1.718812
1007.523438,14.044777,12.833069,17.555099,10.518664
1007.527344,10.724765,8.747317,3.841303,5.264844
1007.531250,12.494182,10.841771,10.190682,-2.246923
1007.535156,6.638768,6.789678,1.900708,1.710765
1007.539062,6.165695,9.468771,10.519636,7.774152
1007.542969,-3.760150,2.856138,3.175504,1.018220
1007.546875,1.606942,2.750621,6.510423,7.114406
1007.550781,0.224034,1.430815,-3.548496,2.972161
1007.554688,5.518268,-5.560232,-0.341636,-5.419876
1007.558594,-4.537287,-11.876315,-5.981120,-13.328744
1007.562500,-3.293960,-13.668862,0.052478,-2.874056
1007.566406,-4.168816,-12.163315,-10.862403,-10.032821
1007.570312,-8.376848,-13.497927,-10.923087,-12.787285
1007.574219,-13.062092,-9.956506,-15.124728,-10.427314
1007.578125,-10.120779,-11.834617,-4.490557,-8.024086
1007.582031,-6.855542,-7.445590,-5.984668,-2.916203
1007.585938,-8.658287,-4.360961,-6.466326,-11.136432
1007.589844,-7.357104,-7.242179,-7.410345,-9.699025
1007.593750,-1.277472,-5.247723,-3.999548,-0.497731
1007.597656,-2.981283,-8.604175,1.152072,5.322973
1007.601562,6.478798,-0.644601,4.810062,2.134911
1007.605469,3.245822,10.566905,12.160582,5.620982
1007.609375,9.446505,8.324462,-0.848759,7.605371
1007.613281,7.319223,6.812381,10.173103,11.910359
1007.617188,6.633953,10.683534,7.562408,4.821307
1007.621094,13.189074,11.407641,8.781917,18.270058
1007.625000,12.537239,11.873357,7.281864,13.595178
1007.628906,12.125738,4.617052,8.497309,9.119395
1007.632812,4.269687,9.110842,8.731435,3.845524
1007.636719,2.726216,13.469324,8.177470,9.395584
1007.640625,2.096413,18.556294,8.748879,14.123762
1007.644531,1.684412,4.273795,3.464450,1.392545
1007.648438,-4.170901,7.604818,4.852096,1.682405
1007.652344,-2.570112,3.213873,-0.930972,-0.333164
1007.656250,-7.314365,-6.673863,-8.719579,-8.793302
1007.660156,-11.626808,-7.173292,0.463682,-13.391128
1007.664062,-9.651873,-10.178395,-13.058170,-0.914929
1007.667969,-10.954448,-6.636422,-7.772317,-7.483237
1007.671875,-5.633444,-10.261441,-8.205874,-9.248254
1007.675781,-11.586721,-11.582832,-10.971810,-6.100155
1007.679688,-16.284962,-12.136438,-13.879698,-7.184356
1007.683594,-4.047919,-10.536807,-4.882944,-17.121674
1007.687500,-8.328949,-4.171763,-1.263702,-7.145420
1007.691406,-9.231201,-8.747046,-5.232630,-3.548030
1007.695312,-1.640794,-5.178391,0.274092,0.825425
1007.699219,-5.241007,-1.740354,-5.780294,-1.883065
1007.703125,-0.883507,-1.956614,1.916884,-2.137835
1007.707031,-8.968376,3.800268,2.544580,7.202678
1007.710938,2.106982,12.780611,3.901439,10.940749
1007.714844,10.928510,4.775596,7.498632,3.340334
1007.718750,9.923674,3.718866,9.874876,8.428089
1007.722656,9.128963,7.098526,9.387038,12.401495
1007.726562,15.298131,6.552235,5.810260,7.902113
1007.730469,11.617354,9.498660,9.409012,13.745151
1007.734375,7.078845,3.505471,7.710156,4.759130
1007.738281,10.561031,10.244460,5.293794,10.439024
1007.742188,4.952835,-6.091910,-3.794341,7.342553
1007.746094,0.758205,4.871753,4.542469,6.163392
1007.750000,-1.766933,-3.523046,1.642690,-5.363819
1007.753906,-1.992095,-7.146094,-1.890760,-3.336158
1007.757812,-8.502094,-1.734045,-4.769337,-11.387448
1007.761719,3.454672,-6.196104,-13.101631,-13.043947
1007.765625,-3.751767,-14.678023,-5.393449,-5.920900
1007.769531,-18.661405,-3.706605,-14.196668,-8.122648
1007.773438,-10.011014,-7.556859,-11.908330,-14.795642
1007.777344,-2.378415,-10.709337,-10.285995,-13.713666
1007.781250,-12.077611,-12.061461,-4.899382,-9.439831
1007.785156,-11.192969,-6.680122,-8.948618,-10.722615
1007.789062,-11.476064,-2.123590,-5.066167,-0.599621
1007.792969,0.342111,-5.426360,-3.720099,-5.410795
1007.796875,-0.286195,4.621004,-1.926350,-2.702388
1007.800781,3.762779,1.067054,1.655783,1.552677
1007.804688,7.714934,10.050419,1.885831,6.471999
1007.808594,4.119640,4.432302,4.045450,7.363415
1007.812500,21.034639,6.001591,0.198159,3.756730
1007.816406,7.381343,10.857545,11.915834,7.717110
1007.820312,7.912160,3.192300,13.686819,8.834019
1007.824219,6.955979,8.716784,7.812407,3.081312
1007.828125,15.231305,3.073352,17.986384,5.932040
1007.832031,10.909576,8.256060,5.736143,12.330948
1007.835938,9.377672,13.129558,2.437654,9.440103
1007.839844,8.128522,14.358938,1.200670,0.681333
1007.843750,4.543995,1.743165,1.069672,3.862997
1007.847656,4.640160,0.777848,8.238897,5.255717
1007.851562,-4.506084,-5.752797,-3.240547,-0.103182
1007.855469,2.614095,-8.172123,-0.748692,-4.148579
1007.859375,-9.866430,-3.118816,-5.198252,-3.168446
1007.863281,-5.238094,-10.847556,-6.105177,-8.000367
1007.867188,-5.241079,-8.840083,-13.003391,-10.546976
1007.871094,-14.619693,-11.578268,-6.681981,-5.237400
1007.875000,-17.631316,-4.133510,-9.995944,-8.006562
1007.878906,-5.570969,-3.396833,-9.950469,-3.487963
1007.882812,-15.289762,-8.154393,-6.666509,-9.831823
1007.886719,-1.858591,-7.191097,-13.391008,-12.695399
1007.890625,-1.094879,-5.861923,-0.992468,4.302177
1007.894531,5.842252,-1.401678,-3.863293,-5.679576
1007.898438,-0.162361,4.530897,-0.453781,-6.851302
1007.902344,1.613289,7.804120,3.442331,-0.311941
1007.906250,-0.001653,3.888835,6.811982,2.267775
1007.910156,4.195876,5.265164,-1.853944,7.844660
1007.914062,2.122076,2.312495,9.362960,0.873433
1007.917969,9.867094,7.793669,3.912212,9.338681
1007.921875,9.088028,8.979185,11.111196,6.864937
1007.925781,8.721299,15.513010,6.838932,15.346178
1007.929688,-0.262538,17.326795,6.259267,10.988291
1007.933594,13.063736,14.597286,12.208947,9.472933
1007.937500,1.369187,4.039931,6.356301,13.059455
1007.941406,8.457417,7.327691,8.761028,7.156160
1007.945312,0.854651,11.824224,6.998049,6.705024
1007.949219,2.144924,2.853844,5.225035,3.982343
1007.953125,-2.835347,-8.957301,3.881655,1.963273
1007.957031,-8.890866,-7.098576,-4.517068,0.709242
1007.960938,-12.003131,2.655157,-6.139117,-3.882462
1007.964844,-4.471322,-10.084661,-7.033608,-5.462003
1007.968750,-12.569657,-12.322543,-4.833843,-7.728045
1007.972656,-10.250210,-10.322107,-4.328776,-9.373797
1007.976562,-6.916450,-12.685863,-16.675459,-7.631125
1007.980469,-5.558172,-7.066252,-2.892182,-10.140526
1007.984375,-9.766566,-12.347344,-11.224747,-9.889604
1007.988281,-6.770653,-10.856468,-5.878475,-12.635609
1007.992188,-6.477730,-8.279237,-7.175778,-5.661068
1007.996094,5.354119,-2.281802,-2.267530,-1.295634
1008.000000,4.625184,2.074467,-2.580237,-6.691305
1008.003906,3.194492,0.135324,2.113003,-1.518598
1008.007812,2.572827,8.556392,8.576369,13.827161
1008.011719,9.621275,6.558561,5.576591,6.510009
1008.015625,1.883823,-1.664617,7.256599,4.309133
1008.019531,7.446854,1.163520,1.928582,1.584689
1008.023438,11.356194,5.559535,5.638525,11.057510
1008.027344,10.772923,11.211890,7.674369,6.865418
1008.031250,9.693753,7.292401,11.060723,10.766710
1008.035156,8.253641,10.561964,5.925342,0.503348
1008.039062,9.175594,5.338609,13.453222,12.097874
1008.042969,3.622560,1.317785,-3.293021,4.588722
1008.046875,4.324705,4.512990,4.019397,0.256208
1008.050781,-7.969205,-6.380537,1.773321,-2.376095
1008.054688,-1.912061,-0.167839,-0.817067,-7.540282
1008.058594,0.603030,-5.215379,-9.062361,-11.615620
1008.062500,-5.111795,-11.288069,-6.795566,-9.624172
1008.066406,-2.729168,-12.913907,-2.701123,-2.278347
1008.070312,-10.370653,-7.269941,-12.947520,-11.585479
1008.074219,-13.039018,-9.548402,-9.470762,-9.343230
1008.078125,-8.946020,-2.500350,-13.390286,-8.439784
1008.082031,-5.228587,-11.364644,-13.940113,-16.828488
1008.085938,-9.125794,-5.349434,-5.628846,-13.056659
1008.089844,-0.832412,-6.093123,-6.327422,1.194768
1008.093750,-3.973652,-3.093854,-2.767373,-11.730297
1008.097656,1.104633,-3.660029,3.041999,-0.087592
1008.101562,1.515736,0.873751,-5.676356,3.575265
1008.105469,-0.649186,-0.446567,1.847752,-2.122214
1008.109375,7.184773,8.564203,0.171854,6.463899
1008.113281,6.104982,8.215826,14.521906,9.047477
1008.117188,9.845717,10.721870,9.317427,10.916511
1008.121094,7.831698,4.988187,-0.001672,3.100811
1008.125000,10.422830,9.938044,8.712341,11.872571
1008.128906,12.011405,10.653307,6.240188,14.129567
1008.132812,2.671829,14.345085,7.244186,6.306006
1008.136719,5.063744,7.663365,0.546584,15.876431
1008.140625,5.687157,2.952926,5.649243,15.223912
1008.144531,3.870718,-1.855308,4.753789,-1.751782
1008.148438,-1.042224,-2.778150,-3.729889,3.016367
1008.152344,-1.846596,-9.783393,1.352568,0.622014
1008.156250,1.283148,-6.956067,-10.855328,-10.333798
1008.160156,-5.844775,-12.773759,-8.626026,-4.012558
1008.164062,-6.029684,-10.553783,-6.375418,-3.552721
1008.167969,-7.404909,-6.916954,-7.879712,-0.734305
1008.171875,-11.497420,-10.445307,-13.857909,-11.556358
1008.175781,-8.365506,-15.903508,-14.075580,-9.879226
1008.179688,-11.253336,-13.700692,-7.747578,-6.385015
1008.183594,-7.050925,-13.592839,-9.809499,-2.786263
1008.187500,-3.115258,-2.594599,-5.745692,-7.969057
1008.191406,-8.085573,-5.350372,-3.968652,-8.340500
1008.195312,-0.925448,-8.798477,-2.968332,-5.253179
1008.199219,1.767820,3.614108,3.827416,-0.872845
1008.203125,2.894365,4.164043,2.041717,5.271702
1008.207031,0.439482,6.257628,6.249479,3.607915
1008.210938,13.813771,7.803736,10.254515,4.631957
1008.214844,10.527201,10.280889,2.173801,14.900179
1008.218750,8.167868,6.675837,13.408854,1.978095
1008.222656,8.792162,11.259328,9.396723,15.932786
1008.226562,7.848197,7.335077,13.292833,9.296557
1008.230469,6.640704,15.393937,7.124208,12.131617
1008.234375,7.615060,10.452248,10.381151,6.779228
1008.238281,12.465038,7.780845,8.979465,8.409960
1008.242188,2.728528,6.288143,7.994362,6.632446
1008.246094,5.064195,1.794867,1.093369,6.805643
1008.250000,4.786349,8.706792,5.775697,3.675403
1008.253906,1.465958,-5.361214,-7.053136,-2.253899
1008.257812,-7.768555,-3.545126,-4.279361,-0.744611
1008.261719,1.836935,-3.404185,-8.993427,-6.485176
1008.265625,-3.107978,-5.196282,-7.850929,-15.152606
1008.269531,-17.259031,-10.525673,-12.281543,-8.730683
1008.273438,-14.635612,-7.834718,-2.571857,-9.507365
1008.277344,-15.108183,-11.718381,-9.109816,-10.533806
1008.281250,-12.108603,-9.728654,-4.441209,-8.055258
1008.285156,-7.179068,-7.536518,-6.264391,-12.045162
1008.289062,-13.664817,-6.490163,-5.069590,-8.699759
1008.292969,-4.093412,0.704800,-5.301021,-4.639578
1008.296875,-3.862848,5.588869,-4.670723,2.036257
1008.300781,0.193583,4.772325,1.962017,3.804189
1008.304688,2.051721,6.161248,8.202926,7.822250
1008.308594,6.149406,10.975684,3.428017,6.028711
1008.312500,9.844566,-4.247915,4.243162,5.424266
1008.316406,0.728710,13.180743,1.232551,12.097173
1008.320312,9.088656,10.167480,7.921287,14.584979
1008.324219,2.539923,4.959159,9.241618,11.272049
1008.328125,15.506474,14.729408,10.812772,5.451424
1008.332031,14.810306,9.792846,12.305025,5.034528
1008.335938,11.024570,7.071532,7.467865,10.213803
1008.339844,4.597783,5.005686,7.853768,7.126623
1008.343750,9.856294,10.695502,1.316832,5.167880
1008.347656,0.643940,1.302501,-4.546160,9.677696
1008.351562,-0.496251,-4.889862,-5.431513,-1.563097
1008.355469,-6.479882,-5.237149,-2.524523,0.092660
1008.359375,-2.751176,-3.932276,-7.512313,-5.875532
1008.363281,-12.435205,-3.960236,0.592640,-11.337586
1008.367188,-13.844316,-8.229292,-15.319052,-5.015815
1008.371094,-17.034658,-5.843786,-18.681244,-4.829049
1008.375000,-10.413921,-16.029272,-8.327384,-5.884440
1008.378906,-7.676112,-9.384950,-10.642797,-9.503644
1008.382812,-2.307019,-11.955490,-9.076419,-8.773779
1008.386719,-8.795960,-11.301707,-5.330836,-1.743550
1008.390625,-2.461277,-3.835887,-7.811862,1.984493
1008.394531,-8.066993,-10.383517,-0.636484,-3.773870
1008.398438,-2.233557,0.019602,-1.023200,2.240294
1008.402344,1.980595,5.606221,0.664973,4.726727
1008.406250,0.216255,2.625543,4.840808,-3.999700
1008.410156,4.941495,8.638848,5.554887,8.875152
1008.414062,7.810425,5.432988,8.725462,11.396401
1008.417969,12.064048,9.473563,4.805751,10.472669
1008.421875,16.025908,14.108837,4.015934,8.729924
1008.425781,16.677118,6.777855,14.136253,10.096774
1008.429688,12.021978,9.590898,13.748085,3.514972
1008.433594,6.452393,8.978056,6.431870,17.482745
1008.437500,9.342772,5.487287,3.681823,1.357564
1008.441406,7.422439,2.419654,3.843067,2.294071
1008.445312,6.509657,7.928132,1.843974,4.033493
1008.449219,-5.352734,-0.237462,-1.292236,-2.268970
1008.453125,-5.693979,-3.882916,2.722826,-1.500872
1008.457031,0.204941,-5.449940,-0.958230,-7.175262
1008.460938,-2.201539,-14.254617,-3.489527,-9.752361
1008.464844,1.036016,-8.973731,-5.871037,-11.177913
1008.468750,-10.663542,-13.034121,-7.625440,-10.089169
1008.472656,-10.263692,-4.296920,-5.856990,-6.274795
1008.476562,-3.423905,-13.363463,-8.584640,-14.760363
1008.480469,-9.792030,-8.822521,-5.411024,-4.944713
1008.484375,3.194300,-3.973842,-10.551584,-10.695947
1008.488281,-5.517030,-4.030305,-6.208818,-0.259477
1008.492188,-1.766722,-2.153066,-1.650041,-6.989254
1008.496094,-11.451941,-1.662576,-1.724228,3.180547
1008.500000,-3.173514,0.086704,2.064685,-0.262149
1008.503906,-1.132927,9.523033,4.500577,-1.898125
1008.507812,0.731146,5.305739,8.832960,5.427475
1008.511719,4.564721,4.312962,2.938688,6.301273
1008.515625,7.490229,11.126282,9.371151,7.709339
1008.519531,16.398984,9.044401,0.567463,13.871557
1008.523438,6.257730,15.387641,6.655495,10.355269
1008.527344,12.077348,13.114018,10.162649,12.090259
1008.531250,9.988026,6.086541,8.576888,12.065352
1008.535156,13.513781,8.023587,5.477466,7.094507
1008.539062,6.026686,7.832877,4.579411,7.682066
1008.542969,3.161272,3.162388,6.768303,7.305953
1008.546875,3.318561,6.947554,6.382610,1.630085
1008.550781,-2.005194,-3.660033,-1.938766,-3.529051
1008.554688,0.920344,-2.492758,-5.414527,-2.255442
1008.558594,-6.274960,-8.958312,-3.157061,-7.956937
1008.562500,-6.515907,-9.758427,-2.595887,-5.718666
1008.566406,-8.808708,-10.860185,-12.026962,-11.606891
1008.570312,-17.852167,-9.981936,-12.680439,-14.756850
1008.574219,-5.562294,-7.070584,-11.048315,-7.974315
1008.578125,-2.089430,-12.293336,-0.946420,-8.403159
1008.582031,-5.933170,-11.146126,-9.212658,-9.681875
1008.585938,-9.434246,-9.114357,-0.375006,-14.040987
1008.589844,-6.618835,-5.237427,-9.194204,-7.336477
1008.593750,-1.634178,-0.112475,-12.822559,-8.148756
1008.597656,-2.809018,0.626118,0.171231,-3.247037
1008.601562,6.462422,-2.513676,-9.269489,9.681260
1008.605469,2.020705,2.452239,6.680225,4.714794
1008.609375,3.304198,9.006557,2.226364,2.009198
1008.613281,7.804902,9.645218,4.815375,3.904441
1008.617188,12.224573,8.748861,13.319447,13.190287
1008.621094,-0.222835,7.142895,2.842865,4.648995
1008.625000,11.735703,15.456773,7.300216,16.216655
1008.628906,13.554844,5.280400,11.119628,7.664206
1008.632812,13.976785,2.444572,9.624594,3.510653
1008.636719,-4.404991,5.441269,7.686032,11.750309
1008.640625,6.487959,10.318246,10.038468,5.569398
1008.644531,-2.693142,1.553006,9.964145,-0.953800
1008.648438,-0.295545,5.689443,-2.870723,7.272444
1008.652344,-7.791147,-0.768569,-1.385798,0.124125
1008.656250,-4.189254,-5.277484,2.314033,-5.101354
1008.660156,-13.319772,-4.230047,-10.288072,-8.801892
1008.664062,-11.147581,-5.426527,-8.849316,-14.989297
1008.667969,-8.371974,-7.506662,-12.334425,-3.168879
1008.671875,-1.350203,-12.257044,-17.586177,-9.320125
1008.675781,-10.463917,-9.409834,-12.757565,-13.863626
1008.679688,-3.411375,-4.165489,-13.072381,-9.849322
1008.683594,-11.867017,-8.733289,-9.286431,-2.339958
1008.687500,-7.695555,-8.953365,-3.623954,-8.707145
1008.691406,-1.005358,-10.311164,4.203587,-5.637617
1008.695312,-9.672816,-1.441080,-2.202275,-5.733419
1008.699219,0.418894,2.324653,2.751691,-7.582612
1008.703125,-1.290577,2.544851,8.708490,-4.200897
1008.707031,6.192026,-2.860244,3.492645,-0.646792
1008.710938,4.698328,8.000470,12.205535,12.024839
1008.714844,9.972321,11.550013,5.186631,6.130329
1008.718750,12.482728,7.246522,14.109982,7.488070
1008.722656,6.360408,9.355433,7.402522,7.939279
1008.726562,15.119798,8.247428,13.534863,10.323372
1008.730469,6.302356,2.748116,12.727879,5.281301
1008.734375,14.117473,5.759467,13.746331,7.865167
1008.738281,5.369098,8.518990,12.494601,7.530418
1008.742188,7.698874,4.978199,-3.870698,11.444001
1008.746094,-3.169901,1.094994,3.490756,-2.383232
1008.750000,-3.506839,6.750254,-0.309203,0.291376
1008.753906,-3.925729,3.165261,-9.443665,-6.173197
1008.757812,-7.386406,-4.724604,-3.041338,-11.150965
1008.761719,-8.083874,-7.072786,-4.803411,-6.790446
1008.765625,-5.801963,-13.366807,-10.657363,-8.420592
1008.769531,-15.080888,-16.183606,-6.948923,-8.748117
1008.773438,-8.197209,-6.571247,-13.718283,-6.816098
1008.777344,-8.934696,-11.683237,-9.523579,-7.643676
1008.781250,-8.794671,-8.779494,-13.755434,-11.810279
1008.785156,-4.146546,-9.880840,-12.551994,-9.589170
1008.789062,-6.642131,-1.507979,-5.073652,-6.329160
1008.792969,-3.419275,-1.756606,-7.170677,-4.070629
1008.796875,0.579045,0.578519,-1.494732,2.355222
1008.800781,-0.113425,2.415484,7.089758,0.807548
1008.804688,10.964656,-4.358418,-6.897195,4.531840
1008.808594,8.425331,6.617883,12.442981,8.116312
1008.812500,11.738854,-6.631155,10.257736,5.525753
1008.816406,17.232991,8.820757,11.591509,1.853088
1008.820312,-0.133931,4.593064,9.498176,11.854876
1008.824219,1.981862,16.996423,8.941773,9.918546
1008.828125,11.489466,7.910560,13.367036,7.375707
1008.832031,2.274784,8.750637,6.457670,7.791769
1008.835938,3.901038,5.114937,7.252560,4.405523
1008.839844,6.928423,5.983294,6.976397,7.447031
1008.843750,8.431108,4.848510,7.657762,2.183292
1008.847656,5.945391,8.820346,3.315048,3.836264
1008.851562,-3.634970,1.580543,-1.350028,-0.937859
1008.855469,1.017638,-0.813639,-7.809132,-2.705335
1008.859375,-3.552112,-8.858424,-9.310725,-8.532902
1008.863281,-1.265036,-3.888784,-2.945747,-5.684663
1008.867188,-8.801680,-14.454371,-10.917158,-9.856144
1008.871094,-9.952030,-18.550798,-4.828804,-1.941436
1008.875000,-2.041432,-12.646554,-12.035303,-7.829896
1008.878906,-3.909449,-15.984442,-13.472831,-11.100634
1008.882812,-6.801322,-0.286788,3.824912,-11.144614
1008.886719,-5.725492,-14.627831,-11.538974,-6.750109
1008.890625,-10.712658,-5.917537,-6.317596,-4.539245
1008.894531,-1.597756,-3.195497,-4.638890,0.367309
1008.898438,2.973803,-6.170040,-2.036691,0.704664
1008.902344,-0.356923,-3.940045,-2.594242,-0.237616
1008.906250,3.825776,13.171766,4.318440,8.229804
1008.910156,-1.277453,5.097014,9.322502,4.388848
1008.914062,8.053666,14.367303,4.182898,3.437003
1008.917969,6.339273,12.800772,13.996518,1.711806
1008.921875,6.947570,12.986263,15.944212,12.651934
1008.925781,11.752100,14.526119,8.994549,7.488421
1008.929688,18.274121,11.522987,-0.306769,10.668341
1008.933594,9.739564,14.867121,11.062876,11.692822
1008.937500,4.637432,9.165135,4.261716,7.196776
1008.941406,-0.427884,5.275642,5.137778,7.537304
1008.945312,1.711190,1.611118,6.320241,-0.455238
1008.949219,-4.907505,-5.675938,-2.122952,2.180987
1008.953125,-5.101921,-6.947119,-3.150749,-5.706820
1008.957031,-10.786098,-10.944232,2.319204,0.946601
1008.960938,-4.326116,-5.637014,-12.733334,-4.543983
1008.964844,-10.237516,-1.564717,-3.574978,-1.158064
1008.968750,-9.898021,-6.344969,-11.691417,-7.588367
1008.972656,-9.561347,-10.952995,-13.214625,-12.649252
1008.976562,-7.108014,-7.028681,-11.109130,-11.713618
1008.980469,-13.620843,-9.740058,-13.460332,-7.273595
1008.984375,-7.301598,-5.957844,-7.445421,-5.807846
1008.988281,-6.281169,-3.882550,-8.867991,-6.288891
1008.992188,-5.528666,-1.929110,-6.502949,-6.815870
1008.996094,-1.701380,0.319675,3.036171,-4.386900
1009.000000,1.062678,0.813139,-2.999597,-5.371842
1009.003906,9.469075,1.295081,-1.719226,1.273026
1009.007812,3.088322,7.764942,1.283539,2.266569
1009.011719,4.478958,3.216150,1.905316,8.867859
1009.015625,-0.115253,9.786666,3.608653,5.849222
1009.019531,7.875390,4.053634,8.167621,7.961084
1009.023438,10.784786,11.316712,8.417549,5.626550
1009.027344,6.231699,10.476779,3.485917,9.625443
1009.031250,5.705519,4.344722,6.024773,6.174898
1009.035156,11.654398,10.538097,5.587529,15.803986
1009.039062,10.674669,4.925928,-0.027867,9.089391
1009.042969,5.702829,-0.889569,7.398268,4.213541
1009.046875,5.288211,-3.884146,-3.160213,9.415178
1009.050781,5.643025,-6.327108,2.190774,3.799903
1009.054688,-1.837918,-9.066200,2.136190,-0.111578
1009.058594,6.031140,-15.963700,-6.271016,-5.272285
1009.062500,-2.227855,-12.549334,-4.607641,-5.245416
1009.066406,-15.374448,-13.668258,-11.076905,-4.353851
1009.070312,-14.425979,0.356776,-9.096788,-5.922254
1009.074219,-7.993220,-11.428060,-6.458778,-18.720330
1009.078125,-11.315902,-6.939697,-13.533326,-4.297805
1009.082031,-13.222550,-10.619831,-7.627247,-9.649274
1009.085938,-3.661329,-13.091525,-10.628975,-9.454770
1009.089844,-8.888436,-3.957697,-5.891165,-2.494175
1009.093750,0.922982,-1.881876,-4.938148,-5.736215
1009.097656,0.230574,8.435610,6.196844,-6.738923
1009.101562,5.665216,0.252590,0.654393,5.051812
1009.105469,5.786528,2.336860,12.669250,7.118857
1009.109375,7.267632,6.584162,8.577785,0.981299
1009.113281,4.888316,5.547195,7.684761,6.631535
1009.117188,12.639648,9.478619,10.829730,6.147325
1009.121094,13.881177,10.781566,8.401727,8.840236
1009.125000,6.719962,7.692318,11.972045,10.642244
1009.128906,20.816850,14.080993,11.342741,18.338869
1009.132812,6.269490,9.011196,5.532946,11.966844
1009.136719,8.775740,4.728616,5.754365,13.736112
1009.140625,6.682517,7.929492,7.845844,7.808468
1009.144531,1.461916,7.760352,4.411346,6.782078
1009.148438,5.147469,2.178924,1.533784,3.961799
1009.152344,1.099338,-4.933769,-2.314151,-1.938974
1009.156250,-3.884704,-7.293384,-1.459530,-2.744682
1009.160156,-6.578638,-7.285737,-2.412907,-3.022281
1009.164062,-5.901259,-12.879411,-3.397849,-6.333512
1009.167969,-5.499528,-10.955745,-4.657369,-9.501076
1009.171875,-11.005714,-16.227820,-4.569076,-7.701933
1009.175781,-13.596798,-7.204330,-9.776029,-8.005156
1009.179688,-7.280828,-9.562215,-7.070068,-9.165659
1009.183594,-16.521508,-9.298266,-2.244807,-12.121564
1009.187500,-10.500809,-1.252221,-7.071207,6.091840
