timestamp,TP9,AF7,AF8,TP10
1000.000000,-8.046148,-0.857670,-2.730701,6.673376
1000.003906,0.704185,2.015884,-0.305080,2.538503
1000.007812,10.473806,7.784555,9.653736,3.456686
1000.011719,9.013951,10.561761,3.833923,5.768368
1000.015625,2.278718,10.069114,11.867675,5.155253
1000.019531,11.048983,11.268179,8.735357,1.856178
1000.023438,17.985247,11.710637,6.928655,3.096443
1000.027344,6.034756,8.882108,11.968094,14.983228
1000.031250,20.111559,5.414442,4.524880,10.936680
1000.035156,2.672149,11.051657,9.234332,14.616929
1000.039062,4.097039,9.629170,1.728469,-1.008661
1000.042969,13.652422,6.795663,4.047042,7.360547
1000.046875,-2.113132,-0.564232,6.291260,3.918823
1000.050781,0.886143,0.363162,0.396468,4.463906
1000.054688,-3.432613,-0.176913,-8.443402,-4.489857
1000.058594,-7.927188,-1.046843,-4.768877,-0.904429
1000.062500,-5.523712,-6.414737,-11.867167,-8.807843
1000.066406,-7.727261,-10.057793,-4.896069,-5.977683
1000.070312,-9.520122,-9.134639,-1.759203,-8.361652
1000.074219,-8.753992,-4.442107,-1.481192,-12.123018
1000.078125,-8.276355,-8.002905,-2.268302,-11.983761
1000.082031,-15.415254,-9.193187,-12.398496,-8.214913
1000.085938,-5.085149,-1.032798,-8.201088,-7.532901
1000.089844,-4.017108,-5.731515,-4.606485,-5.108939
1000.093750,-5.647885,-2.485262,-6.261589,-2.025559
1000.097656,-3.328454,-2.591825,-6.584121,-1.960317
1000.101562,-7.063430,3.667337,0.488825,7.499479
1000.105469,6.859999,-2.746827,2.626422,8.364749
1000.109375,10.362097,0.648961,7.329642,6.856847
1000.113281,4.787831,6.553326,-0.098626,8.453543
1000.117188,14.779696,5.749511,10.910998,1.403633
1000.121094,7.481286,9.539804,10.757282,4.555659
1000.125000,10.606636,17.413879,11.421953,14.287933
1000.128906,9.231315,-3.043562,12.573972,11.351585
1000.132812,12.054222,11.037377,5.110567,9.970643
1000.136719,2.833028,9.032953,6.929805,8.079859
1000.140625,1.160737,4.083869,13.933726,0.265287
1000.144531,3.470003,4.781438,-2.385736,3.790524
1000.148438,8.207260,7.061664,-3.841966,2.290296
1000.152344,1.063525,-4.913854,-6.170236,-0.431478
1000.156250,1.217133,-9.287891,-0.322503,-0.150800
1000.160156,-1.710591,-7.546464,-0.611257,-5.738555
1000.164062,-10.078545,-13.945687,-7.552315,-11.446453
1000.167969,-12.762206,-12.937939,-13.886362,-5.663792
1000.171875,-14.576649,-0.894075,-16.696692,-12.709878
1000.175781,-11.698319,-5.459255,-16.487314,-10.571238
1000.179688,-3.638430,-2.704296,-12.829379,-14.438938
1000.183594,-4.297032,-5.749610,-12.565492,-7.956544
1000.187500,-9.102090,-11.205991,-2.229176,-12.921116
1000.191406,-2.190090,-7.523307,-7.588820,-7.543975
1000.195312,-7.796200,-2.702351,-1.633721,-2.487881
1000.199219,-2.186459,3.753544,-1.627524,1.910916
1000.203125,-1.995284,-3.081542,5.377319,2.326258
1000.207031,7.028558,-4.115238,6.603508,2.971570
1000.210938,8.759442,0.577092,6.298108,5.425460
1000.214844,6.738661,5.485817,-0.669421,5.682654
1000.218750,12.763410,7.250425,6.152468,8.715828
1000.222656,-1.533720,14.676315,13.248481,9.795203
1000.226562,11.405036,16.487439,9.961901,3.795185
1000.230469,19.502064,8.444463,8.024063,14.509619
1000.234375,5.196946,8.779948,9.624181,3.134732
1000.238281,4.938178,4.761023,6.949905,7.368463
1000.242188,6.094709,10.005577,5.144898,1.670828
1000.246094,9.336505,-6.065884,3.019670,-1.982166
1000.250000,0.851706,-2.436925,-0.062796,5.725324
1000.253906,-0.405395,0.227251,-4.844154,-7.915544
1000.257812,-3.135323,-4.477979,-1.494035,-1.128155
1000.261719,-9.650086,-6.015213,-2.209661,-5.702860
1000.265625,-11.435237,-8.440767,-5.990790,-5.213244
1000.269531,-0.294666,-8.625516,-13.920044,-12.749330
1000.273438,-4.800647,-3.931000,-11.526745,-14.143749
1000.277344,-14.794403,-9.232438,-2.202223,-2.481891
1000.281250,-12.592545,-6.734758,-11.426122,-17.555717
1000.285156,-7.390165,-8.092150,-12.692520,-5.739147
1000.289062,-4.742025,-4.079480,-9.732600,-8.434640
1000.292969,-3.218071,-10.994474,3.291351,-1.383094
1000.296875,-4.634637,1.514861,-0.566084,-1.300500
1000.300781,0.751667,-0.014969,6.893293,3.157503
1000.304688,0.649768,2.992698,5.395792,4.084863
1000.308594,2.569181,6.765273,5.968046,7.733652
1000.312500,9.260867,9.137432,8.005591,7.652796
1000.316406,8.771597,10.858331,1.774323,6.678943
1000.320312,11.002887,12.659935,9.919907,7.226049
1000.324219,9.798409,6.767318,6.219250,6.632681
1000.328125,8.167820,10.589335,7.932236,8.768755
1000.332031,6.075746,7.515333,9.780670,18.039186
1000.335938,9.782195,17.612965,19.196923,7.148048
1000.339844,9.198419,8.990505,-4.644419,8.752908
1000.343750,5.328562,1.329551,5.280171,11.934224
1000.347656,9.348571,2.441127,1.830789,-4.972503
1000.351562,6.279557,-3.755918,-8.531599,4.369579
1000.355469,-2.010226,-9.914574,-7.462192,4.887734
1000.359375,-8.805113,-8.067666,-9.897268,-5.322064
1000.363281,-6.580951,-5.419271,-1.897336,-7.097297
1000.367188,-8.823969,-5.628200,-12.082492,-14.363023
1000.371094,0.726735,-2.504472,-8.172063,-15.599019
1000.375000,-11.626496,-16.331733,-7.472005,-14.884569
1000.378906,-12.103976,-13.987768,-19.333131,-15.187552
1000.382812,-17.681062,-5.542416,-6.547288,-13.480419
1000.386719,-8.137845,-2.848038,-7.547933,-7.398598
1000.390625,-6.109663,-5.281273,-6.887552,-3.035455
1000.394531,-4.071001,-3.799819,-2.127219,-3.459703
1000.398438,-9.629420,-3.538504,0.498259,-2.238444
1000.402344,1.735109,6.019322,-0.932968,4.626335
1000.406250,5.754938,2.900912,1.314785,2.378670
1000.410156,5.600822,9.960967,3.908741,2.193116
1000.414062,7.533533,6.493847,4.809300,14.211967
1000.417969,1.103481,15.945046,13.527705,7.396447
1000.421875,13.881506,12.437440,11.894370,8.635703
1000.425781,17.354728,7.212799,16.023294,11.336679
1000.429688,10.165358,14.891421,7.481986,7.979377
1000.433594,6.814828,6.609405,7.585737,8.576749
1000.437500,6.710240,12.694530,8.144758,5.694438
1000.441406,8.986058,15.901875,3.011187,3.778823
1000.445312,5.348375,10.487251,0.414290,3.343343
1000.449219,-3.639184,-4.696229,2.449103,1.546455
1000.453125,10.584690,-7.431905,-3.597263,2.525561
1000.457031,-3.048831,-4.919015,-9.481044,4.355015
1000.460938,-12.163665,-10.385671,-10.487687,-12.420959
1000.464844,-12.547104,-15.587789,-10.561409,-6.581807
1000.468750,-3.061156,-13.347804,-7.796034,-18.165400
1000.472656,-6.620509,-10.730209,-6.669189,-6.473906
1000.476562,-12.521309,-3.019931,-17.339914,-13.719735
1000.480469,-7.352492,-5.336569,-5.725432,-12.400874
1000.484375,-15.422872,-1.758833,-5.101695,-5.681912
1000.488281,-8.750149,1.125673,-9.554089,-5.813411
1000.492188,-5.174312,-6.358703,-8.608373,-2.550662
1000.496094,-3.569531,-7.651148,-5.891708,-4.803852
1000.500000,-3.363014,-3.456649,5.803253,1.316612
1000.503906,1.189867,10.517341,7.383247,5.348594
1000.507812,-5.509830,2.892098,7.608333,-2.004994
1000.511719,7.983818,8.032950,7.208337,0.900048
1000.515625,-0.344880,8.258047,3.070332,12.559434
1000.519531,8.559898,4.198477,15.355447,13.319909
1000.523438,8.861047,9.203834,4.725750,12.140776
1000.527344,12.045475,3.485217,7.866387,20.132521
1000.531250,9.579781,9.660236,7.325159,10.333901
1000.535156,8.275046,18.334377,3.758805,10.070860
1000.539062,14.667419,9.549100,13.407500,-3.977163
1000.542969,4.942069,8.221437,7.865066,13.707890
1000.546875,-0.446912,0.461413,-9.525957,-5.178743
1000.550781,-7.168787,-3.022166,0.256772,1.506106
1000.554688,0.996018,-3.624682,-3.737334,-4.060892
1000.558594,-9.822986,-2.984458,-1.865212,-5.547806
1000.562500,-10.134741,-7.259378,-9.251342,-11.312892
1000.566406,-9.652105,-7.332041,-6.069487,-10.222518
1000.570312,-8.995871,-14.392565,-13.727224,-14.359164
1000.574219,-2.411581,-14.782633,-7.146144,-6.962481
1000.578125,-0.318904,-15.491355,-6.897976,-10.302602
1000.582031,-7.317390,-12.734837,-3.383901,-4.737647
1000.585938,-1.651934,-4.148766,-11.427734,-7.861884
1000.589844,-0.691592,-9.127739,2.532829,-9.881495
1000.593750,4.538471,-10.494177,-2.298894,-7.310482
1000.597656,-1.435040,-1.578079,-0.806524,-0.722792
1000.601562,-4.139457,-2.344080,-5.980373,0.562911
1000.605469,1.968838,2.004294,7.476314,6.554895
1000.609375,4.945045,8.216989,6.220113,0.586479
1000.613281,18.494617,5.791713,7.186369,2.286492
1000.617188,11.608942,3.720390,7.407319,10.176599
1000.621094,7.800583,12.682464,5.847594,12.654404
1000.625000,10.558536,16.332068,8.731419,8.036404
1000.628906,8.783666,7.279164,10.086287,9.508100
1000.632812,12.066786,5.672104,8.748539,10.600936
1000.636719,3.172333,4.727426,5.282751,13.608184
1000.640625,4.653387,5.928825,6.546052,4.751076
1000.644531,7.059691,-3.727108,6.910794,4.983996
1000.648438,-1.712482,1.881286,0.854075,-5.337975
1000.652344,2.276703,-10.898597,-8.122482,-1.968154
1000.656250,-3.179706,2.936784,-13.808777,-7.575849
1000.660156,-5.794706,-9.781522,-6.378181,-7.414356
1000.664062,-12.556811,-3.995679,-10.647764,-13.040040
1000.667969,-6.980327,-11.331520,-10.552965,-10.835832
1000.671875,-8.116086,-12.291706,-10.476600,-10.801178
1000.675781,-10.896549,-9.216729,-8.048740,-7.254695
1000.679688,-12.559318,-12.899630,-6.517942,-11.931465
1000.683594,-4.808985,-9.843393,-1.852567,-10.006599
1000.687500,-7.346555,-12.921532,-8.602452,-3.740689
1000.691406,-3.739762,-10.512921,-9.622349,-6.422323
1000.695312,-14.140885,-3.950573,0.166308,-2.859829
1000.699219,-5.638821,-7.560954,0.614106,-3.989035
1000.703125,3.740496,1.986945,13.146595,2.696609
1000.707031,12.289290,4.311565,3.704979,5.275024
1000.710938,10.651516,2.865982,4.859320,4.795447
1000.714844,13.595148,5.225467,10.217196,-0.129840
1000.718750,7.430047,3.061007,5.951780,8.483145
1000.722656,10.504599,5.586937,5.598881,7.168591
1000.726562,7.716646,7.336871,16.223790,12.254201
1000.730469,13.307671,5.827822,13.822699,9.753096
1000.734375,6.621878,14.198659,5.941228,7.776258
1000.738281,8.376817,17.291479,14.933254,20.697842
1000.742188,8.136108,1.997521,5.715509,5.652819
1000.746094,2.519649,2.040465,4.493735,8.260365
1000.750000,-1.161806,1.568553,2.203239,4.316573
1000.753906,7.096826,-6.677681,-1.379534,-9.078699
1000.757812,-6.410333,-10.134980,-5.333340,-2.079324
1000.761719,-4.357803,-4.318811,-10.172132,-15.520748
1000.765625,-7.807124,-3.880785,1.338223,-13.323453
1000.769531,-6.299789,-7.534888,-8.435524,-11.007346
1000.773438,-8.126717,-6.482497,-7.860293,-11.675574
1000.777344,-5.257283,-7.926576,-9.620529,-13.130465
1000.781250,-10.250917,-11.812276,-12.363000,-9.623532
1000.785156,-2.474102,-7.923625,-6.638325,-4.539350
1000.789062,-5.714168,2.583916,-8.256319,-8.583587
1000.792969,-12.722089,-7.492801,-6.039671,0.375790
1000.796875,-2.419250,-1.150368,2.895100,1.188495
1000.800781,5.697462,-7.250030,2.816468,1.732492
1000.804688,-0.033058,-7.054046,-1.044784,-2.336380
1000.808594,7.661345,5.427685,4.003150,-2.718458
1000.812500,7.320812,5.256390,-2.474716,2.929257
1000.816406,7.115338,4.831781,11.296005,5.807454
1000.820312,9.119988,13.012172,8.899930,7.194688
1000.824219,5.124546,4.872833,12.612854,13.628276
1000.828125,2.833284,13.809187,13.645300,9.430386
1000.832031,10.386363,14.666986,15.489110,7.845327
1000.835938,3.413075,8.517943,10.955536,11.135871
1000.839844,8.015983,7.516859,-4.015543,6.968327
1000.843750,3.692237,1.666227,0.864142,5.862831
1000.847656,-2.832535,1.265774,2.431882,1.964693
1000.851562,-0.070059,-5.148002,1.374150,4.341665
1000.855469,-0.547935,2.918686,-3.095965,-1.867979
1000.859375,-1.460007,-2.414826,-9.552236,-13.759755
1000.863281,-7.636489,-14.114230,-6.908076,1.261808
1000.867188,-6.561438,-7.503318,-6.109870,-7.297774
1000.871094,-10.908785,-4.724394,-13.164632,-13.683188
1000.875000,-3.065010,-13.398288,-14.465651,-12.174223
1000.878906,-9.927162,-15.590009,-4.212942,-9.993341
1000.882812,-4.247909,-7.652082,-8.658041,-13.349328
1000.886719,-11.231065,-8.882119,-5.984317,-10.741943
1000.890625,-2.391680,-6.039815,5.441687,-8.618920
1000.894531,3.189517,-3.147168,-1.284006,6.668290
1000.898438,-3.225363,2.694195,2.280201,-6.119662
1000.902344,-0.798714,2.562468,-1.586505,-3.852754
1000.906250,6.774911,2.809560,0.559721,4.240181
1000.910156,5.369905,6.895570,8.003918,3.624481
1000.914062,10.102199,10.386802,7.772350,4.365272
1000.917969,10.873911,16.283770,5.322657,12.112737
1000.921875,9.278947,7.301199,9.278437,8.597308
1000.925781,8.967138,2.538755,6.420806,10.410182
1000.929688,2.521931,12.862030,11.393416,7.180242
1000.933594,-0.165478,9.189793,10.335901,4.836591
1000.937500,2.433576,7.599788,5.078656,4.638972
1000.941406,9.234246,8.016806,7.934632,5.818058
1000.945312,7.971930,1.074826,1.846419,1.907454
1000.949219,0.402726,-4.063954,4.278720,9.000092
1000.953125,-1.833067,3.292896,-2.718973,3.815478
1000.957031,-3.393850,-7.226413,-3.404180,1.809892
1000.960938,-4.252527,-8.356466,-2.581233,-7.235501
1000.964844,-0.799684,1.868790,-11.100406,-11.680601
1000.968750,-13.563578,-8.065603,-11.942456,-10.142426
1000.972656,-14.188525,-1.651895,-12.264228,-9.614897
1000.976562,-14.481469,-6.735824,-0.768532,-11.696735
1000.980469,-11.885677,-12.560818,-6.014540,-9.820202
1000.984375,-6.220254,-2.557065,-5.779193,-14.295862
1000.988281,-0.266582,-2.165238,-1.832612,-7.596427
1000.992188,-9.901270,-9.727705,-8.622005,-1.000416
1000.996094,-6.193817,-1.028001,-6.169595,-7.286474
1001.000000,0.221714,8.177977,3.423720,3.093760
1001.003906,6.974443,2.435447,-2.547205,2.230794
1001.007812,-2.412136,-4.593358,-3.145016,-4.248916
1001.011719,7.243154,9.861861,1.111009,6.518833
1001.015625,-2.377325,13.777115,8.428978,7.302660
1001.019531,6.388617,10.029451,18.214208,6.297580
1001.023438,11.584678,15.491112,1.439836,4.760602
1001.027344,11.718748,3.372437,12.115809,10.143800
1001.031250,8.356548,19.573428,4.331249,9.807604
1001.035156,16.911589,7.313315,5.120156,9.490203
1001.039062,10.715318,1.197853,7.395337,7.238375
1001.042969,6.374304,9.728008,5.444046,1.294371
1001.046875,1.346713,-3.142086,6.078055,-3.140340
1001.050781,4.347785,-9.005397,-5.307816,3.290382
1001.054688,-5.676950,-4.330274,-7.406867,-7.190962
1001.058594,-3.507310,-6.908785,-10.550701,-1.484815
1001.062500,-3.837292,-12.429885,-4.153618,-7.713664
1001.066406,-5.912975,-10.409961,-5.365641,-3.433824
1001.070312,-12.372666,-8.208797,-9.037891,-8.061614
1001.074219,-15.682716,-7.976294,-5.711980,-14.506695
1001.078125,-6.292804,-19.003106,-13.119433,-9.933957
1001.082031,-11.106403,-3.411914,-11.689487,-11.253579
1001.085938,-1.935126,-7.789518,-9.575586,-5.045376
1001.089844,-6.575167,-8.644757,-4.128055,-3.565460
1001.093750,-5.298812,-13.070197,-7.312919,-8.622081
1001.097656,-0.888127,-5.080394,-4.976997,-5.586843
1001.101562,5.518796,2.526414,-0.825405,-3.206737
1001.105469,1.804730,6.526293,0.905413,2.182103
1001.109375,2.740051,8.937217,4.853545,9.741703
1001.113281,13.703935,10.837931,12.279511,-2.947325
1001.117188,9.342709,10.172705,9.095220,4.621540
1001.121094,10.923768,-5.827189,12.327708,9.053045
1001.125000,11.636773,9.774093,6.041243,10.754411
1001.128906,4.635460,7.815551,13.229453,5.445148
1001.132812,10.367552,5.648989,0.958262,4.685012
1001.136719,2.465637,-1.810702,17.432684,8.066522
1001.140625,4.399240,3.505758,7.126227,9.282351
1001.144531,9.710441,3.971284,0.055263,-0.386104
1001.148438,-0.937771,-7.369422,1.945194,6.219909
1001.152344,-6.492608,3.015930,-1.057834,-4.288626
1001.156250,-1.825589,-2.924542,-9.660087,-5.752932
1001.160156,-6.905483,-9.010047,-8.198010,1.249897
1001.164062,-0.336459,-7.803941,0.691126,-8.887027
1001.167969,-7.358835,-5.272258,-12.041077,-13.484500
1001.171875,-13.476086,-18.462917,-11.810383,-15.811756
1001.175781,-11.466885,-10.875250,-4.452582,-8.074075
1001.179688,-10.460450,-9.305884,-7.243744,-1.941076
1001.183594,-4.770802,-7.654676,-4.175964,-7.134317
1001.187500,-0.773772,-1.806365,-9.270443,-8.389075
1001.191406,-2.866958,-1.050286,-5.640926,-6.662365
1001.195312,-3.466038,-2.734963,-5.450451,-4.231286
1001.199219,-10.745338,2.402842,4.264141,-0.481605
1001.203125,-0.942092,6.632731,-5.176000,1.130349
1001.207031,10.767721,6.887469,8.269303,0.786260
1001.210938,5.477636,7.548477,7.973706,-1.996064
1001.214844,4.446252,6.708974,8.641033,13.858206
1001.218750,5.550878,4.710941,10.562716,10.814429
1001.222656,14.778829,7.914291,9.800199,5.994837
1001.226562,11.799433,10.958648,5.249707,9.715649
1001.230469,11.121536,7.738127,8.827902,8.358630
1001.234375,1.621093,12.452027,10.818676,7.222322
1001.238281,6.569138,3.793631,5.789917,4.886852
1001.242188,9.817280,-5.632487,0.899234,5.986883
1001.246094,9.419481,2.352126,6.863251,1.856048
1001.250000,-2.588914,2.892418,-3.363212,0.110997
1001.253906,-0.548155,-7.369082,4.912288,-3.892316
1001.257812,-11.590327,-7.779253,-9.698440,-5.479044
1001.261719,1.268458,-2.258215,-10.943356,-10.459362
1001.265625,-1.961824,-9.900156,-6.007573,-9.752649
1001.269531,-13.000936,-2.415882,-12.992582,-8.248586
1001.273438,-9.478099,-7.738515,-6.066895,-10.858571
1001.277344,-8.226393,-0.989390,-8.754498,-6.348764
1001.281250,-16.028393,-4.302129,-8.465980,-11.025875
1001.285156,-7.933622,-11.318788,-6.572583,-5.082676
1001.289062,-10.865487,-9.913616,-11.218949,-3.577006
1001.292969,-5.464242,-6.654833,-8.844911,-8.189148
1001.296875,0.925075,0.470720,0.652587,-4.281894
1001.300781,-3.460896,3.408080,3.583191,-0.878784
1001.304688,7.634319,3.030998,-5.310793,1.366356
1001.308594,5.822035,3.870532,-0.844666,2.802496
1001.312500,4.767263,7.107970,9.055158,12.858864
1001.316406,7.337223,6.052113,7.866077,12.140510
1001.320312,8.898469,9.053490,12.270267,7.192121
1001.324219,15.706943,6.766123,8.888969,6.981977
1001.328125,10.660487,7.375491,7.703548,13.299149
1001.332031,5.023605,12.266279,10.368569,5.011755
1001.335938,9.181575,8.854906,9.696759,2.334128
1001.339844,11.658622,3.322704,6.164541,6.519292
1001.343750,-3.575650,2.763509,2.734928,6.343819
1001.347656,-7.828335,-0.478353,5.155629,6.153055
1001.351562,0.275964,3.778345,0.838658,0.834682
1001.355469,-5.794937,-3.948117,-0.972165,-6.126340
1001.359375,-7.598869,-5.720746,-6.957489,-6.577565
1001.363281,-10.175101,-7.425114,-9.634342,-5.436224
1001.367188,-12.338756,-13.986806,-3.717681,1.589305
1001.371094,-10.458386,1.866898,-10.187848,-13.923769
1001.375000,-10.367623,-10.886254,-4.659533,-15.516049
1001.378906,-8.394611,-12.030780,-15.583865,-8.273436
1001.382812,-14.175152,-4.834060,-11.266285,-11.802297
1001.386719,-14.979527,-7.769714,-7.286078,-13.176837
1001.390625,-7.675028,-2.198866,-6.476883,-11.882533
1001.394531,-2.877130,-10.544687,-3.140363,-7.938602
1001.398438,-2.576441,2.164568,0.723955,0.074088
1001.402344,5.252771,1.528147,3.394411,3.171723
1001.406250,8.858232,9.804305,0.993595,3.526532
1001.410156,4.504618,7.675595,6.304654,4.156614
1001.414062,9.453392,8.099759,8.581497,7.553863
1001.417969,9.187259,10.566014,11.657225,7.063556
1001.421875,3.638593,13.249002,11.970864,9.774490
1001.425781,13.080069,14.300021,7.976991,8.418452
1001.429688,8.647610,9.194646,6.539157,2.620805
1001.433594,10.462357,8.365510,12.951258,11.549680
1001.437500,4.910449,6.679672,5.749799,-0.048432
1001.441406,0.507075,1.215073,6.901005,3.116630
1001.445312,2.135012,8.156711,-0.361877,1.150598
1001.449219,1.741400,4.542070,0.252117,1.048498
1001.453125,-9.802803,1.506503,-3.762215,-2.689047
1001.457031,-3.496235,-2.443549,3.847974,-1.790177
1001.460938,-3.131703,-3.244527,-11.679803,-6.900953
1001.464844,-7.622504,-9.726931,-7.662111,-8.547178
1001.468750,-3.880181,-10.042531,-8.826705,-7.234875
1001.472656,-8.758164,-11.903961,-5.727358,-5.960866
1001.476562,-3.969885,-4.837401,-8.464427,-6.245890
1001.480469,-11.502157,-9.023257,-6.719736,-8.766648
1001.484375,-11.521302,-11.692016,-5.723675,-10.080896
1001.488281,-8.147886,-11.314084,-8.025126,-4.605808
1001.492188,0.267784,-5.992099,0.018211,-8.197077
1001.496094,5.076391,-6.217100,-3.735666,-0.031905
1001.500000,7.113911,-2.456511,0.318150,-2.037984
1001.503906,-2.505757,4.570736,7.593377,-0.681707
1001.507812,9.869986,9.620129,-2.682331,-0.195038
1001.511719,3.821387,4.276194,2.150531,7.456045
1001.515625,10.006623,8.624430,2.864809,7.880826
1001.519531,9.993715,10.639607,4.152936,10.244175
1001.523438,14.154972,10.306309,5.983668,15.270714
1001.527344,5.488739,11.832613,6.833436,3.147749
1001.531250,10.055759,6.447746,12.639713,13.312232
1001.535156,1.953260,7.613196,7.721175,10.358002
1001.539062,7.682465,11.982145,9.025106,10.919395
1001.542969,1.015407,3.874192,-1.400324,9.848423
1001.546875,4.048406,4.997742,5.846870,-4.828330
1001.550781,-3.648397,2.546921,-6.409940,-0.662595
1001.554688,-0.928254,-6.586452,-4.413140,0.088378
1001.558594,-2.040315,-1.968695,-1.243346,-4.045714
1001.562500,-6.990153,-2.912494,-6.988738,-5.597429
1001.566406,-10.435539,-17.225320,-6.741904,-9.153873
1001.570312,-7.845694,-4.486791,-7.915908,-3.662073
1001.574219,-5.366560,-11.062189,-8.910667,-11.408187
1001.578125,-4.486808,-11.351826,-10.250684,-12.683071
1001.582031,-13.951440,-12.045641,-9.500655,-12.933603
1001.585938,-3.277915,-15.049702,-6.028777,-3.515468
1001.589844,-2.915880,-0.801501,-5.845648,-3.149847
1001.593750,-7.652893,-3.840214,-9.833527,-9.859199
1001.597656,-0.715154,-4.487323,-3.392307,1.927161
1001.601562,-8.326334,1.507653,5.763466,2.923547
1001.605469,4.051851,1.979239,2.144639,12.213320
1001.609375,6.684882,2.994845,5.147663,8.985186
1001.613281,9.177376,14.283664,4.487433,7.712479
1001.617188,7.345606,6.876730,9.874588,5.508404
1001.621094,8.485327,6.856950,11.960278,8.990349
1001.625000,5.966202,9.312436,6.473071,9.483004
1001.628906,17.650094,12.946365,12.730493,15.641585
1001.632812,11.333282,7.341233,8.880746,7.911602
1001.636719,3.989154,6.490537,15.433869,12.064960
1001.640625,6.252457,5.528278,14.175059,6.117946
1001.644531,1.195243,-0.359814,3.517867,12.158742
1001.648438,1.372735,8.799928,-0.612139,-7.956312
1001.652344,0.356304,0.295547,1.914333,0.023022
1001.656250,-4.219122,1.273044,-1.129671,-0.705027
1001.660156,6.447765,-1.928906,-6.058300,-8.484128
1001.664062,-13.462137,-7.344348,-10.567538,-2.334435
1001.667969,-10.783484,-6.660598,-9.154571,-6.000917
1001.671875,-10.460775,-8.664580,-6.176720,-6.019559
1001.675781,-11.197676,-7.632408,-15.737198,-14.336314
1001.679688,-16.371676,-7.235396,-8.731663,-4.060391
1001.683594,0.089383,-7.195309,-6.067658,-4.368784
1001.687500,-9.057124,-10.784298,-5.388181,-6.219941
1001.691406,-5.018720,-6.799394,-8.866161,-0.608649
1001.695312,-3.629376,-2.486169,-1.058019,0.835631
1001.699219,-1.606558,0.217259,1.117788,3.158650
1001.703125,0.592866,7.227357,2.129442,0.597042
1001.707031,7.954916,1.630316,7.103756,3.095773
1001.710938,5.618568,3.708353,7.601771,4.703483
1001.714844,16.776518,6.814016,7.952295,5.113833
1001.718750,7.959890,9.390683,11.466851,7.197739
1001.722656,12.006055,10.594111,13.208944,16.194956
1001.726562,11.353793,2.741138,1.803080,14.437946
1001.730469,6.120061,14.938424,3.033758,4.373591
1001.734375,6.194549,8.917962,8.205137,13.892187
1001.738281,-1.485392,8.482856,7.017457,4.620508
1001.742188,3.032528,0.398816,4.762393,7.019598
1001.746094,1.792915,-0.984000,2.252851,0.344810
1001.750000,-8.955601,2.179119,2.646069,3.456350
1001.753906,-6.040997,-2.144431,1.754824,-9.014780
1001.757812,-7.982526,-9.726263,3.154237,-8.177212
1001.761719,-4.464950,-3.978698,-8.832723,-5.454156
1001.765625,-5.640419,-7.238473,-5.555018,-4.496110
1001.769531,-6.036173,-9.340032,-14.428489,-9.228020
1001.773438,-8.665550,-11.224040,-10.996833,-13.735632
1001.777344,-11.617054,1.143846,-7.701761,-9.383077
1001.781250,-10.862382,-5.782222,-7.852212,-8.690079
1001.785156,-5.072514,-9.543183,-5.230786,-5.985794
1001.789062,1.632792,-5.830752,-7.215309,-12.198070
1001.792969,-8.146291,-11.647369,-0.400277,-1.893877
1001.796875,4.715249,2.832550,-1.179959,0.376082
1001.800781,1.816580,0.788325,-0.763680,-6.958180
1001.804688,5.174316,0.793884,0.557693,-1.337940
1001.808594,1.550063,-0.149807,6.596243,4.075009
1001.812500,10.207224,4.086702,6.698793,4.601723
1001.816406,11.334929,10.335540,10.433154,12.427017
1001.820312,6.204084,15.389604,7.976554,3.529243
1001.824219,9.886234,6.298550,10.637527,13.157608
1001.828125,10.195209,15.194528,5.483217,7.019616
1001.832031,9.790997,9.486886,4.217400,14.329626
1001.835938,11.582565,9.910197,0.546196,11.024847
1001.839844,-5.094099,11.922896,6.191854,8.591438
1001.843750,0.430871,3.558833,8.520764,-3.583406
1001.847656,-0.030922,-3.443846,15.421515,-6.456141
1001.851562,-2.148567,-2.203396,2.676703,-0.150690
1001.855469,0.403099,5.707623,-5.204740,-3.331452
1001.859375,-4.059043,-1.912127,-3.625649,1.767693
1001.863281,-14.429272,-11.462861,-9.955056,-9.826340
1001.867188,-17.851339,-3.346222,-9.927699,-1.856128
1001.871094,-8.468248,-7.571476,-12.078535,-9.501666
1001.875000,-11.088792,-4.945487,-2.180200,-9.461670
1001.878906,-12.885687,-15.006553,-10.838706,-16.632860
1001.882812,-7.749995,-10.365452,-4.718364,-14.437447
1001.886719,-6.720522,-2.880868,-10.069716,-6.735581
1001.890625,-10.423209,-7.796065,-3.116195,-8.252059
1001.894531,-1.296341,6.312553,-7.114943,-5.596831
1001.898438,4.378851,-3.675177,-3.904442,7.357363
1001.902344,8.417774,0.347430,0.152013,7.396261
1001.906250,1.007348,12.608233,2.134429,4.581938
1001.910156,7.679120,7.998505,5.052935,7.918582
1001.914062,5.992957,6.249378,11.248654,11.588749
1001.917969,12.567120,6.465145,9.347277,11.228084
1001.921875,11.186521,5.459554,1.364366,-0.287475
1001.925781,12.059220,5.849524,13.044439,10.054559
1001.929688,15.572270,8.050244,0.782966,6.385389
1001.933594,12.591146,11.401900,11.476131,18.934573
1001.937500,5.130627,5.478064,4.893088,8.284806
1001.941406,1.443449,4.149372,10.200238,7.670113
1001.945312,5.296737,4.564716,5.931675,-0.551000
1001.949219,5.145978,5.444188,2.457415,8.694164
1001.953125,-8.497087,1.579425,0.469727,-4.767171
1001.957031,-4.407397,-11.300291,5.276064,-0.336487
1001.960938,-11.860081,0.325822,-4.888622,-2.694924
1001.964844,-10.969816,-4.663956,-4.174964,-10.699188
1001.968750,-5.988887,-15.885350,-3.080096,-11.135775
1001.972656,-9.130797,-2.580353,-16.129749,-13.119370
1001.976562,-8.478412,-7.517710,-11.891841,-14.814011
1001.980469,-0.845467,-17.564006,-5.559494,-21.091039
1001.984375,-7.916248,-14.032958,-9.515659,-1.968199
1001.988281,-3.688133,-15.037400,-8.033526,-10.237073
1001.992188,-4.280155,-2.024335,-7.634335,-1.052726
1001.996094,-1.802936,1.650280,3.857271,-6.960478
1002.000000,4.733100,-2.966543,-4.203513,-2.479710
1002.003906,10.026634,0.504696,-1.758017,6.500866
1002.007812,3.629688,5.130334,2.841663,0.089122
1002.011719,-0.367673,7.374722,-0.254215,9.408088
1002.015625,9.043326,12.651800,9.001868,15.471258
1002.019531,3.681969,9.227658,11.996051,9.816269
1002.023438,14.412413,12.001230,5.492522,7.205468
1002.027344,7.537396,14.071908,9.458060,8.098314
1002.031250,12.938373,4.587741,8.276299,9.677846
1002.035156,6.710119,7.687053,0.600823,13.560450
1002.039062,6.554440,5.579917,12.469683,11.149449
1002.042969,9.797742,13.868391,7.478449,5.318188
1002.046875,5.424845,6.463212,9.011301,3.113732
1002.050781,-4.507836,-0.686750,0.416135,-5.183142
1002.054688,-2.187171,-0.070209,-0.371591,-2.198350
1002.058594,-5.613672,-6.186764,-6.278558,-5.195261
1002.062500,-6.834916,-7.359570,-7.066086,-6.692766
1002.066406,-7.533779,-1.722950,-17.221779,-10.957627
1002.070312,-2.953995,-6.796998,-5.709462,-11.189750
1002.074219,-11.185831,-12.276571,-7.181589,-10.832910
1002.078125,-10.364672,-10.074912,-13.692491,-12.722117
1002.082031,-13.144421,-6.907432,-13.599548,-4.488685
1002.085938,-8.625396,-7.374645,-14.160184,-2.350674
1002.089844,-7.490813,-5.564166,-10.263792,-5.268232
1002.093750,2.582853,-2.923886,-1.439619,-6.265027
1002.097656,-2.593834,-4.283344,-4.552005,2.795481
1002.101562,-1.172317,-1.781733,4.101102,1.178607
1002.105469,-1.113339,4.723114,2.710515,0.327092
1002.109375,8.647969,4.449818,1.308801,11.980197
1002.113281,13.652402,6.325853,6.356205,3.266913
1002.117188,9.581936,4.866555,-1.573408,6.426119
1002.121094,5.815097,3.996261,5.490258,10.066050
1002.125000,10.236773,8.616390,5.176169,12.079025
1002.128906,9.482649,14.814128,5.308066,11.993442
1002.132812,14.158957,6.363167,13.083640,8.329489
1002.136719,16.297291,10.047424,8.842018,5.877217
1002.140625,5.634562,-4.219652,4.150723,11.606630
1002.144531,8.071255,0.319983,2.582471,5.499854
1002.148438,1.483470,6.947827,1.171959,-3.963461
1002.152344,-9.722667,3.185341,0.499764,-3.747357
1002.156250,-6.062917,-5.441167,0.552883,-0.562672
1002.160156,-5.448087,-6.942240,-7.095893,-8.126050
1002.164062,-5.698983,-8.339462,-4.976964,0.071616
1002.167969,-6.671306,-8.211919,-6.383972,-9.225531
1002.171875,-8.436665,-6.724829,-14.487030,-5.250054
1002.175781,-10.489035,-4.538668,-10.198099,-6.495914
1002.179688,-12.839039,-13.476323,-12.103334,-11.452148
1002.183594,-2.210443,-9.736953,-0.360479,-9.125471
1002.187500,-5.103196,-7.225575,-8.802671,-9.493295
1002.191406,-8.160993,-2.803421,-8.545325,-5.806726
1002.195312,1.672436,-0.075565,-6.726395,-3.666875
1002.199219,6.155981,4.665992,-3.291735,-7.548603
1002.203125,2.091291,3.806432,2.564049,9.123409
1002.207031,8.970021,9.179902,1.279889,7.027802
1002.210938,3.928527,8.764719,1.521345,5.799075
1002.214844,14.214968,5.276465,14.609020,3.065513
1002.218750,10.737237,6.997054,7.910625,5.869818
1002.222656,5.891603,15.511424,11.522831,9.827801
1002.226562,11.310376,7.848416,14.004220,17.336369
1002.230469,5.714700,10.824957,10.300434,13.254255
1002.234375,9.922241,10.423070,6.459176,6.327940
1002.238281,9.675687,8.493528,7.762506,10.608267
1002.242188,-3.936766,8.884868,1.525849,-1.157228
1002.246094,8.766987,-0.001096,4.388218,3.934139
1002.250000,1.571728,0.481641,-4.295477,2.158473
1002.253906,-7.313355,-2.190326,-0.595079,-3.641924
1002.257812,-0.338302,-9.281144,4.515280,1.400177
1002.261719,-15.555382,-5.369431,-3.861141,-12.051092
1002.265625,-14.904023,-2.067837,-9.679053,-9.186162
1002.269531,-6.130765,-14.179284,-7.802731,-13.822411
1002.273438,-7.689090,-14.272130,-9.455094,-15.128751
1002.277344,-10.514605,-9.301208,-8.343326,-13.833743
1002.281250,-11.846451,-13.519065,-5.776391,-11.002941
1002.285156,-2.641016,-14.363357,-7.046634,-11.740621
1002.289062,-5.908192,-5.445316,-1.932876,-10.566185
1002.292969,-3.896662,-2.513633,-2.200259,2.161347
1002.296875,-3.098011,-4.307533,-7.604960,-2.943593
1002.300781,-1.882887,-1.988186,3.090653,4.676846
1002.304688,-3.938262,-0.793306,5.232875,3.177013
1002.308594,-1.086452,3.872759,8.464710,3.367757
1002.312500,5.688746,2.462034,7.682354,8.122772
1002.316406,12.783892,1.434243,1.239498,4.711986
1002.320312,10.533808,9.622635,15.461564,17.896357
1002.324219,11.039731,9.219570,11.064893,11.046097
1002.328125,7.447242,10.840960,12.630790,9.779029
1002.332031,8.767328,3.982434,7.965127,2.897960
1002.335938,8.118669,4.014785,9.057915,7.343763
1002.339844,13.352212,7.248737,7.506224,9.457457
1002.343750,7.736260,4.907611,3.995206,1.468046
1002.347656,-6.694539,1.872096,-2.308967,-2.320953
1002.351562,-2.339899,-0.691585,-3.076983,-3.226715
1002.355469,-6.659914,-11.374747,-4.204411,-4.367209
1002.359375,-11.038288,-7.778522,-10.234494,-15.098945
1002.363281,-5.173008,-12.109335,-5.053463,-14.106340
1002.367188,-5.664110,-12.921023,-12.881049,-16.225970
1002.371094,-2.476936,-9.721532,-11.935484,-9.981944
1002.375000,-8.477528,-11.382436,-9.271343,-8.022555
1002.378906,-12.231109,-9.699988,-11.150182,-15.302912
1002.382812,-4.146057,-10.784249,-5.864546,-10.582048
1002.386719,-11.876493,-8.935624,-12.426706,-12.987552
1002.390625,-5.471020,-3.261685,-3.841040,-1.320297
1002.394531,-8.867695,-4.605007,0.224800,-3.127146
1002.398438,6.853396,4.349915,4.396374,1.350187
1002.402344,6.484812,-1.624005,0.103465,3.791342
1002.406250,6.389808,2.557389,-2.023087,2.132812
1002.410156,11.285660,10.524477,3.150777,4.273905
1002.414062,10.223792,6.492965,2.942986,9.013574
1002.417969,14.086370,12.442999,7.455579,4.703664
1002.421875,11.879151,7.083211,15.685692,4.511822
1002.425781,11.890750,4.637249,8.913303,13.178405
1002.429688,12.469865,10.147564,3.828636,5.776382
1002.433594,12.625079,7.672784,8.287522,3.967007
1002.437500,5.705581,9.112478,5.393500,7.977920
1002.441406,12.136751,7.962155,5.201829,4.688914
1002.445312,4.100341,6.680855,-0.884778,9.413670
1002.449219,-2.573552,1.529272,10.960892,-3.103217
1002.453125,-3.812159,0.632452,-3.458013,-0.187129
1002.457031,-12.682057,-5.756048,-9.988669,6.920509
1002.460938,-5.695080,-1.409335,0.288994,-1.302320
1002.464844,-9.461813,-9.362000,-7.477003,-4.236983
1002.468750,-7.783297,-6.036528,-11.232660,-5.395231
1002.472656,-15.102381,-2.397225,-9.056027,-6.860059
1002.476562,-3.826687,-9.626453,-17.904359,-11.258950
1002.480469,-10.555083,-1.377518,-11.171823,-11.436486
1002.484375,-13.301631,-3.029283,-12.717946,-10.687183
1002.488281,-2.935654,-3.933898,-7.961405,-9.327512
1002.492188,-4.418117,-7.493149,-8.471447,2.362182
1002.496094,-3.767249,0.271967,-6.356271,-0.828760
1002.500000,8.642578,1.998431,-1.049025,1.533803
1002.503906,-4.592642,10.967205,3.112374,0.281975
1002.507812,8.110799,10.023690,2.478351,13.093470
1002.511719,4.392681,4.570713,6.145249,7.155099
1002.515625,6.375747,9.302029,12.775955,4.983085
1002.519531,11.069876,10.471762,13.938797,2.466545
1002.523438,14.260308,11.481493,12.351165,5.484529
1002.527344,7.278418,13.329936,16.129897,5.524076
1002.531250,2.734185,4.679327,12.298220,9.275801
1002.535156,12.176849,5.958927,11.393191,11.983349
1002.539062,2.833248,3.554472,-3.876951,8.425335
1002.542969,6.008161,7.478342,12.944883,4.680230
1002.546875,-3.405938,2.355978,2.322811,-5.474875
1002.550781,4.438756,0.692002,-1.168260,-0.583766
1002.554688,-4.202942,5.438777,-4.785596,-3.931047
1002.558594,0.006175,-6.189613,-3.415580,-4.360204
1002.562500,-5.368952,-17.236328,-8.182532,-9.888109
1002.566406,-5.799725,-7.185641,-7.665298,-6.473416
1002.570312,-11.109318,-10.329686,-5.887276,-9.266813
1002.574219,-9.391011,-7.860341,-8.146284,-9.040328
1002.578125,-4.095991,-13.598545,-11.610639,-12.581914
1002.582031,-13.539650,-5.535676,-5.656360,-7.159884
1002.585938,-1.360575,-4.289640,-7.079779,-6.861227
1002.589844,-10.570617,-2.846032,-6.526554,-5.889961
1002.593750,2.418290,-1.503637,-3.143989,0.121055
1002.597656,-1.638443,1.104509,1.054809,-1.098052
1002.601562,7.146593,4.087685,-1.275005,-0.452534
1002.605469,7.399533,7.922083,0.606359,3.262138
1002.609375,6.206619,7.974871,8.715956,5.200723
1002.613281,8.804552,7.778501,9.197084,5.147447
1002.617188,2.276455,7.250902,6.520252,7.187957
1002.621094,9.768608,8.939778,1.990046,17.125002
1002.625000,14.278899,8.006506,6.625699,7.764062
1002.628906,11.911754,1.830086,7.146536,7.445491
1002.632812,3.806419,6.534345,7.957440,11.396401
1002.636719,11.888809,9.929096,10.258491,10.399496
1002.640625,3.107907,1.488634,4.892362,10.021935
1002.644531,6.453552,11.172475,11.223768,1.947882
1002.648438,1.710911,-3.285367,-4.843324,4.446415
1002.652344,4.582108,1.573736,-4.367681,-6.780887
1002.656250,1.581516,-1.827192,2.155135,2.031222
1002.660156,-5.210994,-6.016044,-5.911653,-6.894611
1002.664062,-10.829583,-4.159114,-6.328488,-9.522948
1002.667969,-12.595430,-7.987606,-10.661709,-5.946411
1002.671875,-10.838037,-5.394507,-7.323646,-12.748958
1002.675781,-4.395496,-12.699653,-10.402189,-11.198264
1002.679688,-9.744756,-15.462260,-10.234580,-8.370890
1002.683594,-10.766360,-5.774689,-7.694154,-9.596077
1002.687500,-13.042259,3.117033,-3.150256,-6.667335
1002.691406,-7.042360,7.068058,-4.556373,-9.033798
1002.695312,3.633580,-2.664226,-13.380373,-1.808752
1002.699219,4.231951,-4.847045,-1.408407,3.171309
1002.703125,4.297138,4.484498,8.975284,-4.521954
1002.707031,3.202002,4.537599,0.381575,1.557742
1002.710938,7.307327,4.414619,9.310609,6.757975
1002.714844,8.630211,9.843298,14.920050,2.329210
1002.718750,8.470259,9.878191,3.641964,12.176587
1002.722656,13.204679,7.673256,8.786742,16.016633
1002.726562,4.483117,11.120989,3.566331,13.658561
1002.730469,15.303317,8.791578,3.492214,11.528973
1002.734375,4.117013,7.363416,3.668281,4.911886
1002.738281,1.905330,9.153072,12.061120,12.054287
1002.742188,10.460196,2.500798,-2.137314,6.749754
1002.746094,-0.501573,-6.104198,-3.309090,2.717749
1002.750000,1.808871,-4.656674,6.254025,-5.905065
1002.753906,-2.004696,3.954881,2.362046,1.457866
1002.757812,-3.492745,-5.596361,-8.031154,-0.247761
1002.761719,-3.870785,-11.641136,-6.691742,-6.170409
1002.765625,-5.099122,-8.204789,-12.167584,-2.842438
1002.769531,-9.037211,-10.785910,-6.243391,-7.558513
1002.773438,-12.248283,-13.319235,-6.015355,-13.806598
1002.777344,-7.311669,-9.277058,-10.080421,-5.977268
1002.781250,-16.348142,-6.898101,-7.429425,-9.525054
1002.785156,-9.319480,-4.727780,-8.199661,-3.059217
1002.789062,-1.503112,-0.090374,-0.483594,-7.825157
1002.792969,-10.503142,-5.453606,0.667418,-4.086219
1002.796875,2.510773,-5.710891,-8.410860,0.516029
1002.800781,-5.473683,-4.650606,0.386335,-2.627067
1002.804688,9.711445,7.146089,-0.393300,8.077642
1002.808594,-1.098233,7.275578,4.626666,4.161255
1002.812500,10.386534,9.059123,11.198731,0.886553
1002.816406,9.898874,6.186097,5.331168,7.052545
1002.820312,9.645477,12.574745,9.864268,8.441737
1002.824219,9.061955,8.940381,14.029540,8.384356
1002.828125,4.578235,11.859104,3.553962,8.387498
1002.832031,15.642189,6.229090,9.817198,1.271531
1002.835938,8.930286,9.117649,13.943293,6.910248
1002.839844,-0.880096,9.474179,6.125520,3.795280
1002.843750,2.264605,12.773313,7.654817,3.497622
1002.847656,5.216873,1.840716,-2.249460,5.971299
1002.851562,0.272171,2.505619,-2.410561,-5.233833
1002.855469,-0.292363,-1.471324,-8.720382,-3.724420
1002.859375,-2.448532,-13.950814,-4.507676,-2.356424
1002.863281,-6.287599,-0.847650,-14.254002,-6.550395
1002.867188,-9.247498,-9.249891,-7.998920,-8.360545
1002.871094,-6.647899,-8.689925,-10.457779,-9.689453
1002.875000,-1.946264,-4.865939,-7.360267,-11.111249
1002.878906,-3.173182,-15.959138,-13.543771,-9.115510
1002.882812,-12.410679,-16.353825,-13.149824,-11.095987
1002.886719,-11.863988,-3.903573,-10.480538,-4.753495
1002.890625,-9.460568,-4.300293,-3.079875,-3.337628
1002.894531,-8.216238,1.723351,-1.184803,-2.311788
1002.898438,1.629155,5.779073,-3.272562,1.503484
1002.902344,-1.281587,-1.989580,8.507966,2.996125
1002.906250,6.027283,2.338236,2.342444,11.880582
1002.910156,12.252267,0.932244,6.734848,7.866979
1002.914062,6.621179,11.657128,2.206431,13.413988
1002.917969,14.755694,1.231240,9.603504,9.843590
1002.921875,10.518123,10.388800,19.573061,6.934474
1002.925781,9.320855,9.768404,8.364276,6.621374
1002.929688,9.792231,8.544354,15.816213,2.438934
1002.933594,4.797694,6.939389,7.796749,8.955418
1002.937500,9.523018,9.796130,10.314228,7.783393
1002.941406,2.615126,0.294689,12.456255,8.507459
1002.945312,7.045589,-4.924744,9.023458,3.978057
1002.949219,-2.421198,-2.012014,4.514872,6.717035
1002.953125,3.470865,0.848133,-2.109832,-1.928223
1002.957031,1.719965,-0.016796,-3.809077,-1.568536
1002.960938,-8.788247,-3.610697,-7.289636,-7.348203
1002.964844,-2.544036,-7.160541,-17.267199,-18.085877
1002.968750,-15.728284,-7.387423,-11.676210,-10.390498
1002.972656,-11.341016,-13.635258,-5.288850,-7.029994
1002.976562,-13.382735,-10.024619,-6.189662,-8.467073
1002.980469,-12.151563,-5.153949,-7.000842,-12.870793
1002.984375,-5.706411,-13.355649,-7.699071,-16.242694
1002.988281,-0.824897,-1.406132,-4.305954,-7.660599
1002.992188,-5.260497,-1.445281,-4.761513,-1.955474
1002.996094,2.166430,-1.041245,0.790007,-4.815203
1003.000000,-1.925890,-8.081233,-4.154500,5.073775
1003.003906,8.334406,6.386820,2.316953,-6.165827
1003.007812,4.365208,10.568869,2.789988,4.395820
1003.011719,6.132367,8.014007,6.011760,8.872509
1003.015625,13.157191,4.691708,10.019284,2.037725
1003.019531,11.265345,7.055782,15.436591,8.482527
1003.023438,15.180446,11.767867,6.729471,12.051287
1003.027344,7.412701,5.998062,7.560774,8.853095
1003.031250,16.765117,13.123929,13.739088,18.079788
1003.035156,12.587681,5.182734,15.468901,10.255449
1003.039062,8.758243,4.918202,-0.158055,3.320244
1003.042969,11.070052,6.363095,6.868195,1.075333
1003.046875,1.204953,4.127881,0.429717,3.297669
1003.050781,1.699085,-6.518970,0.327962,-4.942401
1003.054688,1.334752,-2.470655,-0.926063,-3.949039
1003.058594,-13.138975,0.420062,1.898194,-9.823556
1003.062500,-3.711927,2.796544,-6.248667,-5.292150
1003.066406,-12.805374,-7.759376,-12.076127,-13.382418
1003.070312,-10.693223,-1.305154,-14.236154,-10.387547
1003.074219,-10.891370,-6.483677,-16.238883,-8.249539
1003.078125,-8.534320,-6.479381,-13.529523,-4.668665
1003.082031,-3.731432,-9.770482,-12.805093,-10.244543
1003.085938,-3.848517,-9.064472,-5.491493,-6.430720
1003.089844,-5.012119,-6.800598,-9.112672,-1.151953
1003.093750,-8.714104,-3.050267,-4.157663,-2.823942
1003.097656,-5.686141,3.804260,-0.936653,-4.968313
1003.101562,5.264762,-2.021205,0.150382,2.656304
1003.105469,7.501628,1.663812,0.575079,6.258023
1003.109375,4.646079,9.358505,-0.133234,5.280147
1003.113281,12.400126,3.271272,6.914442,3.815337
1003.117188,10.708625,8.041388,15.740121,9.486246
1003.121094,12.097552,5.921214,11.394828,13.041076
1003.125000,18.313445,8.060970,15.834582,9.764301
1003.128906,7.201296,11.036335,5.273790,13.251725
1003.132812,7.285404,10.093541,12.152424,8.425820
1003.136719,6.614615,12.232829,6.086782,9.016846
1003.140625,2.328668,6.627562,3.813511,6.768687
1003.144531,1.913421,5.871398,6.670375,3.271885
1003.148438,-0.402261,-1.943516,4.717668,-1.280347
1003.152344,0.897847,-2.234020,0.642072,-3.179532
1003.156250,0.750543,-15.175447,-6.459829,-3.930643
1003.160156,0.457127,-2.315593,-10.407849,-3.680563
1003.164062,-5.855380,-5.749302,-5.585106,-8.415833
1003.167969,-5.757596,-4.595431,-10.315084,-6.041523
1003.171875,-6.288175,-12.147737,-14.060503,-4.375412
1003.175781,-4.777366,-5.422687,-8.485253,-7.054939
1003.179688,-17.115341,0.495916,-8.552349,-1.167256
1003.183594,-3.532297,-6.507130,-15.919232,-10.581914
1003.187500,-5.527077,-7.722357,-8.001726,-3.017811
1003.191406,-1.290042,-0.694866,-3.546223,-7.853184
1003.195312,0.172353,-0.597977,-8.720723,-7.715239
1003.199219,0.242823,-3.500935,1.161095,-0.144918
1003.203125,4.356727,7.890055,4.822101,4.336998
1003.207031,11.729546,6.330986,8.504338,5.470193
1003.210938,5.990283,7.544026,2.678424,9.766797
1003.214844,10.178105,10.027818,9.515494,8.510573
1003.218750,5.920702,10.175255,9.284375,8.669784
1003.222656,6.290807,15.157141,15.332889,11.118512
1003.226562,6.592034,12.057753,11.268208,8.906388
1003.230469,11.236287,14.535179,6.914673,12.451925
1003.234375,5.121758,6.115787,14.090307,11.461130
1003.238281,7.611635,9.008003,13.003099,8.377496
1003.242188,2.991971,6.997534,6.630966,0.734158
1003.246094,-4.383039,0.863283,-0.922076,6.274031
1003.250000,0.222395,5.097973,1.171290,0.468043
1003.253906,-5.230743,-2.000490,-0.994992,-8.953918
1003.257812,-8.632023,-3.735538,-0.858996,-5.259206
1003.261719,-12.293132,-6.475788,-15.634098,-12.519942
1003.265625,-19.062493,-13.428626,-8.515731,-6.037340
1003.269531,-15.733103,-6.351326,-6.956184,-4.271539
1003.273438,-4.297591,-16.734694,-13.666750,-12.418239
1003.277344,-14.431119,-13.625226,-2.934942,-8.155050
1003.281250,-11.886260,-14.711499,-9.501640,-14.648952
1003.285156,-8.691919,-13.185479,-7.199595,-9.005126
1003.289062,-5.115812,-7.011126,9.011998,-6.036053
1003.292969,-3.886428,-7.414774,0.880327,-4.300919
1003.296875,1.134207,-4.812354,2.017824,-0.919228
1003.300781,0.745129,0.913747,3.133830,-1.591628
1003.304688,2.702501,2.338828,-1.140532,-1.918046
1003.308594,1.694257,8.502477,2.788823,7.485594
1003.312500,1.939540,8.341134,8.816530,4.372985
1003.316406,7.939340,4.524383,9.644160,4.102999
1003.320312,7.641236,8.593776,14.062707,8.942694
1003.324219,19.636397,14.482147,13.844636,4.913923
1003.328125,8.676657,9.081311,7.923017,16.183561
1003.332031,11.394151,13.348497,10.498271,6.360246
1003.335938,-0.399455,6.058286,3.172194,5.456440
1003.339844,0.814648,7.648899,9.964468,8.294192
1003.343750,3.410309,11.312838,-1.561979,2.214989
1003.347656,-3.268579,-5.552386,2.876062,-1.837581
1003.351562,-2.425695,4.711167,-5.618258,1.013253
1003.355469,-6.215542,-2.969737,-11.605096,-3.494037
1003.359375,-3.359958,-1.487043,-4.190363,-9.515196
1003.363281,-7.424910,-6.477439,-1.079432,-7.020784
1003.367188,-7.693448,-8.515636,-12.258004,-10.093144
1003.371094,-7.566229,-14.541181,-8.154917,-1.942191
1003.375000,-1.891447,-10.449430,-15.473395,-15.219868
1003.378906,-5.261214,-10.735189,-6.154129,-6.815902
1003.382812,-11.610797,-8.967770,-9.710673,-11.885306
1003.386719,-2.107212,-7.014417,-9.135475,-9.345192
1003.390625,-9.404805,-12.312423,-8.915812,-7.816823
1003.394531,-8.088024,-1.363839,-2.956851,-5.868203
1003.398438,5.407638,1.376076,-0.357702,-3.603349
1003.402344,10.676786,9.008651,5.732296,-0.963237
1003.406250,13.928441,3.442064,11.695766,9.532199
1003.410156,3.223519,11.464972,2.222205,5.934660
1003.414062,11.185106,11.313392,12.106493,4.254364
1003.417969,10.028673,17.928079,11.328116,8.799409
1003.421875,14.367478,9.674678,12.805954,13.704745
1003.425781,10.803121,11.138054,5.340494,11.572878
1003.429688,13.172231,14.615561,2.905311,5.042857
1003.433594,11.185605,9.110081,7.498897,9.131788
1003.437500,4.874005,4.144007,19.917330,2.889691
1003.441406,4.124018,8.343233,4.188003,10.996262
1003.445312,6.165831,7.813223,-0.235717,4.645214
1003.449219,3.942195,-4.231909,-9.377530,0.042528
1003.453125,-6.103202,-3.140962,-4.444080,-5.993456
1003.457031,-2.615311,-8.070967,-7.637253,-7.416203
1003.460938,-5.574862,-2.136866,-8.456208,-9.260444
1003.464844,-7.361482,-4.746552,-4.171407,-12.024231
1003.468750,-9.168277,-6.012511,-7.747261,-11.619961
1003.472656,-13.689485,-9.808626,-11.753139,-10.051040
1003.476562,-14.374343,-2.445772,-8.519916,-2.146025
1003.480469,-3.370777,-16.421410,-14.930817,-9.546317
1003.484375,-3.370409,-8.815978,-3.103781,-5.725722
1003.488281,-12.737493,-11.050453,-5.473271,-1.862515
1003.492188,-2.900050,-0.125485,-5.984025,-2.079686
1003.496094,-3.548781,1.243565,-10.350963,1.746604
1003.500000,3.152639,-2.904085,-5.179352,-2.667090
1003.503906,-2.621556,6.806602,-3.267959,1.151272
1003.507812,8.272897,11.577594,8.457014,5.583424
1003.511719,10.420906,6.078760,6.310492,11.348724
1003.515625,10.048430,7.338870,8.352858,6.374409
1003.519531,8.142545,5.895168,11.927918,13.001287
1003.523438,12.762067,4.933433,5.450469,17.481046
1003.527344,10.573354,12.522259,10.591580,16.272297
1003.531250,-0.275855,7.084575,11.278761,10.565970
1003.535156,1.656693,4.599525,4.135129,10.613828
1003.539062,6.288637,4.614198,8.118650,7.136412
1003.542969,6.639225,1.208702,-3.959652,4.585914
1003.546875,-1.822202,1.999822,-5.264427,2.570341
1003.550781,1.251448,-6.468548,-3.921371,6.823139
1003.554688,-5.882536,-8.389030,-2.041210,-1.865923
1003.558594,-4.791014,0.223203,-8.512963,-9.661987
1003.562500,-3.933298,-2.610750,-4.278551,-2.992018
1003.566406,-9.702479,-7.983613,-17.891548,-4.998781
1003.570312,-7.535124,-9.548219,-5.616127,-9.233475
1003.574219,-10.547081,-13.256092,-10.741401,-6.810442
1003.578125,-9.194299,-11.551762,-6.972597,-10.641250
1003.582031,-5.288739,-9.849683,-7.511494,-14.241662
1003.585938,-15.342164,-12.512477,-7.178181,-7.562629
1003.589844,-5.336951,0.175963,-2.614672,-7.303679
1003.593750,-0.754173,-1.706453,-8.855040,1.718307
1003.597656,-1.136476,-9.416914,-4.181324,3.464499
1003.601562,3.189590,3.126306,4.939026,-6.696747
1003.605469,0.473118,-0.705239,-1.778157,3.550221
1003.609375,4.490412,5.029409,13.085495,7.817470
1003.613281,5.721026,8.554584,6.863192,10.345956
1003.617188,8.390705,-0.815760,9.393330,11.052950
1003.621094,17.637566,9.411155,14.204873,14.044036
1003.625000,2.499321,3.802612,13.291187,10.950128
1003.628906,11.668649,10.127832,4.092016,8.013768
1003.632812,2.293021,-0.798678,11.708476,2.948238
1003.636719,2.914215,3.935556,4.122532,8.055824
1003.640625,0.309742,10.323887,-1.791565,-0.865260
1003.644531,4.314047,3.590672,-4.620462,4.020843
1003.648438,3.679068,-0.032128,-7.797609,-1.690568
1003.652344,-6.396188,-0.330208,-4.086932,0.807279
1003.656250,-2.674149,-0.535777,-5.570376,0.536380
1003.660156,-6.277274,-8.564874,-1.831580,-4.371753
1003.664062,-6.648225,-10.692144,-8.848743,-7.837836
1003.667969,-12.161795,-15.340464,-8.341294,-1.825814
1003.671875,-3.748243,-19.728768,-8.884869,-10.966801
1003.675781,-9.957737,-1.897594,-4.103816,-11.466255
1003.679688,-13.250062,-8.457285,-13.650693,-10.244297
1003.683594,-7.058988,-8.046003,-13.039717,-7.805328
1003.687500,-15.713116,-9.026440,-8.509452,-4.936475
1003.691406,-10.490758,-3.225899,-8.049618,-2.933337
1003.695312,-0.988505,-8.547071,-7.652227,-9.852008
1003.699219,-2.693539,1.913273,-3.929447,-2.945579
1003.703125,3.157799,1.336917,-0.418766,7.797898
1003.707031,6.482116,9.268454,8.099395,2.686798
1003.710938,10.990131,2.210786,1.619070,5.544443
1003.714844,9.009460,6.412455,12.786496,4.774598
1003.718750,7.143961,11.656229,16.289460,9.668769
1003.722656,10.115407,12.948974,11.276312,10.593600
1003.726562,19.314540,3.382364,8.529915,15.732339
1003.730469,6.903841,6.383370,4.816737,8.680252
1003.734375,6.325404,9.177893,9.248006,8.844395
1003.738281,8.500065,9.354964,7.649177,10.319578
1003.742188,-1.548340,10.464119,6.236115,8.078285
1003.746094,-3.133387,1.935480,2.645034,5.601285
1003.750000,-4.459590,0.777803,-2.102575,3.688155
1003.753906,5.803852,-0.120039,-3.390902,0.999954
1003.757812,-14.058870,-4.410436,-1.931393,-2.574040
1003.761719,-11.202857,-11.435765,-1.784556,-10.135661
1003.765625,-11.996198,-5.740052,-4.658809,-14.670572
1003.769531,-7.481107,-17.724099,-10.095647,-8.388452
1003.773438,-7.718608,-12.226141,-12.771139,-17.114790
1003.777344,-7.580423,-12.712288,-10.217682,-21.843382
1003.781250,-13.625817,-7.114957,-12.083569,-8.740818
1003.785156,-7.770595,-6.288855,-12.228301,-17.233468
1003.789062,-8.422620,-5.616962,-4.052809,-10.217806
1003.792969,2.911679,-14.134113,-5.547479,-2.022619
1003.796875,-6.859884,3.035695,-0.415833,3.761629
1003.800781,3.006096,-4.576165,1.601803,0.661229
1003.804688,6.532053,2.560024,-2.013258,-1.946999
1003.808594,-1.032578,-0.535444,2.952128,9.454216
1003.812500,9.006071,11.936108,5.846041,5.270700
1003.816406,8.667450,13.522285,6.747341,9.756252
1003.820312,16.564728,6.593372,11.346014,2.187865
1003.824219,14.151772,18.878869,14.919059,10.939089
1003.828125,12.752889,13.910199,2.952234,13.684697
1003.832031,10.028941,11.179406,20.106822,-0.894954
1003.835938,5.549995,8.149270,8.551267,12.237416
1003.839844,11.189689,6.296407,4.720226,5.503109
1003.843750,7.340399,1.401990,1.891681,6.186686
1003.847656,-1.721755,-6.810495,1.660252,1.628905
1003.851562,-1.531896,-6.470161,0.134102,0.284574
1003.855469,-3.026111,-3.884159,-4.986781,-1.658999
1003.859375,-5.423885,-7.028068,-9.779379,-6.012615
1003.863281,-7.043219,-8.097355,-9.166491,-6.989014
1003.867188,-7.614946,-3.231286,-12.295789,-11.647167
1003.871094,-10.731358,-9.044794,-12.474560,-12.597305
1003.875000,-11.686230,-8.170606,-15.215138,-16.434430
1003.878906,-16.397278,-9.951993,-4.925217,-7.734109
1003.882812,-2.694310,-10.477579,1.422629,-11.472304
1003.886719,-2.249998,-10.343483,2.316797,-5.315303
1003.890625,-3.681349,1.479721,-7.081856,0.766438
1003.894531,-4.958472,-0.523748,2.160270,-0.844376
1003.898438,-0.097637,-2.941260,-3.367529,-2.730304
1003.902344,-0.522014,5.319563,4.618483,1.570582
1003.906250,0.649087,2.388043,2.751343,4.977505
1003.910156,10.602289,4.030248,12.288870,9.212886
1003.914062,10.824866,7.181065,6.734516,1.342220
1003.917969,8.524092,6.746689,5.340022,11.906894
1003.921875,18.384391,6.894764,9.677974,14.503502
1003.925781,4.366290,8.691126,9.549103,14.169720
1003.929688,6.174493,13.524744,15.232115,9.018756
1003.933594,19.124098,9.927608,6.512894,4.251793
1003.937500,6.330559,9.052547,8.659668,8.380866
1003.941406,7.157393,7.036416,7.492070,11.110836
1003.945312,3.211096,8.494063,-0.124855,9.375302
1003.949219,5.318538,2.002276,-2.754096,-1.133104
1003.953125,-6.059541,2.031478,-10.923616,2.007107
1003.957031,5.929065,-3.519197,-4.492846,3.958031
1003.960938,-10.271782,-1.543169,-8.691200,-6.611943
1003.964844,-10.524416,-10.209376,-1.971077,-8.508478
1003.968750,-9.272809,-8.982823,-7.263050,-10.173544
1003.972656,-6.820473,-13.198705,-17.342357,-17.695601
1003.976562,-12.248149,-12.223493,-8.385573,-9.209445
1003.980469,-6.063974,-2.124902,-16.181589,-3.991499
1003.984375,-8.082349,-5.549419,-6.259249,-11.527598
1003.988281,-4.670633,-1.603005,-13.136552,-10.771195
1003.992188,-6.725247,-5.420671,-5.355735,-6.384422
1003.996094,1.528416,3.058026,-9.564807,-5.024971
1004.000000,-0.494314,3.311188,-1.634009,-0.439927
1004.003906,10.117528,4.030808,6.704763,1.974186
1004.007812,8.514161,1.650016,6.327156,4.660878
1004.011719,8.550681,9.625657,6.372830,12.259215
1004.015625,14.619357,12.863359,6.042381,11.550455
1004.019531,8.011736,13.746766,9.314055,3.115556
1004.023438,7.612537,9.207309,12.389047,10.611498
1004.027344,15.917840,5.407725,9.792640,17.090257
1004.031250,13.517639,6.634198,7.511112,10.978793
1004.035156,11.241443,9.177982,9.825358,4.608645
1004.039062,7.240224,2.039909,6.180897,7.635651
1004.042969,8.817783,7.962488,3.529913,1.446672
1004.046875,4.923316,-2.162053,-3.612558,2.785285
1004.050781,0.990613,-4.034147,2.907967,-1.713094
1004.054688,-2.544791,-1.638778,-8.958299,0.837831
1004.058594,-8.682243,-9.870489,-8.764380,-4.738607
1004.062500,-6.707000,-3.637205,4.523457,-4.300727
1004.066406,-4.860695,-1.847455,-1.139552,-2.577538
1004.070312,-5.968582,-13.714407,-4.082671,-8.925824
1004.074219,-15.173263,-10.935581,-5.039985,-16.824404
1004.078125,-17.378326,-8.938903,-0.741234,-13.592506
1004.082031,-1.624934,-8.557660,-11.242577,-9.450543
1004.085938,-7.772489,-7.380740,-7.244739,-6.396014
1004.089844,-8.927202,-4.717484,-3.618308,-6.811268
1004.093750,-0.022395,-5.916561,2.124304,-2.489116
1004.097656,-7.263895,-2.105567,0.658375,1.737857
1004.101562,7.992003,4.507717,2.514132,-0.245312
1004.105469,-5.347042,-0.113431,5.186343,0.957984
1004.109375,1.837486,7.187721,10.822990,4.744406
1004.113281,10.067531,4.213975,6.580429,8.995690
1004.117188,8.546674,0.411403,7.808572,9.136099
1004.121094,11.726054,9.516099,4.055437,3.640799
1004.125000,4.186615,11.483351,8.792495,9.098257
1004.128906,11.530765,12.515538,10.172501,15.153131
1004.132812,4.000868,8.874047,9.852866,13.981160
1004.136719,4.314564,6.486130,1.431528,17.873111
1004.140625,-1.059744,5.457054,2.245680,10.925325
1004.144531,4.599848,9.996175,0.769108,7.386073
1004.148438,0.597731,6.588889,1.224580,-5.672452
1004.152344,4.679190,-2.352964,-7.513765,-2.825719
1004.156250,-7.166891,-5.302100,1.893080,-0.770339
1004.160156,-10.361939,-8.003506,-3.279132,-2.640211
1004.164062,-6.747678,-8.864553,-12.862491,-5.779783
1004.167969,-7.915880,-13.187991,-3.360085,-7.935575
1004.171875,-10.891744,-11.091798,-11.103455,-6.631035
1004.175781,-5.664078,-10.383395,-5.255572,-3.518866
1004.179688,-16.968930,-21.384869,-9.466093,-14.510102
1004.183594,-8.391829,-4.140654,-14.229696,-10.927177
1004.187500,-9.229501,-5.542298,-6.641762,-17.849963
1004.191406,-4.813741,-3.983345,-11.696197,-9.463876
1004.195312,-1.504394,2.637911,-10.623532,1.499969
1004.199219,0.467019,-3.341199,-1.160506,2.282060
1004.203125,10.985149,0.727833,6.556941,0.988768
1004.207031,5.634076,0.104598,6.545204,11.956042
1004.210938,7.119911,9.801388,4.670918,4.453082
1004.214844,7.643366,8.388338,5.695961,5.188976
1004.218750,11.756255,10.227013,7.998892,15.922389
1004.222656,10.751941,4.842314,9.136581,14.360971
1004.226562,8.530399,11.646717,8.453287,11.545305
1004.230469,8.839871,5.696419,12.565053,11.783768
1004.234375,11.284086,7.029339,10.968556,19.402682
1004.238281,7.501870,6.040994,2.413061,10.850325
1004.242188,-2.480051,11.005028,8.599605,3.382787
1004.246094,7.637277,2.270615,3.258756,2.167225
1004.250000,-1.321048,-1.962699,0.488890,4.082916
1004.253906,-2.243148,-2.584959,-4.656256,2.800783
1004.257812,1.393346,3.320237,-6.102031,-0.430875
1004.261719,-3.720602,-3.874840,-10.079205,-13.428920
1004.265625,-5.107482,-12.751828,-11.914672,-8.742786
1004.269531,-12.066878,-12.328233,-6.216166,-8.277460
1004.273438,-11.176721,-4.430905,-15.357189,-6.283469
1004.277344,-13.879445,-16.863083,-13.047862,-10.594361
1004.281250,-5.870296,-14.164207,-10.971662,-6.971153
1004.285156,-18.193309,-12.707093,-3.502801,-9.830239
1004.289062,-8.086887,-6.388199,-3.037416,-4.122181
1004.292969,-10.528506,-0.342389,-5.253126,-6.998054
1004.296875,-3.432229,-2.359328,-0.155545,7.775012
1004.300781,3.807099,-0.311381,2.102190,-0.103946
1004.304688,0.120636,7.000196,-7.351336,-0.496227
1004.308594,9.512601,6.193743,-1.281742,12.073068
1004.312500,16.517090,12.634406,6.798785,10.373096
1004.316406,14.706254,10.597562,11.474956,10.471521
1004.320312,17.280156,12.611610,12.493404,12.440813
1004.324219,9.979952,11.435259,12.933464,11.794334
1004.328125,8.770101,10.937855,12.972638,12.618062
1004.332031,8.345271,6.079605,10.613869,13.645968
1004.335938,6.056254,10.456428,8.306913,3.094259
1004.339844,15.990157,11.864953,8.534253,6.379156
1004.343750,5.912001,10.553795,0.558411,2.584730
1004.347656,6.037543,9.982712,1.445897,-1.340969
1004.351562,-1.272733,-6.145827,8.151442,0.884893
1004.355469,-7.089146,-2.679059,-5.384905,-5.289936
1004.359375,-5.162989,-5.867869,-7.323374,-6.237122
1004.363281,-11.702014,-9.263729,-5.426906,-8.576969
1004.367188,-7.918362,-11.321279,-14.156826,-13.914754
1004.371094,-12.989762,-12.761516,-3.504531,-5.023104
1004.375000,-10.457335,-8.904531,-10.862793,-9.165147
1004.378906,-8.637237,-7.684151,-6.330552,-14.462570
1004.382812,-6.542692,-10.969153,-6.724855,-13.439396
1004.386719,-5.952020,-10.887055,-5.786656,-9.943156
1004.390625,-5.839534,-9.360475,-13.379726,-6.386359
1004.394531,0.867077,-3.824059,6.031650,-0.146049
1004.398438,-0.042801,-6.368993,6.545753,-0.435730
1004.402344,6.044058,2.446040,4.301310,8.755545
1004.406250,1.744515,1.940766,-3.144943,5.814088
1004.410156,6.599575,9.907262,13.538232,0.895832
1004.414062,8.207022,13.392087,2.328500,6.996109
1004.417969,5.118815,8.190061,4.111321,13.495470
1004.421875,11.257733,14.132241,11.131583,8.283369
1004.425781,17.438165,9.163767,9.653308,12.472816
1004.429688,6.181929,9.683751,8.845298,7.611263
1004.433594,6.828991,14.113817,11.798399,6.682094
1004.437500,6.406599,6.653491,5.174868,3.630513
1004.441406,4.950891,-2.763128,11.419437,3.449595
1004.445312,2.267736,0.591787,-3.137043,7.176233
1004.449219,-5.124687,-2.514553,2.536055,-1.671286
1004.453125,-1.383149,-3.588449,-3.607370,6.180705
1004.457031,2.269045,-1.236549,-2.174716,-9.538704
1004.460938,-7.128019,-5.708818,-4.628378,-0.254518
1004.464844,-5.772913,-5.409439,-11.851175,-7.140765
1004.468750,-4.581052,-10.081896,-10.493447,-9.462241
1004.472656,-7.078945,-13.597415,-10.137385,-9.740990
1004.476562,-9.867976,-7.555982,-17.442255,-10.784188
1004.480469,-13.670267,-4.353934,-5.166435,-12.643627
1004.484375,-9.027728,-11.388763,-10.198112,-9.083207
1004.488281,-8.634903,-1.353403,-5.375761,-6.964882
1004.492188,-6.918576,-2.696877,-9.368292,1.170996
1004.496094,-6.076006,-3.169912,-1.275243,-1.500713
1004.500000,-4.946756,-4.306705,4.784016,-5.484192
1004.503906,6.542615,1.994849,5.140675,1.008373
1004.507812,2.931564,6.224032,7.502343,6.472531
1004.511719,9.427855,12.873302,0.714121,0.603898
1004.515625,6.760965,10.542934,2.033731,5.279206
1004.519531,18.514630,6.212151,15.755848,14.597367
1004.523438,12.704635,11.253916,13.968819,5.150919
1004.527344,7.173907,6.027800,-0.253261,8.902151
1004.531250,12.119020,8.702985,8.775856,12.516615
1004.535156,9.300668,6.947058,5.639843,7.752847
1004.539062,1.071764,0.412522,11.915796,-3.030433
1004.542969,2.880003,4.778934,8.219063,6.985005
1004.546875,8.622564,2.361199,-0.612788,-2.405559
1004.550781,-0.665219,3.074850,-8.330020,-6.017414
1004.554688,-2.647612,-5.438228,0.056386,-6.653151
1004.558594,-8.579978,-7.825964,-3.731164,0.753369
1004.562500,-13.086341,-1.729149,0.046937,-2.276219
1004.566406,-2.589198,-10.633736,-6.017722,-10.530541
1004.570312,-7.653949,-8.398413,-1.287771,-6.545297
1004.574219,-3.772493,-11.749411,-12.298752,2.203166
1004.578125,-8.068958,-15.490431,-16.147042,-7.305487
1004.582031,-7.774735,-7.378865,-15.136419,-10.181691
1004.585938,-9.499210,-4.590119,-4.425887,-10.490559
1004.589844,-8.679139,-2.835970,-8.039960,-14.620611
1004.593750,0.895271,-10.143389,-7.529087,-3.447148
1004.597656,-5.640393,-0.640838,0.698962,-6.013184
1004.601562,-3.025509,5.954138,1.040703,1.244156
1004.605469,-0.509335,3.500523,4.726109,6.282610
1004.609375,11.898488,4.331640,1.791527,7.512183
1004.613281,8.836017,4.746736,16.021064,8.615044
1004.617188,6.560455,4.874279,7.662978,20.935138
1004.621094,9.926072,12.479590,12.121696,10.085178
1004.625000,10.597639,13.337115,8.208328,10.351778
1004.628906,9.366865,12.041122,8.042811,1.353534
1004.632812,8.700568,9.769612,-3.491478,12.467542
1004.636719,9.733960,12.601806,11.412785,9.494032
1004.640625,5.139176,9.460609,5.294283,5.480872
1004.644531,0.833048,10.400512,0.446130,3.434553
1004.648438,-0.433094,0.226238,4.845936,-3.583071
1004.652344,-6.903230,0.440656,-0.713833,-7.013785
1004.656250,-5.293840,-3.920889,-7.215037,-5.709569
1004.660156,-8.097491,-1.403778,-6.284564,-11.064288
1004.664062,-3.834736,-5.279562,-5.364186,-12.491425
1004.667969,-8.658258,-1.587582,-15.887354,-4.467738
1004.671875,-17.135139,-15.410371,-11.516433,-5.795913
1004.675781,-13.554790,-10.370059,-5.380088,-3.558213
1004.679688,-9.018375,-7.035577,-9.803699,-2.131696
1004.683594,-8.088749,-0.424464,-3.742381,-7.102263
1004.687500,-1.334632,-4.779096,-10.709201,-6.832299
1004.691406,-6.421751,-12.215054,-4.619422,-0.446846
1004.695312,-4.096314,1.265112,-5.468542,-8.865294
1004.699219,-7.087373,4.359878,-2.097791,7.219636
1004.703125,-2.254510,-0.960327,2.763490,-1.214371
1004.707031,8.261958,-0.590425,0.913962,1.511170
1004.710938,8.506230,5.823380,3.034773,10.658268
1004.714844,5.155512,7.591806,-1.706661,8.198422
1004.718750,11.240955,7.536878,14.184397,13.082379
1004.722656,5.248612,8.374400,0.017313,7.837717
1004.726562,7.800633,15.220517,11.721599,13.820873
1004.730469,10.086532,11.835808,10.567902,12.338995
1004.734375,3.963449,9.535442,8.807509,9.090614
1004.738281,5.509223,6.037262,8.587151,4.562317
1004.742188,4.426147,3.908796,-4.420176,10.236929
1004.746094,1.865559,-3.453309,1.141778,-0.297207
1004.750000,1.840694,-0.966984,-2.536500,1.385268
1004.753906,-9.511657,-4.668713,-1.591367,-6.584945
1004.757812,-0.698502,-1.849934,-2.026574,-3.968396
1004.761719,-5.904575,-12.613658,-12.091439,-7.966841
1004.765625,-13.821156,-6.212506,-11.059679,-13.603920
1004.769531,-10.928527,-17.531720,-11.708063,-11.442323
1004.773438,-2.399166,-4.045592,-9.778255,-12.399398
1004.777344,-10.792837,-14.800104,-12.558004,-15.443707
1004.781250,-1.174934,-7.807711,-6.813192,-8.326871
1004.785156,-8.325588,-1.875017,-8.395832,-5.532318
1004.789062,-6.298288,-9.106946,-7.743750,-5.429928
1004.792969,-11.521082,-8.638909,0.688391,-1.524702
1004.796875,1.681483,-1.559207,3.300686,-0.242235
1004.800781,-1.652530,2.492199,5.115280,-2.110784
1004.804688,5.741283,4.334902,3.555129,-1.457718
1004.808594,8.874618,5.471039,2.743079,6.620753
1004.812500,12.186092,6.049869,5.524640,6.914110
1004.816406,8.729210,11.109399,8.542923,13.914963
1004.820312,6.958222,12.939745,9.084547,11.993926
1004.824219,0.211583,8.336498,6.875093,14.020013
1004.828125,14.664238,2.155429,10.887128,16.726826
1004.832031,5.228511,10.136381,8.650149,11.105509
1004.835938,10.569731,8.542248,12.981951,8.570523
1004.839844,6.774342,5.052231,12.583147,3.130862
1004.843750,6.843970,10.373593,2.861830,1.162222
1004.847656,7.665933,-2.095388,-0.767104,-1.543567
1004.851562,-5.218543,-6.393449,-2.608900,-6.616147
1004.855469,1.118002,-10.032810,-3.224874,-4.431658
1004.859375,-0.090582,-12.601373,-11.186310,0.033723
1004.863281,-8.058894,-5.737065,-2.524958,-7.640545
1004.867188,-11.118296,-13.310758,-5.243525,-4.867755
1004.871094,-11.954818,-16.194924,-1.449989,-7.971626
1004.875000,-14.763095,-11.489072,-10.014744,-10.008249
1004.878906,-12.670643,-14.345070,-11.359300,-8.099110
1004.882812,-11.667324,-13.215715,-8.021350,-4.734147
1004.886719,-5.037592,-8.878068,-4.505287,-8.232315
1004.890625,1.678500,-2.266513,-2.118209,-4.302623
1004.894531,-1.798055,-2.171354,-2.757562,-7.989948
1004.898438,0.906706,5.957809,-5.839276,-0.330864
1004.902344,-2.498498,8.109860,1.838282,8.709256
1004.906250,0.771825,6.313054,2.530665,2.323674
1004.910156,3.504324,7.133576,10.689917,0.104361
1004.914062,3.603009,6.726372,-0.907293,6.810435
1004.917969,14.463323,8.736222,5.889553,12.192849
1004.921875,9.971224,7.532432,6.353886,15.277679
1004.925781,6.527929,17.258737,19.785981,10.096589
1004.929688,12.126797,7.533731,7.677222,14.190678
1004.933594,11.848709,13.138691,3.903230,2.682659
1004.937500,8.124762,8.298595,12.176800,7.352217
1004.941406,3.603110,7.133313,10.526369,5.597801
1004.945312,-1.324896,4.080893,-1.531578,8.853662
1004.949219,0.452614,2.164668,-1.078105,-5.366072
1004.953125,-1.941100,-2.753339,2.157801,-0.465719
1004.957031,-5.743727,2.207291,2.475661,-2.153068
1004.960938,-4.137950,-7.977327,1.182208,-7.287054
1004.964844,-15.927360,-6.184328,-17.951274,-9.500295
1004.968750,-6.523431,-15.691683,-5.338738,-16.321488
1004.972656,-16.534014,-5.768651,-12.011184,-9.878961
1004.976562,-11.955694,-5.914058,-10.192886,-4.843268
1004.980469,-11.129292,-7.701942,-6.173129,-6.866722
1004.984375,-8.965812,-7.029369,-8.932708,-9.631021
1004.988281,1.395134,-10.432751,-4.126206,-5.385868
1004.992188,-6.004653,-12.080945,-12.812510,-3.518399
1004.996094,0.579358,2.551959,-5.800506,-4.498322
1005.000000,-4.745698,7.475082,-0.062569,4.852364
1005.003906,2.709934,4.848328,3.299657,7.789813
1005.007812,4.724601,2.230869,8.373946,-1.664316
1005.011719,8.477214,1.583764,7.179156,4.098898
1005.015625,13.996503,0.448000,15.022713,10.896086
1005.019531,9.376906,8.674350,17.151947,9.729780
1005.023438,12.358629,6.222886,9.424935,12.730048
1005.027344,5.821518,7.484423,8.032410,13.656870
1005.031250,6.767976,10.014783,7.947562,11.411428
1005.035156,10.049482,9.020982,6.279600,11.854866
1005.039062,3.111552,6.517954,3.554127,-2.265090
1005.042969,2.733450,3.196497,7.038085,6.226435
1005.046875,7.053171,-3.484716,-2.246830,-5.755814
1005.050781,2.247208,-2.530790,-5.321658,0.774264
1005.054688,-19.835281,-9.220345,-2.847016,-3.155323
1005.058594,-4.667533,-6.077018,-1.423625,-6.239789
1005.062500,-10.592897,-4.127725,-7.343042,-10.091125
1005.066406,-4.479650,-6.563986,-2.908561,-12.089358
1005.070312,-9.418535,-8.805188,-9.478696,-16.470858
1005.074219,-15.975876,-9.594345,-10.753158,-13.939038
1005.078125,-7.682410,-13.757091,-8.823236,-7.233112
1005.082031,-8.278667,-10.108477,-8.798034,-7.316649
1005.085938,-6.460208,-12.264651,-5.513928,-12.144770
1005.089844,-2.230373,-7.151835,-4.719788,-1.924949
1005.093750,-3.404769,-5.233882,-7.847288,-1.598731
1005.097656,2.129668,3.808227,2.873503,-1.980340
1005.101562,-1.956093,6.967689,3.737576,8.649167
1005.105469,3.146479,1.039464,5.736817,11.595609
1005.109375,15.566363,4.757845,8.854916,9.754842
1005.113281,10.274156,5.552859,10.697667,4.828792
1005.117188,10.670722,9.689354,8.020197,8.957248
1005.121094,7.987008,14.233634,11.913226,10.791232
1005.125000,8.899477,3.593962,9.818107,11.695358
1005.128906,9.474431,7.557866,8.216758,14.604110
1005.132812,8.272687,14.764185,10.798886,11.973065
1005.136719,5.903003,9.951992,8.522032,3.405979
1005.140625,10.449894,10.277943,0.642615,9.119228
1005.144531,5.278257,1.743052,8.964829,1.747070
1005.148438,-1.133743,0.128366,3.514818,7.718999
1005.152344,-0.897124,-0.548001,2.732509,3.811862
1005.156250,-8.102006,-1.583066,5.005297,0.582660
1005.160156,-4.081812,0.555737,0.232094,-4.228736
1005.164062,-10.342820,-4.185990,-5.598223,-7.694129
1005.167969,-4.076337,-13.569972,-4.376698,-10.657532
1005.171875,-3.491040,-5.889894,-5.087232,-7.176561
1005.175781,-13.999078,-3.921159,-10.583550,-6.092830
1005.179688,-10.736685,-11.973357,-9.459155,-7.125888
1005.183594,-7.311636,-10.856093,-11.609853,-10.105105
1005.187500,-1.419604,-7.271420,-1.130918,-7.213362
1005.191406,-7.968531,-0.772151,-7.572880,3.912093
1005.195312,-4.940856,5.720800,-12.098461,-2.146117
1005.199219,3.692674,-3.744497,-0.218860,2.600969
1005.203125,6.479225,1.408844,4.591274,1.602026
1005.207031,6.627294,8.007365,5.026068,3.150928
1005.210938,4.742266,5.352661,5.489499,9.218860
1005.214844,7.513831,3.903938,8.481340,8.342506
1005.218750,-0.002315,11.474201,10.242152,13.162744
1005.222656,10.225806,9.929313,2.081975,7.995258
1005.226562,10.580303,10.570879,-2.894355,10.711690
1005.230469,8.237955,6.289086,3.885478,11.722901
1005.234375,2.739830,10.597634,5.536679,10.469684
1005.238281,0.664617,12.733817,5.775819,2.127027
1005.242188,4.325100,8.948566,4.169256,6.335944
1005.246094,1.420433,-0.156503,7.680044,-3.949366
1005.250000,-7.062816,-0.610567,-2.303404,1.533537
1005.253906,-7.063940,-5.471386,-6.895491,-3.243986
1005.257812,-5.018289,-7.081068,-3.074071,-2.781286
1005.261719,-7.342866,-2.111319,-8.083124,-9.025731
1005.265625,-13.670824,-5.637538,-7.628163,-3.081964
1005.269531,-9.566024,-6.588267,-12.679093,-6.206128
1005.273438,-14.259152,-11.876985,-22.403024,-7.093138
1005.277344,-5.797138,-13.624161,-10.217176,-12.676295
1005.281250,-8.905555,-9.672486,-11.765145,-6.302170
1005.285156,-9.402104,-12.837274,-7.751623,-11.330225
1005.289062,-4.128034,-0.581892,-12.113664,-12.051153
1005.292969,-12.282811,0.580364,1.857764,2.318229
1005.296875,-0.025327,3.787618,0.595995,-4.678524
1005.300781,5.941855,-2.862303,-4.412960,0.268285
1005.304688,1.589525,0.718337,7.313833,1.942297
1005.308594,-1.759357,10.073922,4.238878,10.533028
1005.312500,7.749278,7.818722,10.321755,13.385464
1005.316406,7.801557,3.031778,8.701796,4.763735
1005.320312,12.849525,11.878021,6.523691,7.539568
1005.324219,14.524200,9.370359,12.170875,11.863333
1005.328125,9.239096,7.402207,3.064816,0.274426
1005.332031,10.461183,10.264644,10.666487,6.153398
1005.335938,2.642569,9.114189,9.030915,11.654034
1005.339844,13.593566,6.665864,2.963432,-1.032023
1005.343750,5.771910,2.274608,4.436899,10.007575
1005.347656,1.057863,-1.441321,-4.212260,2.490430
1005.351562,3.132048,-1.402738,0.442407,1.888342
1005.355469,-7.267440,-12.243328,1.642299,-2.934697
1005.359375,-7.014563,-4.366024,-9.522108,-2.302469
1005.363281,-12.906043,-3.621623,-6.324855,-7.899885
1005.367188,1.203305,-3.473656,-1.750133,-10.528494
1005.371094,-12.400467,-3.955538,-9.039895,-9.775942
1005.375000,-9.621100,-15.189964,-11.076281,-13.153896
1005.378906,-9.181749,-6.730656,-12.269316,-9.254903
1005.382812,-4.755078,-17.516730,-14.085110,-7.759399
1005.386719,-6.652731,-3.587330,-9.118041,-3.258800
1005.390625,0.946901,-9.563739,-6.434764,-0.494073
1005.394531,-4.700567,-5.952207,-8.655567,1.064024
1005.398438,-1.709507,-5.805228,-4.009914,-1.131737
1005.402344,7.209682,0.643275,3.318167,-0.939020
1005.406250,8.028418,6.237409,7.853099,6.827449
1005.410156,8.627747,6.426145,-2.965241,2.686370
1005.414062,9.737875,7.786108,4.763405,0.326188
1005.417969,11.458565,6.138821,14.365198,8.550621
1005.421875,14.352481,12.300960,8.347057,6.176528
1005.425781,13.436971,14.379228,10.412647,7.302554
1005.429688,6.670214,12.703180,5.792628,8.016176
1005.433594,5.773556,10.173907,3.196581,6.069860
1005.437500,1.956381,11.807125,10.938075,6.237986
1005.441406,3.240881,12.867575,10.825329,13.145724
1005.445312,0.719052,1.942958,5.571946,6.880898
1005.449219,0.630133,0.285512,0.190615,-1.628137
1005.453125,-4.732522,-0.318578,-3.163860,-4.658048
1005.457031,1.281815,-2.826205,-1.236643,-8.995615
1005.460938,-6.855422,2.513554,-3.516584,-10.118169
1005.464844,-6.783538,-11.451498,-7.865014,-7.072142
1005.468750,-6.792178,-5.925091,-8.194800,-2.788884
1005.472656,-11.372106,-16.980366,-14.323006,-15.412608
1005.476562,-10.050795,-7.851176,-7.037077,-6.915513
1005.480469,-2.099137,-7.801545,-12.086776,-10.052966
1005.484375,-8.411925,-7.668427,-4.757346,-11.629010
1005.488281,-7.161552,-11.166241,-5.142047,-3.789496
1005.492188,-3.276328,-1.662227,-3.374086,-0.401592
1005.496094,-4.945937,0.882429,-2.618254,-5.915067
1005.500000,0.640162,-4.619406,1.214472,-4.585514
1005.503906,8.261899,9.860613,0.511440,2.551584
1005.507812,5.230017,10.013045,-2.968903,2.668661
1005.511719,7.912013,3.614548,8.512834,10.362573
1005.515625,4.746101,10.618855,7.314456,13.409114
1005.519531,12.976787,13.419606,2.083249,5.776992
1005.523438,4.317255,8.254609,15.488864,8.807192
1005.527344,12.508665,10.076594,11.688589,8.242566
1005.531250,8.332958,4.554659,10.413102,18.196433
1005.535156,15.459439,6.236233,10.549513,6.936585
1005.539062,6.445411,10.630697,4.458690,7.751063
1005.542969,3.879962,11.471300,6.804845,1.576578
1005.546875,5.849476,2.956862,-1.830565,2.779571
1005.550781,-6.228622,1.763178,2.066775,-9.620148
1005.554688,-5.440848,-2.968717,-8.447500,-8.442439
1005.558594,0.775167,-16.491683,-2.524650,-6.304054
1005.562500,-8.824250,-11.218600,-10.438823,-9.092168
1005.566406,-7.810754,-6.725349,-5.198368,-5.286288
1005.570312,-10.141887,-12.575252,-5.402417,-8.967009
1005.574219,-17.632108,-6.794458,-7.568154,-12.651303
1005.578125,-11.161299,-14.176405,-14.333485,-12.366096
1005.582031,-3.795339,-2.608361,-10.317394,-2.310753
1005.585938,-7.662296,-13.873421,-8.313857,-9.524580
1005.589844,-0.478417,1.414723,-10.990609,-1.994669
1005.593750,-3.302268,-5.465055,-7.723010,-15.392870
1005.597656,3.883174,-0.144417,0.337332,4.753433
1005.601562,-5.109689,3.546110,2.762754,0.489496
1005.605469,5.648140,4.995460,3.876345,-0.398907
1005.609375,5.960826,7.798026,-0.767652,13.634212
1005.613281,13.080380,6.340960,14.858899,7.028638
1005.617188,2.136178,6.546065,19.757010,9.632217
1005.621094,13.555227,10.797509,7.145284,7.994004
1005.625000,9.417623,7.940608,6.240395,8.356598
1005.628906,1.378642,7.480248,15.851564,8.221295
1005.632812,1.525645,3.983213,8.410044,5.372873
1005.636719,9.559616,9.811253,9.943426,4.703528
1005.640625,-1.623843,5.430971,6.548392,2.358598
1005.644531,0.217268,7.946378,5.229117,1.309033
1005.648438,3.696150,-2.025763,0.236325,3.070259
1005.652344,-0.182070,-4.705814,3.584292,0.921921
1005.656250,-0.338049,-6.207538,-4.195237,-3.416948
1005.660156,-6.582170,-9.890016,-6.609453,-1.848022
1005.664062,-1.429765,-15.253647,-3.595951,-1.348712
1005.667969,-2.524048,-9.265284,-11.032939,-10.863445
1005.671875,-16.021756,-13.435446,-10.188132,-10.155597
1005.675781,-13.558328,-11.525850,-7.299218,-11.908408
1005.679688,-7.817022,-10.998469,-7.516203,-18.616210
1005.683594,-7.215863,-2.908952,-6.052132,-3.530893
1005.687500,-5.218806,-15.190864,-15.309824,-5.452083
1005.691406,-9.644861,-4.984243,-6.575391,-5.573959
1005.695312,-6.718581,2.377308,-3.180636,-3.734797
1005.699219,1.579716,-5.462847,-3.950460,2.889837
1005.703125,11.319877,-2.259260,-3.574396,6.729315
1005.707031,9.618657,-2.466187,3.344215,1.364365
1005.710938,1.920034,0.636252,6.496384,6.159664
1005.714844,10.364233,14.358641,16.806658,6.691194
1005.718750,14.905569,11.299737,4.727950,5.834299
1005.722656,11.562902,8.938988,12.327106,13.440320
1005.726562,9.768974,0.765351,9.017370,8.105426
1005.730469,-6.948049,12.225861,2.609349,3.114234
1005.734375,16.859425,10.624002,5.585473,7.667647
1005.738281,6.037840,5.434012,-0.024021,8.322954
1005.742188,5.938547,2.655034,-2.769492,11.983809
1005.746094,4.779671,-7.915851,6.254067,1.036368
1005.750000,3.727698,2.096661,2.294032,-1.559387
1005.753906,-0.850401,-4.895037,3.598562,-17.545760
1005.757812,-1.678218,4.204289,-6.697666,5.665648
1005.761719,-9.965054,-10.404004,-6.100753,-14.234206
1005.765625,-10.518062,-7.151680,-7.706865,-10.470667
1005.769531,-12.062297,-5.761099,-7.569489,-5.541397
1005.773438,-3.256894,-1.332092,-8.921105,-12.807446
1005.777344,-5.188289,-14.257079,-7.919691,-18.020244
1005.781250,-10.442932,-9.499946,-8.136582,-7.388784
1005.785156,-10.383327,-10.073091,-10.600079,-11.335876
1005.789062,-5.665922,-2.922578,-9.935959,-7.987931
1005.792969,-7.738498,-0.939827,-6.419007,-9.235309
1005.796875,-0.182003,-5.820532,-0.660790,-3.359933
1005.800781,3.897898,-3.687728,-1.645180,1.479085
1005.804688,6.408276,7.097483,2.163890,6.493767
1005.808594,11.494248,4.919767,9.221157,-0.551752
1005.812500,6.057008,2.605014,2.513004,7.518537
1005.816406,12.027865,5.231386,7.457441,6.673412
1005.820312,10.471973,3.693281,14.334119,7.162596
1005.824219,6.503852,9.102021,10.498093,11.423316
1005.828125,12.261334,15.548598,20.398722,9.018806
1005.832031,11.845683,3.775839,14.338700,9.751939
1005.835938,12.501862,14.148914,14.984912,4.768304
1005.839844,5.553255,8.806474,6.469898,4.223310
1005.843750,4.915941,1.232891,5.535568,-6.155437
1005.847656,3.863839,-0.833052,-2.192440,3.539116
1005.851562,-8.329846,-5.887956,-1.316657,1.772008
1005.855469,-1.360832,-1.684952,-6.961307,-3.269968
1005.859375,-3.849437,-5.968270,-5.371262,-6.679805
1005.863281,-11.397006,-2.564012,-6.222057,-7.077523
1005.867188,-3.796286,-8.514279,-4.412791,-1.395528
1005.871094,-2.117527,-14.582942,-3.155419,-5.091270
1005.875000,-9.245810,-5.894445,-12.365171,-12.461965
1005.878906,-6.753368,-6.774163,-14.072900,-7.553070
1005.882812,-3.364114,0.804479,-9.152648,-4.430127
1005.886719,2.436476,-9.595984,-1.656244,-2.576337
1005.890625,-9.631604,-1.876473,-2.720733,-9.765809
1005.894531,-2.926137,3.777359,-4.590898,-0.057552
1005.898438,-1.744038,1.694311,-2.778209,-4.684432
1005.902344,-8.072872,8.934177,-3.833414,5.461480
1005.906250,3.419301,0.960673,9.768519,7.553895
1005.910156,8.525473,1.358436,8.143881,11.359582
1005.914062,3.378282,2.926505,14.595795,11.087534
1005.917969,7.716594,7.195228,9.880221,14.963217
1005.921875,11.043494,12.613212,10.652669,11.545686
1005.925781,8.691396,4.213723,21.795465,10.860445
1005.929688,4.321919,6.908024,12.061535,12.660889
1005.933594,12.737248,15.782656,13.824631,5.968859
1005.937500,11.648469,8.298517,6.006659,3.703705
1005.941406,8.829910,3.978157,6.299479,9.963797
1005.945312,3.365949,3.754576,4.057219,-0.931490
1005.949219,-2.228540,0.627314,0.341161,-0.153134
1005.953125,-3.736161,-5.088628,-4.761326,-2.181323
1005.957031,-9.173507,-11.455028,-7.071061,-4.386410
1005.960938,-2.517559,-10.458918,-6.936988,-6.847788
1005.964844,-13.760494,-9.764975,-8.851264,-3.922161
1005.968750,-6.666796,-8.523325,-9.847361,-1.266045
1005.972656,-11.159682,-9.512830,-8.171710,-3.384806
1005.976562,-5.196767,-5.037791,-10.817945,-12.735434
1005.980469,-9.512448,-8.746028,-13.470163,-12.061056
1005.984375,-9.760540,-7.643729,-7.845921,-9.271447
1005.988281,-3.223633,-7.215383,-12.492912,-4.054981
1005.992188,-9.992370,-3.396582,-1.450211,-8.432203
1005.996094,-1.503407,1.328435,-1.986651,-2.245810
1006.000000,-4.165698,-4.090421,-5.213057,-2.863649
1006.003906,-1.025581,6.684298,-2.925325,8.527844
1006.007812,6.770594,-0.531567,-0.227990,-0.876515
1006.011719,7.165403,3.361164,12.184091,17.815795
1006.015625,12.672699,13.859738,16.423468,5.564099
1006.019531,6.928575,1.570162,10.145298,3.999220
1006.023438,3.807805,9.194616,14.467186,10.428027
1006.027344,11.944318,15.242682,4.053808,13.045105
1006.031250,8.067932,10.635993,7.352440,10.245066
1006.035156,7.384341,10.532968,5.366017,6.575535
1006.039062,12.642041,10.997464,9.482892,6.111135
1006.042969,8.771793,-1.155910,3.601163,8.390648
1006.046875,1.977115,2.796569,4.118451,5.987648
1006.050781,-1.854228,4.778249,9.759413,0.535787
1006.054688,0.312007,-7.104721,-1.132461,-7.239463
1006.058594,-15.603081,2.410073,-8.769682,-6.180137
1006.062500,-11.765532,-5.831572,-6.440597,-4.492662
1006.066406,-14.131291,-10.779361,-9.396815,-8.916384
1006.070312,-6.115581,-10.605232,-9.873146,-4.088908
1006.074219,-18.009811,-11.336599,-8.867378,-13.228850
1006.078125,-12.648098,-8.399505,-5.756470,-9.085207
1006.082031,-10.757111,-9.370785,-9.954179,-4.202952
1006.085938,0.118994,-2.583140,-9.013867,-6.617956
1006.089844,-5.964015,-7.538229,-4.278307,-5.591279
1006.093750,2.815113,-0.345325,-3.417192,-6.835873
1006.097656,-3.560121,-1.159643,-1.292107,-3.586389
1006.101562,-6.573059,-3.450109,6.656859,1.588443
1006.105469,-0.339810,4.476846,8.195970,10.406635
1006.109375,5.935723,2.420718,-0.502647,0.312358
1006.113281,11.001038,8.957109,9.026314,2.384233
1006.117188,4.334949,10.517677,5.699789,14.427272
1006.121094,7.665854,3.902718,6.520855,0.866755
1006.125000,10.089118,10.504235,2.190064,14.231975
1006.128906,6.891325,19.186547,6.374679,11.650546
1006.132812,5.283777,9.517765,11.731828,1.506505
1006.136719,2.279916,6.961948,4.217924,10.175205
1006.140625,7.038509,6.789473,2.065651,5.619100
1006.144531,1.181841,2.075099,6.196285,2.323035
1006.148438,-1.834849,3.798476,-5.037618,-1.643294
1006.152344,0.603319,-0.170613,0.481409,-0.451433
1006.156250,-1.830109,1.882300,0.160644,-3.900511
1006.160156,-10.274195,-8.496571,0.704738,-2.957949
1006.164062,-14.910856,-3.697819,-7.975370,-8.539978
1006.167969,-7.031308,-11.575049,-13.667196,-8.600196
1006.171875,-8.586832,-9.440618,-5.856222,-6.271953
1006.175781,-11.219748,-2.675250,-8.537083,-10.535436
1006.179688,-9.289058,-13.241171,-8.088766,-13.427200
1006.183594,-10.648086,-8.103918,-10.140186,-15.005444
1006.187500,-15.310117,0.951836,-2.073558,-11.727554
1006.191406,-6.136777,-15.754552,-0.817951,-6.267945
1006.195312,-1.268560,-4.458288,-3.884963,-3.734801
1006.199219,3.224902,-1.137940,-8.605146,2.951776
1006.203125,4.425884,-0.319231,1.890852,0.561841
1006.207031,7.466106,5.898689,0.099530,6.118539
1006.210938,8.087848,6.034003,11.720718,7.241471
1006.214844,-1.369542,8.579509,6.821596,11.045139
1006.218750,2.955845,8.872697,10.875805,13.918099
1006.222656,10.466332,13.465410,10.990663,10.241061
1006.226562,17.024480,9.700489,7.165848,14.186616
1006.230469,6.804512,18.228355,5.679186,7.738767
1006.234375,5.896574,10.165694,10.652822,4.215429
1006.238281,3.274788,3.946756,0.675505,9.168407
1006.242188,2.755330,3.713921,2.549546,6.175988
1006.246094,-1.131136,2.590478,6.680796,-0.701399
1006.250000,-0.008037,0.027451,-1.169228,-4.461291
1006.253906,-2.679572,-0.671251,0.923303,-5.122800
1006.257812,3.343314,-1.017204,-2.470385,-7.602549
1006.261719,-7.604067,-6.757198,-12.640868,-5.389349
1006.265625,-17.453085,-10.439356,-11.158133,-8.384977
1006.269531,-11.105003,-3.340681,-15.117408,-5.824686
1006.273438,-13.033634,-15.308426,-10.616507,-4.067842
1006.277344,-5.325873,-7.985746,-10.342569,-10.073037
1006.281250,-12.413289,-17.969852,-12.045505,-4.597121
1006.285156,-10.256832,-9.656444,-12.163996,-1.363004
1006.289062,-13.625286,-6.191395,-3.563971,-4.944132
1006.292969,-5.408907,-3.818463,-3.259870,-7.201013
1006.296875,-6.497472,-3.036546,-6.779026,1.564619
1006.300781,-6.098800,1.887084,-1.113421,-3.951741
1006.304688,10.515083,0.260224,7.976505,-2.797058
1006.308594,6.570553,0.634054,1.549347,5.637863
1006.312500,6.703180,8.250469,8.778178,1.374030
1006.316406,10.340625,7.768670,10.355854,10.812135
1006.320312,9.881218,11.395748,9.118033,8.898388
1006.324219,6.868695,8.495096,6.590964,10.699249
1006.328125,10.459768,14.129104,12.557852,5.843440
1006.332031,10.886775,12.318811,5.218876,5.701363
1006.335938,6.725612,7.270344,7.503166,7.449493
1006.339844,8.257745,5.511689,9.163723,-0.957077
1006.343750,-0.746769,4.280591,5.093485,-2.051040
1006.347656,4.658782,3.363031,3.436523,2.551126
1006.351562,-1.280594,-0.486253,-1.944306,3.181236
1006.355469,-5.855844,-7.933726,-8.281203,-3.518843
1006.359375,-2.581099,-7.890391,-13.413877,-1.627031
1006.363281,-1.919725,-1.466911,-7.241794,-2.953133
1006.367188,-16.439387,-11.719445,-6.961753,-13.568897
1006.371094,-8.082252,-7.551438,-12.439881,-8.995831
1006.375000,-15.697835,-5.214822,-9.243487,-14.253476
1006.378906,-11.453219,-12.977925,-10.074404,-7.365758
1006.382812,-10.991270,-9.920299,-7.303482,-6.312225
1006.386719,-3.634718,-3.117351,-3.066359,-2.350238
1006.390625,-4.657229,2.081153,-6.306710,-7.285696
1006.394531,-5.185757,-2.863467,3.086293,3.201045
1006.398438,-12.876567,0.445824,9.171007,-3.038076
1006.402344,-0.928660,3.304914,-2.527680,-4.402180
1006.406250,5.986996,0.902275,-0.738123,-1.721361
1006.410156,7.247816,6.933861,2.514535,2.892886
1006.414062,-1.013798,6.605085,5.226754,7.914901
1006.417969,2.859370,4.653110,6.057476,8.943299
1006.421875,13.103892,14.080497,7.231469,6.436174
1006.425781,15.080555,6.859979,3.098478,12.419315
1006.429688,14.037275,7.865974,10.568758,6.829978
1006.433594,4.369111,11.030033,-1.865117,10.041681
1006.437500,4.984336,11.530540,8.220936,8.812781
1006.441406,14.197614,6.951252,0.716134,10.813626
1006.445312,4.357469,1.925698,0.532954,9.089469
1006.449219,1.717033,0.464861,0.687354,-4.811149
1006.453125,1.615069,-2.190069,4.766707,1.911271
1006.457031,-3.456769,-7.241388,-10.465021,0.276907
1006.460938,-7.585520,-10.687313,-7.038646,1.405561
1006.464844,-3.155872,-8.193774,-7.998132,-6.685714
1006.468750,-12.364369,-17.845366,-10.622072,-12.598091
1006.472656,-16.725989,-14.997195,-2.939260,-8.185463
1006.476562,-6.299326,-10.513385,-2.751071,-4.402782
1006.480469,-13.198852,-9.522592,-16.838020,-8.686798
1006.484375,-3.167763,-6.712652,-9.096405,-1.065445
1006.488281,-6.943206,-6.657115,-4.551176,-11.082933
1006.492188,-8.434423,-6.271598,-7.307647,-4.146205
1006.496094,-4.768302,-2.680475,-2.863736,2.139808
1006.500000,4.066533,-1.498354,0.039724,3.931372
1006.503906,1.227997,6.491356,1.770473,-2.590187
1006.507812,2.339371,5.792646,6.817871,1.413857
1006.511719,3.695945,6.054763,17.162796,8.435984
1006.515625,4.730040,6.090561,4.995193,8.441336
1006.519531,8.112189,4.148846,15.037288,17.936019
1006.523438,14.672562,9.453920,3.146133,9.039827
1006.527344,13.042029,11.587462,14.475524,3.028144
1006.531250,13.525368,5.302377,10.343193,12.671218
1006.535156,13.827882,10.342281,0.444240,13.345577
1006.539062,2.798750,6.915160,5.176178,7.530615
1006.542969,3.380673,5.468090,8.983927,9.722159
1006.546875,3.431748,-3.968898,1.367048,2.787758
1006.550781,2.889562,-9.532386,2.478863,-3.270834
1006.554688,3.201918,-1.626682,0.608458,-9.034564
1006.558594,-8.782417,-7.808121,-11.260743,-12.151331
1006.562500,-1.426861,-2.639820,-9.134020,-2.070261
1006.566406,1.457437,-9.031900,-10.281554,-12.262427
1006.570312,-10.663928,-7.742622,-9.500934,-7.884933
1006.574219,-11.582387,-8.337428,-5.521632,-13.186346
1006.578125,-7.492791,-5.287079,-17.520627,-3.726470
1006.582031,-7.717083,-15.929813,-3.319676,-7.908357
1006.585938,-14.204026,-0.587497,-12.108910,-11.864683
1006.589844,-11.246175,-11.670634,-11.035880,-4.730036
1006.593750,-9.772297,-1.887109,-7.108289,-1.008746
1006.597656,2.647839,-5.295743,-8.201700,0.517081
1006.601562,1.325894,-0.983209,-5.234601,-8.350204
1006.605469,0.904119,5.484146,-2.880638,3.343517
1006.609375,7.069701,6.136028,6.800402,1.245938
1006.613281,2.258134,9.790586,1.050085,12.171157
1006.617188,17.540711,7.210987,10.399372,9.159270
1006.621094,4.921240,8.777510,10.400092,7.967011
1006.625000,15.006857,11.315246,8.687544,8.878020
1006.628906,11.981590,9.096334,4.149986,1.298185
1006.632812,14.078366,10.755826,6.035856,4.340728
1006.636719,8.392356,6.414002,-0.501213,12.026708
1006.640625,3.012932,6.002708,6.670312,7.040035
1006.644531,-0.029674,9.823212,-0.026902,8.923715
1006.648438,9.160380,-6.363752,0.379470,0.208192
1006.652344,-0.566504,-6.256680,-8.724683,3.479652
1006.656250,-5.683291,-5.745063,-2.207371,-2.429021
1006.660156,-4.077694,-9.230081,-10.676214,-3.219536
1006.664062,-13.126552,-5.824278,-6.887483,-9.080250
1006.667969,-15.990079,-8.467954,-8.965798,-4.167064
1006.671875,-3.989488,-9.348994,-4.998564,-11.107747
1006.675781,-8.410306,-7.753014,-13.924635,-9.177747
1006.679688,-10.761007,-11.274536,-7.040643,-4.054505
1006.683594,-2.610892,-4.485694,-10.803764,-8.864586
1006.687500,-6.167654,0.122491,-2.231038,-3.608139
1006.691406,-7.265192,-7.917026,-7.066866,-3.823618
1006.695312,-6.122263,-5.569543,-1.979356,-2.535597
1006.699219,1.721698,-6.220194,5.278372,-0.967658
1006.703125,-6.996587,2.601438,8.418922,1.417039
1006.707031,3.650200,6.080925,7.787720,6.199038
1006.710938,6.686210,8.338793,5.854113,7.320755
1006.714844,9.508323,8.919430,5.825854,9.726817
1006.718750,2.738702,7.643129,7.000834,13.422897
1006.722656,5.811950,8.907813,13.486992,10.658363
1006.726562,3.546345,7.751606,19.275983,9.498023
1006.730469,12.587330,13.942204,13.922582,13.458705
1006.734375,11.576209,5.241104,5.523191,13.720272
1006.738281,3.045024,4.126291,7.882653,5.520120
1006.742188,2.348144,8.373068,2.681791,-2.395696
1006.746094,-0.527866,7.912668,4.884887,3.057326
1006.750000,-1.964744,-3.298186,-3.129594,-1.764909
1006.753906,-7.084095,0.723203,-9.550385,2.154331
1006.757812,-4.218619,-14.446780,-2.132401,-10.218947
1006.761719,-12.453546,-5.601165,-9.318381,6.949367
1006.765625,-11.955737,-10.355339,-2.744561,-11.486522
1006.769531,-14.259678,-7.225771,-8.375758,-10.976713
1006.773438,-5.449477,-7.919407,-6.895365,-9.878387
1006.777344,-9.744604,-1.672023,-5.115545,-14.222380
1006.781250,-12.996093,-9.988897,-3.476420,-11.484968
1006.785156,-3.518548,-5.329291,-6.215105,-10.402074
1006.789062,-9.761331,-7.100572,-6.781711,-7.142584
1006.792969,-0.455068,-8.397983,-8.875648,-0.562842
1006.796875,-9.197666,-3.786425,-6.061440,3.904766
1006.800781,7.292435,6.035634,0.647377,-2.455696
1006.804688,5.042435,0.152854,2.038414,1.347422
1006.808594,4.326528,1.045517,5.923094,6.492692
1006.812500,5.953615,6.980920,12.225273,0.284529
1006.816406,11.591064,1.659425,6.846103,7.086442
1006.820312,14.083209,6.171376,8.951754,12.786649
1006.824219,12.314211,16.330221,10.497161,14.006879
1006.828125,10.645438,12.830107,7.212633,10.256297
1006.832031,5.602428,8.210726,14.625797,11.668639
1006.835938,11.527769,13.890002,8.739185,9.865548
1006.839844,8.450781,6.061737,2.241872,11.279643
1006.843750,5.219407,2.775710,3.677158,-1.028779
1006.847656,8.147576,-3.974491,0.387585,12.802858
1006.851562,-0.496758,-2.629503,-2.173909,-2.323004
1006.855469,-0.995014,2.878747,-5.845015,-5.852223
1006.859375,-4.222926,-11.932771,4.880329,-9.309333
1006.863281,-9.333271,-8.771393,-6.462968,-3.111827
1006.867188,-9.831188,-6.773398,-5.559752,-3.526528
1006.871094,-10.666319,-12.471764,-5.843439,-16.187155
1006.875000,-6.931928,-14.427952,-3.965150,-8.710359
1006.878906,-10.954790,-3.292481,-7.929363,-11.066353
1006.882812,-10.150758,-8.958539,-7.777337,-14.229032
1006.886719,-6.795375,-5.718445,-1.252761,-6.537319
1006.890625,-6.599464,-6.318859,0.733278,-6.199168
1006.894531,1.098308,-3.465778,-3.653404,-9.639145
1006.898438,0.373637,0.495643,-0.363337,2.239935
1006.902344,5.015057,2.686752,8.083377,-1.273260
1006.906250,3.754035,0.791949,6.751123,-0.556991
1006.910156,9.823063,1.737640,1.934457,5.316234
1006.914062,6.781962,12.911319,-4.093617,5.653283
1006.917969,9.184581,9.749159,11.881252,10.517482
1006.921875,12.278720,11.338526,10.017100,5.723307
1006.925781,4.555425,3.654636,4.555126,11.731018
1006.929688,9.297665,3.376772,8.810910,12.613571
1006.933594,9.797884,7.876463,7.346855,7.825459
1006.937500,7.840382,10.932684,4.625630,0.863633
1006.941406,0.036092,4.878662,11.264786,4.733606
1006.945312,0.442711,9.735274,4.341707,6.072538
1006.949219,-8.044498,2.759620,-2.782067,-3.992188
1006.953125,-2.337341,-4.558865,-1.685558,-3.384825
1006.957031,-5.587238,-13.198419,-12.465113,-1.560471
1006.960938,-8.695153,-6.736176,-4.485830,-6.226859
1006.964844,-7.521014,-5.563176,-4.073191,-15.055406
1006.968750,-6.481518,-16.573261,-12.156773,-12.580317
1006.972656,-12.684634,-7.056731,-8.384572,-15.844984
1006.976562,-10.904523,-17.088901,-13.554493,-10.053157
1006.980469,-17.441003,1.022386,-7.016866,-7.002264
1006.984375,-10.144948,-8.895902,-10.005133,-10.816840
1006.988281,-0.697068,-4.198782,-8.418403,-7.714096
1006.992188,-1.539054,-8.674092,0.794145,3.381929
1006.996094,-5.104245,-0.033690,2.356591,0.498788
1007.000000,1.886597,-5.444735,5.670827,4.922694
1007.003906,0.535223,8.621695,2.984052,7.936921
1007.007812,3.328721,4.327586,3.540371,0.871007
1007.011719,3.709190,-0.208869,9.404506,11.729380
1007.015625,5.342323,7.864895,14.678240,9.049412
1007.019531,8.629098,4.766306,11.458897,4.649764
1007.023438,10.704865,8.781456,21.212249,5.678795
1007.027344,8.403908,5.201017,8.214392,6.503976
1007.031250,10.375196,10.415975,13.480224,6.108790
1007.035156,3.619092,7.859787,3.937874,10.408337
1007.039062,5.225244,10.459409,1.194188,9.046080
1007.042969,-2.951525,9.109197,6.112783,3.153329
1007.046875,-1.657725,-3.008087,7.819743,2.384632
1007.050781,-1.164898,3.233454,-3.956877,0.650889
1007.054688,0.528196,3.415802,-2.420972,3.295362
1007.058594,-0.155945,-9.116200,-3.873066,-3.807439
1007.062500,-2.959467,-7.243251,-4.576641,-12.112527
1007.066406,-10.220452,-12.170696,-6.509032,-9.067871
1007.070312,-10.829201,-3.788992,-10.354586,-10.958651
1007.074219,-6.139003,-4.676897,-13.482670,-6.004281
1007.078125,-11.283615,-13.000651,-8.162655,-14.379790
1007.082031,-5.118996,-8.366907,-8.921635,-12.895157
1007.085938,-3.551742,-6.430056,-9.947933,-5.697917
1007.089844,-2.191144,1.719129,0.883852,-11.304692
1007.093750,0.207527,-0.979289,-10.345365,-4.181794
1007.097656,-6.440162,-2.139904,-3.033715,-4.282982
1007.101562,-2.165561,4.115319,-1.593834,1.334148
1007.105469,1.565143,-0.642574,0.479168,5.013959
1007.109375,5.754228,2.997648,2.630910,0.300490
1007.113281,1.502001,12.215300,4.984714,4.306776
1007.117188,6.316373,14.699162,10.504526,8.489379
1007.121094,6.260358,8.722016,12.957012,11.962398
1007.125000,12.251573,11.383679,7.829040,8.154433
1007.128906,11.933310,8.295221,11.269087,2.936698
1007.132812,9.502765,12.679240,9.833978,7.321117
1007.136719,17.273154,3.500576,2.841637,15.802070
1007.140625,3.518696,4.079526,3.532523,5.760445
1007.144531,2.434992,8.265296,1.939953,2.482724
1007.148438,4.447871,6.714918,1.724336,1.945179
1007.152344,-2.583026,-5.166094,-2.950783,-2.043594
1007.156250,-1.177951,-6.656066,-6.990683,-5.394042
1007.160156,-10.644504,-5.542653,-8.115013,-8.055770
1007.164062,-8.518117,-6.788757,-15.928208,-10.726619
1007.167969,-5.163013,-8.937306,-4.736596,-10.844445
1007.171875,-14.670872,-19.341802,-3.282212,-10.906030
1007.175781,-4.416004,-7.922312,-3.629566,-7.358248
1007.179688,-10.658023,-6.341847,-7.407355,-14.618794
1007.183594,-9.367342,-8.148075,-1.507783,-21.748172
1007.187500,-8.679963,-10.462349,-11.041358,-12.861835
1007.191406,-13.777505,-11.730138,-11.437474,-2.373075
1007.195312,-10.708790,-6.278687,-7.807324,-1.234140
1007.199219,-10.988249,0.647919,0.165832,0.020323
1007.203125,2.659642,3.676237,2.092227,1.675667
1007.207031,-2.996500,-1.164660,5.930305,3.075419
1007.210938,0.309118,4.883618,8.503735,12.881106
1007.214844,11.886413,4.112175,9.457276,4.428444
1007.218750,9.884567,7.409856,6.505538,9.995611
1007.222656,6.743712,9.243561,13.435240,7.580189
1007.226562,6.095399,12.711335,12.228113,6.531362
1007.230469,8.934048,8.312081,8.361081,12.079103
1007.234375,4.595386,4.704475,10.447689,12.683049
1007.238281,10.947691,4.653778,5.089069,3.160424
1007.242188,10.085875,0.118697,7.691776,2.814667
1007.246094,-0.460136,-1.411543,0.580378,-5.411412
1007.250000,-9.568691,-2.807646,0.939346,4.675049
1007.253906,-4.891699,-0.870803,-2.420699,-3.660114
1007.257812,-6.457383,-8.544141,-9.651101,-7.978884
1007.261719,-10.729718,1.821745,-11.262758,-6.966446
1007.265625,-5.445697,-8.630070,-8.454225,-12.930564
1007.269531,-21.711361,-4.581188,-2.044663,-12.750736
1007.273438,-8.142368,-8.833857,-6.251550,-13.058989
1007.277344,-18.506599,-5.105681,-7.932070,-6.350576
1007.281250,-12.314862,-15.668001,-5.580365,-9.308973
1007.285156,-12.646632,-12.901691,-8.793123,-4.395186
1007.289062,0.945373,-6.524723,-7.731463,-10.479890
1007.292969,-10.995072,-6.184654,-0.994701,-13.396145
1007.296875,-7.817386,-8.292964,-5.240389,2.073230
1007.300781,0.445833,-2.166521,-0.345369,0.360744
1007.304688,4.011568,2.053590,4.919018,2.675671
1007.308594,0.379829,1.072678,9.449228,8.416342
1007.312500,5.940952,9.159175,7.940838,7.051557
1007.316406,6.327113,-2.151039,11.353368,7.110124
1007.320312,11.859904,-2.437790,20.267745,7.410913
1007.324219,8.801241,8.775686,6.401674,5.691777
1007.328125,8.975493,4.100479,11.287111,9.671448
1007.332031,12.001491,8.940920,3.308738,9.274062
1007.335938,6.943124,3.495040,2.457428,13.207102
1007.339844,3.229741,2.441208,8.149276,1.932679
1007.343750,0.164975,5.349757,5.558598,5.629660
1007.347656,-1.501317,2.072396,6.562523,-0.833495
1007.351562,-6.381279,0.735001,3.495104,1.863976
1007.355469,-5.467147,-5.568774,-0.623921,-3.301117
1007.359375,-1.820070,-1.640520,-0.441214,-7.777367
1007.363281,-2.943483,-17.471068,-6.118393,-1.283371
1007.367188,-10.527271,-11.633608,-6.444875,-13.277709
1007.371094,-9.858620,-4.267914,-7.667530,-9.282201
1007.375000,-8.470992,-10.478794,-9.322622,-17.809558
1007.378906,-12.228496,-4.819273,-17.696351,-11.126153
1007.382812,-8.442474,-12.706989,-9.111422,-16.981978
1007.386719,-11.425748,-12.570503,-6.019865,-4.240773
1007.390625,-5.837947,-5.317420,-0.999535,-5.847885
1007.394531,-5.832512,-5.642600,3.492539,-4.822606
1007.398438,2.014664,-2.856043,-8.729683,-4.729834
1007.402344,-2.657878,-5.926848,1.520181,0.526830
1007.406250,4.140673,0.566141,11.378019,-0.414174
1007.410156,5.051001,-1.359519,3.716111,7.725344
1007.414062,14.948108,15.365923,3.832621,-0.419821
1007.417969,7.724058,7.290740,7.201669,14.472861
1007.421875,5.902891,10.929234,15.870714,17.259998
1007.425781,4.159166,3.256053,5.090645,10.667401
1007.429688,10.866591,7.056528,5.529596,9.530084
1007.433594,10.385547,11.593177,7.643527,10.988011
1007.437500,12.736440,1.855744,8.873845,6.959262
1007.441406,4.715262,3.842836,14.947785,15.136678
1007.445312,-8.954999,3.857196,12.042674,-1.193323
1007.449219,-0.510872,-3.187657,-3.088729,-4.206155
1007.453125,0.529698,1.484659,3.954738,-6.626126
1007.457031,-6.981001,2.799381,1.934948,-10.900143
1007.460938,-6.221985,-13.488993,-3.349564,-5.237488
1007.464844,-5.728611,-6.504386,-11.159167,-10.055143
1007.468750,-8.116519,-13.716643,-6.631205,-14.625837
1007.472656,-19.396800,-7.746027,-15.676861,-13.779247
1007.476562,-6.161592,-10.325754,-12.634815,-9.089397
1007.480469,-7.091330,-12.110313,-8.453722,-6.559880
1007.484375,-3.062475,-7.033895,-5.908651,-7.085136
1007.488281,-0.601716,-0.585374,-6.383354,-0.466897
1007.492188,-10.816358,-5.804008,-8.927139,-11.073784
1007.496094,-3.264050,-5.677797,0.406424,-2.818416
1007.500000,-2.065581,-0.055326,6.383550,3.239117
1007.503906,13.556022,4.468224,4.570334,-0.417195
1007.507812,0.742977,2.646486,3.742922,1.906305
1007.511719,7.562408,6.635529,13.476517,4.485381
1007.515625,11.036684,13.526835,10.311643,6.037811
1007.519531,7.402111,13.301791,11.252835,10.458480
1007.523438,4.428242,8.156850,6.541531,9.458895
1007.527344,4.123741,14.570549,6.929304,9.262382
1007.531250,9.290107,10.205053,8.096965,7.575133
1007.535156,3.734959,8.045171,3.640583,15.093735
1007.539062,7.593138,4.348148,7.798554,12.310109
1007.542969,9.618575,3.377444,1.367656,-0.790917
1007.546875,-0.999647,4.693059,-4.410394,3.616765
1007.550781,3.282630,-10.065655,0.018745,-0.019220
1007.554688,-4.706402,-2.225701,-10.976694,-1.746676
1007.558594,-7.096634,-7.296230,-2.999749,-7.416274
1007.562500,-2.464581,2.658765,-9.223841,-7.566138
1007.566406,-5.877022,-15.258922,-14.489152,-10.622149
1007.570312,-15.286849,-8.525071,-7.376731,-6.371168
1007.574219,-9.841286,-2.893341,-12.360372,-10.283923
1007.578125,-5.779641,-10.594226,-9.550145,-9.079681
1007.582031,-5.512850,-12.646350,-12.726522,-9.685490
1007.585938,-6.047370,-5.799059,-4.168406,-12.296288
1007.589844,-4.427286,-6.965606,0.149860,-8.720611
1007.593750,-9.298343,-8.180554,7.148871,-4.279480
1007.597656,-3.222756,4.688774,-2.750402,-12.701979
1007.601562,-0.480522,5.828523,8.167652,-1.969429
1007.605469,3.567231,8.430039,-0.836127,6.894190
1007.609375,6.069537,8.183066,3.780791,6.496758
1007.613281,11.481100,4.950698,5.022469,2.897565
1007.617188,6.898075,9.630113,7.986950,7.494623
1007.621094,5.441617,4.642894,-2.777187,4.844361
1007.625000,9.505278,15.069280,11.896470,8.889824
1007.628906,11.855186,3.581526,11.021417,5.818870
1007.632812,12.786056,8.777078,2.252951,7.658885
1007.636719,4.582046,12.169245,4.735419,11.729486
1007.640625,6.467591,9.543189,4.753029,12.029991
1007.644531,-0.461831,6.364452,6.583309,4.019292
1007.648438,-0.015197,-0.180925,-0.577371,2.794723
1007.652344,0.218715,-4.957777,-1.089588,5.782437
1007.656250,-3.477302,-4.098524,-0.511775,-5.567551
1007.660156,-3.203218,-5.072993,-9.077660,-14.770557
1007.664062,-11.479436,-1.095050,-3.302431,-8.868790
1007.667969,-3.943767,-7.996579,-4.698309,-9.005718
1007.671875,-9.094275,-9.718303,-8.997663,-8.456596
1007.675781,-7.236140,-6.383975,-12.998114,-10.144254
1007.679688,-7.588907,-11.514559,-9.730979,-7.146207
1007.683594,-9.453364,-6.566799,-18.994690,-6.132662
1007.687500,-11.724002,-3.549259,-5.178046,-8.120293
1007.691406,-5.970395,-3.926970,-1.093012,-4.482040
1007.695312,-3.487116,-11.951222,2.425495,7.162535
1007.699219,-5.137665,1.121935,0.531748,-6.126448
1007.703125,-5.479048,9.729180,8.880907,-3.390916
1007.707031,7.270689,7.891507,11.866410,3.457896
1007.710938,0.947839,11.761740,2.666536,6.216591
1007.714844,4.884245,7.330272,12.075874,8.515879
1007.718750,6.036852,2.724223,4.528753,14.518428
1007.722656,11.104503,10.207303,7.374133,5.924140
1007.726562,5.260493,11.901296,12.421797,7.573953
1007.730469,16.885825,8.558985,1.501649,11.907876
1007.734375,3.938165,12.475200,4.199879,12.602720
1007.738281,8.358435,7.454998,10.985247,7.775452
1007.742188,3.982498,8.081034,9.540136,2.019860
1007.746094,-6.718560,3.125509,-1.445511,2.017448
1007.750000,-1.298381,-6.838521,3.996944,-6.719717
1007.753906,-2.292385,-6.144309,-1.687300,0.078776
1007.757812,-2.759127,-5.843741,-13.029970,-3.548467
1007.761719,-10.436708,-4.352606,-10.025160,-4.507535
1007.765625,-1.616210,-10.588879,-3.950629,-4.252418
1007.769531,-9.995695,-9.100262,-9.671546,-18.690904
1007.773438,-10.788545,-6.727872,-11.198459,-13.508931
1007.777344,-12.665113,-13.755423,-13.094196,-13.593832
1007.781250,-9.330945,-16.599397,-12.538305,-8.657884
1007.785156,-1.263268,-6.478750,-8.450933,-16.676757
1007.789062,-7.190060,-12.028240,5.843385,-2.443262
1007.792969,3.592447,-7.270254,1.755810,-3.686539
1007.796875,-3.604617,3.363418,-1.157393,-6.383965
1007.800781,2.636783,-0.273757,1.987739,4.704905
1007.804688,-3.363656,4.330196,0.804449,4.449553
1007.808594,6.045117,6.094965,-1.193100,12.482705
1007.812500,4.814151,4.448913,9.824054,11.922555
1007.816406,9.345746,8.836617,3.321332,6.243443
1007.820312,6.521565,13.978717,4.374159,8.499342
1007.824219,15.221017,18.477261,9.199016,11.760233
1007.828125,12.161468,8.034175,7.577493,6.160623
1007.832031,12.963283,9.682380,3.991299,11.518340
1007.835938,5.537496,5.618318,8.927001,14.811603
1007.839844,8.041848,9.042791,5.911980,7.402831
1007.843750,1.125679,-3.309338,-0.324057,8.944137
1007.847656,9.563456,0.397970,1.370329,-3.011690
1007.851562,-2.233357,3.042557,0.240129,1.745994
1007.855469,-2.413935,-4.106544,-2.404048,-7.524524
1007.859375,-8.955727,-5.416316,-7.916014,4.721483
1007.863281,-7.817438,-11.341451,-13.960919,-6.845711
1007.867188,-4.913085,-10.408532,-7.554078,-2.701273
1007.871094,-6.957166,-11.205905,-4.444072,-5.628683
1007.875000,-14.896624,-14.161720,-7.288990,-9.312852
1007.878906,3.192664,-10.460603,-10.558213,-12.410738
1007.882812,-10.166831,-12.826177,-9.749663,-5.085061
1007.886719,-6.061918,-3.093788,-4.894908,-10.702962
1007.890625,-4.945517,-13.022206,-7.596988,1.701866
1007.894531,-7.355034,-0.611809,4.612151,-1.311104
1007.898438,-6.251079,-0.028689,-4.100872,-1.761295
1007.902344,6.215566,1.837307,-2.578840,-0.564940
1007.906250,1.469855,7.422534,-0.665536,-1.557847
1007.910156,10.954775,13.766615,2.334504,5.727606
1007.914062,4.687256,14.494567,12.194593,9.411369
1007.917969,5.073988,10.144091,4.199908,8.966178
1007.921875,10.160651,11.401085,9.240275,6.538854
1007.925781,5.793068,13.059969,17.769079,10.445784
1007.929688,10.956549,14.442200,4.027141,10.272809
1007.933594,4.827868,8.632407,15.537752,0.597887
1007.937500,7.960854,2.086336,0.412425,10.801372
1007.941406,8.065678,10.250803,5.553504,-0.726098
1007.945312,-0.143862,4.426670,5.059698,0.623276
1007.949219,-4.118666,2.386431,3.908196,2.435130
1007.953125,1.217929,-0.606565,-0.781733,-0.539733
1007.957031,-6.419488,-4.477749,2.370078,-2.576783
1007.960938,-14.240813,-3.989090,-5.977104,-10.021276
1007.964844,-6.534058,-8.175117,-5.564998,-14.235967
1007.968750,-10.835215,-12.467050,-3.720651,-8.525312
1007.972656,-9.427307,-7.212806,-9.248216,-10.566119
1007.976562,-1.103897,-10.547304,-9.975966,-6.454663
1007.980469,-8.948065,-5.877382,-8.828466,-9.433456
1007.984375,-7.060739,-9.025489,-4.565431,-5.045662
1007.988281,-2.453714,-10.088869,-4.948909,-7.626455
1007.992188,-4.725800,-3.456666,-6.212612,-8.296617
1007.996094,-10.716867,-2.866436,-5.674928,-3.779908
1008.000000,2.527240,5.952003,2.790808,1.790739
1008.003906,9.631196,-7.370031,2.918644,5.196258
1008.007812,5.782170,2.251197,9.423218,-1.820774
1008.011719,10.323205,7.249745,2.728463,-3.837685
1008.015625,9.270390,16.864213,8.247877,14.301222
1008.019531,8.064327,14.953055,5.199361,11.157652
1008.023438,14.661943,14.246035,6.771060,10.295822
1008.027344,9.833345,15.260248,9.664207,6.236249
1008.031250,8.597262,8.500168,4.819158,3.741759
1008.035156,13.664597,7.578625,6.306745,10.120115
1008.039062,4.368086,4.821506,4.032029,5.121486
1008.042969,1.742115,7.152509,6.564888,5.045764
1008.046875,3.366202,0.935795,-3.539710,-1.267362
1008.050781,0.530078,-1.413558,1.902753,2.635187
1008.054688,-8.045434,-3.186683,-8.205031,-7.444027
1008.058594,-5.180001,-13.322338,-10.381582,5.732898
1008.062500,-0.441776,-9.350523,3.602981,-2.936120
1008.066406,-10.539143,-7.860810,-4.807362,-14.798206
1008.070312,-6.764069,-19.743259,-12.304184,-11.407189
1008.074219,-8.414954,-15.124264,-7.067114,-8.063932
1008.078125,-13.631675,-6.918330,-12.434336,-2.533929
1008.082031,-3.638450,-4.714770,-9.514068,-11.569704
1008.085938,-7.569532,-8.470740,-0.862958,-1.020152
1008.089844,-9.095871,4.388794,-4.712533,-4.609176
1008.093750,-9.530952,-2.802124,-5.558448,-6.231030
1008.097656,2.209050,0.007917,5.945613,-4.717933
1008.101562,5.258004,2.179259,-3.061023,1.065849
1008.105469,0.019420,-0.054586,2.179525,0.454802
1008.109375,4.130542,6.659419,-0.263593,5.819366
1008.113281,3.898861,4.968131,0.912365,8.859817
1008.117188,7.962277,13.979976,6.160361,8.636104
1008.121094,2.427995,7.080556,1.329444,9.751039
1008.125000,8.130411,9.847761,10.090796,10.958695
1008.128906,5.124929,5.975955,8.192909,10.367671
1008.132812,12.063030,12.907642,6.818693,9.604400
1008.136719,11.079610,7.360763,2.867376,8.263969
1008.140625,10.789934,13.657965,-3.849120,1.418791
1008.144531,4.676665,5.545199,2.878060,7.447646
1008.148438,3.456920,-3.165936,-3.395405,5.730164
1008.152344,-8.632495,9.069784,-2.853895,-4.047774
1008.156250,1.188186,-0.347736,-8.619982,-0.606263
1008.160156,-9.233216,-5.326309,-3.142855,-4.470356
1008.164062,-12.683574,-8.872130,-6.340347,-13.195696
1008.167969,-11.920565,-10.870871,-5.828444,-6.654254
1008.171875,-17.858222,-11.414983,-8.951896,-12.185140
1008.175781,-12.342646,-7.553424,-11.388584,-7.604398
1008.179688,-11.002899,-7.525707,-9.411118,-11.079750
1008.183594,-8.678750,-11.137264,-3.757834,-13.400495
1008.187500,-7.042441,1.261309,-7.196610,-4.201877
1008.191406,-6.022233,-4.723675,-6.759287,-5.346834
1008.195312,-0.590754,-9.527775,-4.665522,6.707498
1008.199219,-7.673319,-0.225706,2.839635,3.817900
1008.203125,7.807076,-4.256701,1.213168,2.300776
1008.207031,2.682045,9.475156,6.979907,7.448207
1008.210938,4.511323,-3.503597,13.767095,1.092202
1008.214844,4.666554,8.775507,6.738901,13.609781
1008.218750,9.731756,2.639925,5.952421,8.905249
1008.222656,10.422516,12.021105,6.337768,7.798719
1008.226562,4.059210,5.488400,5.401983,19.439408
1008.230469,6.996571,5.954364,17.615235,15.001443
1008.234375,13.391135,9.901523,12.554927,5.791822
1008.238281,12.349006,6.461512,10.716475,8.454442
1008.242188,2.490349,10.007870,-4.200958,4.148515
1008.246094,5.937639,4.253297,-3.165614,1.481816
1008.250000,8.176667,3.114861,10.373482,1.532102
1008.253906,-1.803086,-8.777044,-7.067903,-5.227200
1008.257812,-8.900958,-4.405404,2.579083,-0.547485
1008.261719,-9.967273,-2.460872,-8.777078,-6.663270
1008.265625,-15.866117,-6.778227,-6.202214,-14.772229
1008.269531,-10.888469,-8.061243,-6.860618,-10.125616
1008.273438,-8.572382,-9.961747,-9.197441,-12.136534
1008.277344,-14.681395,-13.303215,-9.042991,-1.589690
1008.281250,-11.967771,-8.225694,-9.592922,-14.333280
1008.285156,-9.036003,-5.693420,-1.907105,0.704021
1008.289062,-10.115581,-4.880814,-6.474099,-7.277203
1008.292969,-0.333046,1.584725,-9.471550,-0.406356
1008.296875,-4.466964,-1.292516,-10.018042,2.181097
1008.300781,-0.016198,-0.764400,-2.383250,0.479111
1008.304688,2.324368,6.435642,2.267574,8.551108
1008.308594,4.718483,7.605422,6.455282,7.534536
1008.312500,7.314831,5.136039,12.642982,5.456990
1008.316406,0.795060,8.764973,9.712531,11.593759
1008.320312,9.444551,15.649689,8.384395,2.401860
1008.324219,10.509199,10.949144,6.082618,6.580189
1008.328125,11.915511,7.440348,11.009541,9.480109
1008.332031,14.056428,8.883048,11.644147,4.376673
1008.335938,6.578814,11.882709,11.511888,3.296658
1008.339844,4.809153,6.203146,5.883494,2.094427
1008.343750,9.130480,3.040107,3.343178,7.305876
1008.347656,4.134776,0.804196,6.037313,6.664005
1008.351562,0.834149,-6.063362,0.134631,-6.306523
1008.355469,-4.432074,-1.574727,-3.307963,-4.417607
1008.359375,2.188207,-1.759669,1.497186,-5.153253
1008.363281,-9.555637,-13.778204,-5.787920,-7.704480
1008.367188,-1.213247,-9.422232,-5.098728,-8.332029
1008.371094,-15.295913,-13.104747,-4.527573,-6.406158
1008.375000,-11.276984,-3.366776,-16.574447,-15.197157
1008.378906,-13.291527,-10.321579,-3.687371,-14.012352
1008.382812,-9.095444,-7.671207,-5.711817,-3.436434
1008.386719,-6.345933,-10.733440,-16.838581,-0.546836
1008.390625,-1.159362,-0.721920,-10.037877,0.226119
1008.394531,-1.308862,2.101522,-0.370142,-1.785444
1008.398438,4.332860,0.254204,-2.667265,0.494815
1008.402344,-3.601484,5.271328,-1.204964,5.725731
1008.406250,8.070046,2.670287,4.150329,5.294892
1008.410156,8.164182,2.049208,5.776247,10.350985
1008.414062,8.475652,12.518100,9.883816,6.511425
1008.417969,8.968369,-0.237061,5.529433,5.674495
1008.421875,9.837080,6.605891,10.934917,17.442569
1008.425781,16.844527,6.277393,16.193118,10.686690
1008.429688,6.788978,12.304623,7.630529,11.830831
1008.433594,11.871356,10.804388,8.109645,7.686371
1008.437500,8.131641,9.190575,8.118952,2.816191
1008.441406,6.205007,7.674052,2.349810,3.914721
1008.445312,2.074282,0.105810,6.954885,11.611391
1008.449219,0.002441,-3.819784,-6.441054,2.005519
1008.453125,1.873891,2.175603,-3.152244,-6.194349
1008.457031,-2.233278,-4.479256,-6.790632,-4.129865
1008.460938,-12.000195,-3.790183,0.075826,-3.364885
1008.464844,-14.128841,1.713163,-7.230064,-4.126437
1008.468750,-15.162256,-4.629488,-5.589920,-15.219108
1008.472656,-6.608459,-7.803593,-9.739667,-11.674685
1008.476562,-9.847687,-13.455711,-11.289554,-4.299831
1008.480469,-7.672892,-4.553162,-0.664689,-5.288327
1008.484375,-10.468167,-7.481404,-5.863159,-4.488562
1008.488281,-1.800381,-4.420087,-14.281939,-6.485825
1008.492188,0.745410,-3.859727,0.958253,-3.352013
1008.496094,-6.228013,-5.336394,1.174335,0.137078
1008.500000,-4.472242,5.993494,6.350748,1.765294
1008.503906,-6.573310,2.899014,8.305830,7.552413
1008.507812,8.437208,3.707021,1.342325,1.128711
1008.511719,6.146614,5.227979,9.098198,11.457443
1008.515625,7.001221,16.011808,5.491411,8.056835
1008.519531,15.816389,9.180330,10.197716,11.234887
1008.523438,3.336660,10.154987,8.984586,10.833793
1008.527344,11.868241,11.636386,16.970328,7.759317
1008.531250,10.607769,9.198465,12.285267,13.582921
1008.535156,4.856153,4.973809,6.454882,5.849902
1008.539062,9.396221,11.965109,1.012958,7.549617
1008.542969,1.177974,10.444832,1.014913,3.044500
1008.546875,9.233546,-0.215581,-0.221273,-3.901528
1008.550781,7.791801,-0.326153,-6.108331,-6.561219
1008.554688,-2.376528,-3.059879,0.010413,-5.588936
1008.558594,-8.296376,-5.178628,-1.862293,-7.686831
1008.562500,-8.670248,-1.034605,-11.819767,-6.944661
1008.566406,-17.553672,-7.693023,-6.189128,-8.792826
1008.570312,-3.950142,-3.798300,-6.806225,-5.931306
1008.574219,-8.884043,-10.637948,-5.044012,-2.059534
1008.578125,-6.816398,-13.200275,-10.437791,-11.144974
1008.582031,-10.583952,-1.042916,-4.270617,-6.226836
1008.585938,-10.011652,-9.576058,-7.329611,-10.576183
1008.589844,-4.999730,-3.437662,-7.777250,0.009446
1008.593750,-6.978341,-3.354318,-1.362375,-7.230450
1008.597656,3.109394,7.491512,-4.585983,-2.737926
1008.601562,-4.971315,-4.868758,-2.236050,0.699581
1008.605469,-0.574377,-0.586199,3.355094,6.293860
1008.609375,5.202682,6.264088,5.879544,10.259035
1008.613281,8.736869,6.680130,5.806073,9.282401
1008.617188,6.214889,14.098510,11.175586,5.037939
1008.621094,17.977323,10.852697,13.767398,6.525381
1008.625000,7.324015,7.906675,18.337260,6.943738
1008.628906,5.607614,6.181189,8.003683,14.027851
1008.632812,14.619278,9.670395,6.737988,11.242307
1008.636719,4.645954,3.244657,6.898035,11.771719
1008.640625,10.392269,5.001854,6.805234,13.479572
1008.644531,7.758974,-0.263791,4.063622,0.611483
1008.648438,-4.252299,3.851529,0.982161,0.066846
1008.652344,-3.353451,1.359618,-6.638425,0.513389
1008.656250,-6.947183,-0.066770,0.146068,-5.546109
1008.660156,-10.125473,-10.739909,-6.440669,-11.795030
1008.664062,-5.335240,-6.647063,-13.171643,-8.268489
1008.667969,-3.944835,-8.660306,-5.742755,-13.907549
1008.671875,-10.267013,-15.006221,-8.874750,-4.262893
1008.675781,-1.549189,-2.753464,-4.540918,-12.192499
1008.679688,-6.654571,-5.815900,-15.255793,-5.971517
1008.683594,-11.000478,-11.685464,0.200356,-10.246968
1008.687500,-8.601358,-4.093136,-15.649985,-7.412165
1008.691406,-2.562670,0.545411,-6.649933,-3.678545
1008.695312,5.780576,-1.883445,-4.558779,1.686634
1008.699219,-7.283477,-3.159409,-2.562191,0.109203
1008.703125,0.457842,2.788530,-1.534092,5.172288
1008.707031,3.829693,1.776435,8.730180,3.583279
1008.710938,7.895410,4.361824,8.902294,8.267998
1008.714844,2.361083,15.288232,3.989832,10.404533
1008.718750,19.971782,11.159151,7.742066,13.626720
1008.722656,19.484490,13.631073,6.606860,8.987356
1008.726562,13.600666,16.958045,11.959419,0.263817
1008.730469,11.062314,10.637340,12.067159,13.730179
1008.734375,9.701456,3.284574,8.856093,8.656456
1008.738281,12.752970,9.263843,12.390515,4.548498
1008.742188,8.827208,6.754296,8.080012,8.625626
1008.746094,6.649856,0.507618,0.005184,1.212624
1008.750000,-1.052796,-3.855651,4.250475,-3.393755
1008.753906,-4.071343,0.938686,-4.585389,-1.647694
1008.757812,-0.151372,-5.068503,-4.078965,-4.616689
1008.761719,-3.650751,-11.175890,0.926491,-7.153080
1008.765625,-6.680363,-16.350616,-4.537029,-7.286361
1008.769531,-6.480224,-12.201281,-7.713469,-9.024266
1008.773438,-12.948290,-14.023333,-10.193260,-10.273308
1008.777344,-11.256348,-8.744261,-12.709926,-9.850390
1008.781250,-7.445537,-10.207937,-12.796983,-12.167366
1008.785156,-7.553051,-11.279310,-10.090699,-10.353957
1008.789062,-1.836298,-10.411293,-12.163012,-7.085544
1008.792969,-1.696130,-9.123599,-4.828091,-12.884321
1008.796875,-13.698571,-2.752752,-8.538704,-1.978004
1008.800781,3.530743,-3.633215,0.127379,8.353492
1008.804688,8.580487,1.884760,6.116538,7.692978
1008.808594,6.862337,9.267528,8.049606,2.230406
1008.812500,15.653142,-0.800627,16.566596,4.306847
1008.816406,10.492355,6.127190,0.313530,11.003669
1008.820312,12.407420,6.684934,11.611410,13.716623
1008.824219,10.494457,13.285457,14.049879,7.900725
1008.828125,13.494165,7.025104,7.768138,4.268978
1008.832031,10.793513,5.766740,12.023530,8.388821
1008.835938,5.455867,6.414956,13.500337,5.653669
1008.839844,5.978542,7.410813,4.736665,8.323942
1008.843750,4.188809,-2.005349,11.317221,9.426979
1008.847656,-0.301865,-5.257938,-2.233042,-0.235473
1008.851562,-2.216288,1.645284,-1.819553,-1.084147
1008.855469,0.125020,-0.323132,-3.571772,-1.287213
1008.859375,-7.976075,-8.464678,-3.723424,-5.552493
1008.863281,-7.148797,-11.986509,-11.828067,3.389685
1008.867188,-14.602237,-8.351823,-9.231344,-12.817539
1008.871094,-8.633233,-8.393845,-9.126549,-14.762661
1008.875000,-6.328111,-7.965736,-12.757711,-8.581652
1008.878906,-13.829580,-5.762196,-8.332860,-10.556389
1008.882812,-4.965348,-13.875824,-11.092462,-12.474978
1008.886719,-1.097514,-2.974723,-2.416528,-10.349050
1008.890625,-7.391827,-3.473581,3.466337,-2.334596
1008.894531,-3.460432,-12.306967,-2.861764,2.244380
1008.898438,-2.493466,-5.754991,-0.456925,-5.413828
1008.902344,1.061808,-0.617993,4.651391,1.897167
1008.906250,9.856869,4.107562,3.849401,0.567436
1008.910156,0.758250,1.706060,2.193800,3.948913
1008.914062,6.130829,5.545080,10.021518,3.631237
1008.917969,7.012179,8.102284,11.275558,0.651607
1008.921875,7.736035,9.694230,12.231633,13.720500
1008.925781,9.830116,17.276135,14.226264,1.672501
1008.929688,12.696733,6.252072,10.142013,14.315164
1008.933594,12.378067,4.648487,12.572710,17.481658
1008.937500,14.057911,7.449920,7.281251,8.836032
1008.941406,2.474573,3.199638,6.408728,-1.503120
1008.945312,-6.453353,4.018040,8.458567,0.555151
1008.949219,1.789970,3.519539,-5.074632,-0.652756
1008.953125,-4.323171,2.403151,-1.101422,0.151331
1008.957031,-2.245359,-3.911778,-3.872965,-1.394199
1008.960938,-12.336312,0.350114,-12.939119,-10.835915
1008.964844,-3.200612,-9.242248,-8.576298,-7.481267
1008.968750,-11.943492,-11.746117,-9.333156,-17.293639
1008.972656,-11.956949,-12.585317,-13.204716,-10.588610
1008.976562,-10.454275,-6.545334,-9.131352,-5.709443
1008.980469,-12.174048,-15.165289,-5.849601,-5.726178
1008.984375,-9.440584,-6.577769,-2.734014,-5.959641
1008.988281,-11.593250,-5.614844,-11.613919,-6.825093
1008.992188,-1.899483,-6.278520,0.317697,-3.233911
1008.996094,-4.896060,-1.265980,-1.076885,2.561207
1009.000000,1.086960,-6.900995,6.133482,1.600445
1009.003906,0.959813,-1.821823,11.960476,5.617101
1009.007812,0.612733,4.362140,11.091761,6.113645
1009.011719,8.036310,6.026605,7.367911,8.752736
1009.015625,2.144764,8.445549,10.988421,8.274384
1009.019531,8.106318,20.450467,14.641402,12.488393
1009.023438,10.001831,13.349814,10.703789,11.494413
1009.027344,6.648750,12.246814,5.110501,7.687929
1009.031250,5.554400,11.625632,14.032608,11.575433
1009.035156,3.944329,9.552737,10.069660,4.119112
1009.039062,11.381523,5.276116,2.341530,7.155987
1009.042969,7.084560,2.452972,-0.235732,4.849392
1009.046875,2.651760,2.119811,0.799138,-0.648936
1009.050781,-1.484109,-6.179137,0.859034,1.680013
1009.054688,-6.956140,-0.135486,-0.579449,-9.294986
1009.058594,-2.999871,-12.417721,-7.178343,-7.652786
1009.062500,-11.008721,-7.810429,-9.920569,0.228854
1009.066406,-6.193089,-4.064931,-8.513322,-7.982133
1009.070312,-10.599964,-13.834496,-8.070464,-11.651468
1009.074219,-8.045341,-7.470294,-8.732470,-4.584782
1009.078125,-10.801734,-7.330306,-11.007360,-4.551330
1009.082031,-7.286110,-9.464068,-8.608910,0.910672
1009.085938,-6.193591,-5.269753,-3.426806,-2.399323
1009.089844,-5.025326,-8.862860,-2.709443,-5.449803
1009.093750,-2.542098,-3.053170,-4.158192,-0.988874
1009.097656,0.162719,2.036996,-3.503831,-1.190737
1009.101562,0.811832,-0.857596,11.043807,-11.307757
1009.105469,7.579655,8.684273,4.372446,3.597714
1009.109375,-3.889619,1.299653,9.889101,-2.422901
1009.113281,10.877034,8.369810,4.462923,9.542898
1009.117188,12.923573,0.964919,2.975333,3.026549
1009.121094,0.245198,10.581507,12.495126,17.033336
1009.125000,9.729391,13.637342,10.571902,10.575879
1009.128906,13.375454,7.063366,2.693312,14.690912
1009.132812,12.253903,6.159939,5.166378,1.092707
1009.136719,5.079381,3.408084,8.693230,9.641982
1009.140625,10.593599,4.843155,8.030629,9.547345
1009.144531,4.131798,-0.929665,-2.237816,-4.470016
1009.148438,3.646119,-0.013085,-1.024496,3.031983
1009.152344,-1.515589,-2.606569,3.257308,-1.778653
1009.156250,0.469440,5.491573,2.547430,-6.190779
1009.160156,-17.765597,-8.774350,-3.520715,-5.190443
1009.164062,-11.110656,-6.158517,-3.876537,-3.311317
1009.167969,-2.883662,-6.803331,-13.047683,-5.362205
1009.171875,-7.630957,-13.052482,-8.855031,-5.089484
1009.175781,-5.013441,-6.277363,-19.470296,-13.170408
1009.179688,-11.657556,-14.764922,-17.682328,-10.062505
1009.183594,-2.966847,-9.979841,-12.618258,-7.927130
1009.187500,-10.572463,-6.654436,-8.663314,-8.066280
1009.191406,-5.873386,-3.344399,-0.417458,-9.759519
