timestamp,TP9,AF7,AF8,TP10
1000.000000,5.795292,6.757599,4.845960,-5.600618
1000.003906,4.579119,-2.102063,4.262525,3.560415
1000.007812,2.393472,6.312314,5.162490,5.586937
1000.011719,2.619931,6.014247,1.526791,13.812187
1000.015625,12.358089,7.365391,7.031005,10.626246
1000.019531,10.835584,1.467379,4.169458,11.805545
1000.023438,11.547896,12.914922,7.782709,9.255654
1000.027344,19.158491,13.222778,15.185936,7.564611
1000.031250,8.559737,11.687985,8.327923,9.196083
1000.035156,16.003982,2.628265,9.594185,-1.934283
1000.039062,3.409727,-1.689683,9.717123,7.741991
1000.042969,3.181886,-2.400250,4.626178,7.495065
1000.046875,7.553011,3.012740,2.237324,7.934048
1000.050781,6.440462,-2.177504,4.840199,1.230781
1000.054688,-2.674124,3.490286,-1.436250,-2.554765
1000.058594,-6.372211,-0.496236,-5.277492,-3.916784
1000.062500,-9.731163,-3.226500,-2.149578,-10.000350
1000.066406,-3.436541,-5.122551,-5.241322,-5.894053
1000.070312,-7.694981,-15.030253,-11.619255,-14.245194
1000.074219,-7.380918,-17.519085,-8.942016,-6.906632
1000.078125,-13.297472,-18.025709,0.055963,-5.700326
1000.082031,-1.050444,-7.280801,-10.570505,-3.492080
1000.085938,-6.884680,-0.647068,-7.635586,-7.126739
1000.089844,-7.713912,-3.299853,-6.814348,-1.950812
1000.093750,0.418731,-0.913525,-10.815010,-7.836044
1000.097656,-1.705878,-0.582903,4.435142,-5.084840
1000.101562,2.959640,1.338700,2.752967,-1.095315
1000.105469,4.505534,5.262436,1.078320,7.655389
1000.109375,1.837052,8.119613,10.309830,8.868869
1000.113281,8.195163,8.903973,6.794315,3.259042
1000.117188,7.924024,13.632803,8.750322,15.139159
1000.121094,4.404181,11.128793,5.219122,12.586662
1000.125000,12.539253,7.340270,14.518284,18.231619
1000.128906,9.418373,5.446584,11.822228,16.131734
1000.132812,9.602873,13.555075,8.520958,7.977823
1000.136719,2.115408,2.857830,9.134665,3.137738
1000.140625,6.810436,9.948614,7.941871,7.929594
1000.144531,3.474472,2.713541,7.703762,8.174185
1000.148438,-0.191342,8.808937,1.946910,0.878285
1000.152344,1.831409,6.764773,3.852513,-1.249137
1000.156250,2.498308,5.912021,-3.365472,-15.586669
1000.160156,-11.799853,-8.552702,-1.213491,-9.200283
1000.164062,-9.316110,-8.146263,-13.738167,-2.717426
1000.167969,-10.666472,-8.006571,-5.220264,-5.894322
1000.171875,-8.844415,-9.395620,-9.017357,-4.104465
1000.175781,-8.165013,-7.296894,-7.311381,-11.194837
1000.179688,-5.253748,-14.246575,-11.575630,-9.312912
1000.183594,-18.346349,-8.642041,-1.458017,-11.587464
1000.187500,-10.330941,-11.388431,-2.883204,-10.539146
1000.191406,-5.483281,-3.508750,-10.862371,0.465054
1000.195312,1.301408,2.217387,2.126834,-1.193657
1000.199219,-1.807927,-2.674462,-5.027408,3.291720
1000.203125,2.712726,-0.120050,-3.547760,-1.486016
1000.207031,3.461806,-3.156193,-4.534379,8.338945
1000.210938,5.362511,6.235072,5.099585,2.332602
1000.214844,11.871125,6.685676,5.825433,4.716367
1000.218750,5.589593,12.269841,7.519629,8.925452
1000.222656,9.926671,5.070175,13.494371,8.648160
1000.226562,9.895098,11.293928,11.329197,10.809454
1000.230469,16.124746,6.896543,5.263867,9.651552
1000.234375,10.631688,9.912779,12.949865,10.016517
1000.238281,2.869840,13.527458,7.663725,7.311015
1000.242188,-0.203337,10.081826,3.858861,6.504836
1000.246094,4.876812,6.792718,-4.964397,7.236116
1000.250000,-4.052290,-0.919016,-1.626765,3.064171
1000.253906,-1.768218,1.276041,0.002465,0.657230
1000.257812,-0.711209,-5.487890,-9.570214,-11.522517
1000.261719,-3.406270,-6.918858,-8.927594,-8.224836
1000.265625,-7.364268,-4.491973,-7.154255,-3.668897
1000.269531,-13.537646,-13.846531,-6.471282,-6.934061
1000.273438,-5.200966,-13.257684,-16.183747,-11.527297
1000.277344,-12.011513,-8.304740,-19.179960,-13.196934
1000.281250,-10.844612,-14.326454,-7.268928,-6.907575
1000.285156,-12.283528,-11.102397,-3.853437,-4.945994
1000.289062,-3.904298,-1.846024,-1.489646,-7.968638
1000.292969,-1.352201,-3.304136,-4.176161,-7.999389
1000.296875,-3.270808,-1.434352,-0.192805,-5.900311
1000.300781,0.627107,-1.360455,6.619283,1.320342
1000.304688,-1.891390,4.485249,0.886237,4.674591
1000.308594,6.641932,7.130557,8.404745,8.579286
1000.312500,12.765113,9.490346,9.246717,3.060107
1000.316406,7.068756,5.291787,13.508524,6.284621
1000.320312,9.470000,12.884394,10.897277,13.274187
1000.324219,14.120471,7.369754,14.213535,5.898246
1000.328125,7.939056,20.789191,15.850137,5.323691
1000.332031,9.677416,8.820198,3.539042,11.382943
1000.335938,5.949775,11.139701,11.748218,11.979959
1000.339844,1.302150,6.612971,8.907577,6.272850
1000.343750,7.256225,8.174016,0.794270,4.098527
1000.347656,0.814395,1.279641,0.220644,3.024430
1000.351562,5.660689,0.691235,1.833864,-2.458417
1000.355469,-6.303688,2.157725,-6.453058,-4.053140
1000.359375,-1.330967,-10.957365,-0.347492,-8.960632
1000.363281,-9.735399,-2.041762,-9.282165,-2.355572
1000.367188,-8.076896,-6.511088,-16.617460,-10.458953
1000.371094,-10.097683,-13.601126,-7.350990,-3.888057
1000.375000,-7.559293,-11.374951,-8.893489,-12.103255
1000.378906,-4.902628,-15.289600,-6.976059,-12.713050
1000.382812,-6.254013,-22.616969,-10.133471,-5.087216
1000.386719,-9.054834,-7.241857,-10.414595,-4.874724
1000.390625,-1.162789,-12.602311,-9.432751,-11.338832
1000.394531,2.923622,-7.155827,-3.584500,-1.273884
1000.398438,-7.147864,-10.562026,-5.510838,1.699999
1000.402344,9.816679,-0.178280,2.489518,4.548066
1000.406250,7.335439,-2.927166,-1.390700,3.751886
1000.410156,4.578755,4.897470,8.270829,7.151023
1000.414062,15.217908,7.652591,8.646571,11.227072
1000.417969,6.728856,10.280192,2.062601,7.828470
1000.421875,6.401368,10.517634,8.724130,2.730298
1000.425781,14.399429,8.853022,14.913696,3.851212
1000.429688,1.812661,17.786639,9.921966,10.378703
1000.433594,8.270119,5.664073,5.545027,10.894139
1000.437500,4.211017,6.264759,13.287943,4.399402
1000.441406,2.882988,9.074765,10.347905,4.140880
1000.445312,5.016294,5.607459,5.882521,1.965938
1000.449219,0.988887,4.553327,5.397457,1.144493
1000.453125,-0.511689,-1.485820,4.243459,-9.486938
1000.457031,1.901257,-6.077039,0.051055,-9.877281
1000.460938,-0.448566,-0.898128,-8.807554,-12.650585
1000.464844,-11.157282,-5.968572,-8.023597,-8.871491
1000.468750,-7.883488,-15.175779,-7.470211,-13.560037
1000.472656,-18.060099,-13.502695,-4.498795,-7.676316
1000.476562,-20.012697,-11.088688,-11.363669,-7.756426
1000.480469,-7.444078,-10.068867,-11.214961,-4.505772
1000.484375,-9.959782,-6.728763,-5.568735,-5.142728
1000.488281,-11.271549,-4.670694,-10.336245,-6.918433
1000.492188,-4.183360,-6.917159,-13.105401,-6.206682
1000.496094,2.454406,-6.558846,0.034101,0.673054
1000.500000,-3.257111,-3.101338,-5.099235,-0.781329
1000.503906,-1.979986,-0.777162,0.925491,3.167239
1000.507812,4.419601,7.129357,-1.480411,-3.565536
1000.511719,11.995994,-2.680368,9.388814,8.235370
1000.515625,5.154640,12.435535,3.337229,4.838508
1000.519531,12.226478,5.984847,10.174038,6.685637
1000.523438,8.482480,21.336271,3.825955,7.256075
1000.527344,10.815702,15.123260,9.562657,9.382310
1000.531250,6.813943,13.393079,9.562538,6.780744
1000.535156,9.029325,0.281163,3.041690,5.956917
1000.539062,3.668818,6.288974,12.322582,6.011595
1000.542969,-2.457766,-2.888759,8.107099,10.386045
1000.546875,-4.659338,4.600700,5.390780,4.057701
1000.550781,-5.415560,-2.010801,-4.077736,0.848236
1000.554688,-0.012826,-3.970187,-8.098643,-5.399699
1000.558594,-10.140021,-1.864777,-1.318911,-8.544416
1000.562500,-9.772543,-4.958471,-11.945425,-8.846938
1000.566406,-6.185974,-6.654485,-5.958464,-11.812583
1000.570312,-7.790863,-13.812149,-4.431696,-17.957351
1000.574219,-12.736479,-7.995624,-14.624482,-13.572373
1000.578125,-10.316793,-4.633878,-3.190683,-8.391665
1000.582031,-6.205082,-9.861219,-8.674205,-7.907089
1000.585938,-11.953502,-5.193130,-7.215780,-4.086706
1000.589844,-8.594620,-8.719411,-6.774011,-0.069855
1000.593750,3.731384,3.969716,-6.464455,0.967430
1000.597656,3.282156,-0.633707,0.386753,3.565039
1000.601562,-1.467103,-1.661188,0.355010,2.197747
1000.605469,3.609715,6.848914,4.556317,4.496201
1000.609375,3.610698,15.092549,6.295202,4.771221
1000.613281,-0.973334,2.113860,9.558927,6.598929
1000.617188,-0.975867,10.082590,10.918344,0.514188
1000.621094,9.538800,17.323383,14.361788,15.042749
1000.625000,11.601992,16.606538,3.695334,11.591181
1000.628906,12.698982,9.442623,4.479998,11.394168
1000.632812,9.868821,9.090363,10.963784,9.742711
1000.636719,6.994646,5.144149,11.613654,2.876754
1000.640625,3.074504,5.071632,4.208316,-0.213112
1000.644531,1.346171,8.652160,-2.171392,4.059541
1000.648438,1.484467,-2.781739,-2.490335,4.734800
1000.652344,-2.913949,0.226453,3.945547,-3.217199
1000.656250,4.235933,-2.089653,-8.341368,-2.066143
1000.660156,-10.249933,-1.653411,-6.106788,-9.869142
1000.664062,-10.255903,-6.974071,-7.780598,-3.721099
1000.667969,-11.113737,-7.382764,-7.253613,-10.415207
1000.671875,-12.381497,-7.755703,-8.563597,-6.725871
1000.675781,-17.298076,-7.760422,-8.754028,-11.381418
1000.679688,-23.680283,-12.259587,-7.347555,-12.017193
1000.683594,-8.476831,-9.889059,-8.713784,-6.262729
1000.687500,-8.046145,-11.471976,-11.218802,-6.620861
1000.691406,-1.106980,-9.329950,-3.881998,-5.779442
1000.695312,-1.254244,-7.105079,-3.815254,-11.292740
1000.699219,4.953815,8.007380,0.247952,-1.464077
1000.703125,4.715299,1.950148,-0.755772,3.278812
1000.707031,8.673527,7.621214,4.327168,3.214018
1000.710938,4.282533,4.633045,6.251962,5.801044
1000.714844,6.281439,14.849823,12.883456,13.454141
1000.718750,12.442014,12.498727,4.258548,4.909732
1000.722656,3.918247,14.421998,17.409530,11.613481
1000.726562,4.885739,10.084870,9.379565,6.884322
1000.730469,11.365590,14.254010,4.391151,8.654843
1000.734375,5.082799,11.099270,5.743662,3.326960
1000.738281,4.923250,9.982672,5.911941,8.094400
1000.742188,2.099669,4.819912,3.615161,-2.734758
1000.746094,1.040515,0.757360,3.659340,7.691788
1000.750000,0.878495,1.918087,-0.882955,0.930165
1000.753906,-3.048650,-3.705636,0.808739,-5.059947
1000.757812,-5.640725,-11.240064,4.225039,-6.388252
1000.761719,-7.933037,-5.255433,-3.907551,-6.100395
1000.765625,-7.895613,0.792070,-7.594012,-4.373366
1000.769531,-10.085634,-10.762356,-4.498099,-5.422559
1000.773438,-8.837937,-8.919781,-13.578683,-15.595001
1000.777344,-13.488764,-9.519045,-10.821995,-7.638921
1000.781250,-8.610979,-14.347602,-4.192256,-10.944166
1000.785156,-7.709271,-5.867347,-3.938005,-7.615390
1000.789062,-5.194570,-10.348225,-8.127158,-1.323983
1000.792969,-4.014975,-2.840411,-7.781578,-8.026997
1000.796875,-2.100570,-3.175484,-2.217187,-3.745225
1000.800781,-1.901829,-2.240800,-5.898999,-3.822849
1000.804688,2.568861,1.632249,4.235649,3.301894
1000.808594,4.553304,3.766530,11.129102,2.739833
1000.812500,2.633258,6.542407,10.575559,12.729605
1000.816406,7.457705,12.397905,9.844925,7.446423
1000.820312,9.390309,6.045199,13.210169,9.525650
1000.824219,3.230908,6.670847,12.511127,8.011376
1000.828125,11.681750,7.115388,16.091322,2.203987
1000.832031,10.616012,11.396684,9.170149,7.625873
1000.835938,8.695393,5.886481,10.142688,13.832344
1000.839844,3.994310,3.645922,9.152670,-1.499077
1000.843750,0.889659,6.394794,3.864218,7.018286
1000.847656,1.942351,-1.499812,2.059417,0.438173
1000.851562,-2.934472,-3.428018,-7.033545,-0.579033
1000.855469,-2.476378,-7.652871,-5.384148,-1.205410
1000.859375,-10.949307,-12.212352,-9.159667,1.449978
1000.863281,-4.732882,-8.430031,-3.149822,-2.925487
1000.867188,-8.655803,-8.766505,-11.516448,-8.388930
1000.871094,-1.588327,-6.821070,-9.805318,-11.231201
1000.875000,-7.441479,-2.099564,-8.287959,-7.499440
1000.878906,-6.610370,-4.621160,-8.755458,-15.179078
1000.882812,-4.894455,-13.533315,-14.565130,-10.297931
1000.886719,-2.905717,-11.851346,-12.747403,-5.794881
1000.890625,-11.002029,-1.586467,-2.899688,-8.748141
1000.894531,-4.170092,-3.082162,5.957286,-0.609991
1000.898438,4.020024,-4.690726,0.680412,-5.605553
1000.902344,4.482001,3.713955,-1.530653,1.458832
1000.906250,1.502936,5.053068,3.267039,4.429536
1000.910156,11.983196,7.743499,-3.668687,1.924470
1000.914062,6.118636,0.067050,12.773924,6.708671
1000.917969,11.348080,9.307058,10.011520,8.956662
1000.921875,12.219760,14.069789,17.860266,9.937944
1000.925781,15.264886,15.921548,14.469619,10.864004
1000.929688,6.626279,9.719412,5.525930,7.909716
1000.933594,9.433286,8.930400,11.738705,7.540560
1000.937500,0.190434,-2.325148,10.825233,11.780142
1000.941406,6.396072,-1.817463,2.311052,9.309143
1000.945312,3.203885,6.764812,3.270188,8.679540
1000.949219,6.019989,5.499612,-0.718735,-6.274817
1000.953125,-4.511829,-5.384453,-6.678982,-8.474722
1000.957031,-5.691351,-5.307660,-4.650960,-2.707141
1000.960938,-13.889344,-8.973093,-4.265441,-0.258118
1000.964844,-14.061304,-1.100496,-15.080167,-7.715228
1000.968750,0.586399,-13.630681,-10.746676,-8.781194
1000.972656,-13.243037,-8.191116,-8.536658,-14.746093
1000.976562,-15.379633,-4.846855,-17.572039,1.351150
1000.980469,-1.094585,-12.901342,-10.059144,-12.539306
1000.984375,-3.638405,-10.397436,-10.282282,-19.574937
1000.988281,-6.638984,-9.989053,-2.039080,-10.402671
1000.992188,-2.438020,-4.966478,-2.707940,-1.034409
1000.996094,1.382043,-5.344121,-10.795592,-10.203905
1001.000000,-4.504900,-0.136779,1.309681,3.427395
1001.003906,2.862481,3.084038,9.145624,3.861505
1001.007812,4.820568,4.679983,5.136738,-3.348184
1001.011719,5.688355,15.424651,7.790658,5.030600
1001.015625,9.198408,9.946583,11.096905,6.536968
1001.019531,12.320174,9.157919,10.821278,10.611533
1001.023438,6.181759,12.865406,6.886917,3.080953
1001.027344,8.288254,10.208777,5.931268,13.207716
1001.031250,13.469162,11.868187,3.907073,15.816420
1001.035156,11.088114,5.782848,14.912296,7.675878
1001.039062,5.307519,7.622134,7.033101,-0.251669
1001.042969,0.817376,4.668962,2.436780,-3.874272
1001.046875,2.844094,-2.877191,-3.085898,-0.129592
1001.050781,2.030640,-1.327041,-8.729758,-3.688918
1001.054688,-2.241757,1.108587,3.392678,-3.658034
1001.058594,0.640318,-3.124314,-2.963999,-1.846532
1001.062500,-9.958545,-9.992104,-13.499894,-4.972985
1001.066406,-8.990946,-2.939557,-11.706201,-2.945633
1001.070312,-11.018026,-3.993823,-3.294861,-13.963932
1001.074219,-14.101821,-5.972393,-10.105852,-17.051842
1001.078125,-18.616510,-7.472928,-7.513351,-0.048057
1001.082031,-2.961534,-11.092168,-8.604891,-4.296476
1001.085938,-11.962224,-10.113538,-10.414612,-5.061390
1001.089844,-9.245580,-4.022710,-0.848147,-0.076218
1001.093750,-5.012662,-4.887932,-7.836631,-2.319670
1001.097656,1.382355,-3.358019,-5.493375,0.596632
1001.101562,1.010347,-8.155050,1.600363,2.260441
1001.105469,4.614680,9.408807,2.371280,7.458680
1001.109375,7.233542,6.610407,7.453254,3.927764
1001.113281,11.761716,2.949336,7.320721,13.418114
1001.117188,3.737232,3.769564,8.999728,5.341800
1001.121094,4.004188,6.382155,8.668201,5.666496
1001.125000,7.251614,5.649076,5.959483,10.711266
1001.128906,10.540047,8.254435,3.034066,8.458131
1001.132812,10.991570,11.821283,10.190936,14.515548
1001.136719,0.078059,4.013303,6.620089,0.212335
1001.140625,-1.186496,5.350804,6.099409,12.041793
1001.144531,6.586186,5.076294,0.032263,5.199833
1001.148438,1.735994,3.603356,-1.734123,-2.365372
1001.152344,-5.145513,-4.340699,2.110018,2.575530
1001.156250,-1.561654,-0.847291,-6.008853,-3.258793
1001.160156,-0.760074,-7.852677,-4.342044,-7.169908
1001.164062,-5.812228,-1.589304,-11.067005,-7.666441
1001.167969,-5.158699,-13.509384,-3.947577,-7.446588
1001.171875,-11.351553,-8.801424,-13.889067,-5.173326
1001.175781,-4.795400,-11.167533,-12.534002,-8.599408
1001.179688,-13.480704,-6.843674,-9.963338,-11.742348
1001.183594,-12.168900,-5.995993,-2.395887,-10.837617
1001.187500,-3.264195,-3.242692,-7.906099,-11.099806
1001.191406,-7.388227,-5.671398,-10.131877,-7.530763
1001.195312,-1.855579,0.758618,-7.517548,5.440908
1001.199219,-7.310363,1.725733,-6.637960,2.436670
1001.203125,-0.043476,2.081199,4.978817,13.432045
1001.207031,7.579727,7.392232,6.441184,2.425892
1001.210938,7.128763,4.827528,11.237181,12.430441
1001.214844,6.966902,0.658217,9.769474,9.458609
1001.218750,12.835800,11.353009,5.269624,14.518663
1001.222656,9.877815,7.841123,11.653844,8.351479
1001.226562,10.293469,5.735634,14.376421,14.132123
1001.230469,18.177535,9.564049,7.401041,11.629776
1001.234375,3.271916,14.745163,12.760958,7.148558
1001.238281,9.914800,0.760744,4.131096,14.048250
1001.242188,1.464855,2.776167,-0.460797,2.331106
1001.246094,5.609141,2.982897,9.976468,6.623173
1001.250000,-7.910090,-4.497724,-4.151283,1.320900
1001.253906,-3.473682,-3.938808,-4.458540,-2.259134
1001.257812,-0.726926,-7.577885,-2.410514,-7.310911
1001.261719,-11.049258,-2.943216,-9.921208,-12.511442
1001.265625,-3.570040,-7.676256,-5.091375,-12.861029
1001.269531,-5.505086,-14.556919,-2.917263,-10.846450
1001.273438,-12.945184,-9.777380,-12.544272,-10.603231
1001.277344,-17.458084,-12.743755,-12.568934,-11.565985
1001.281250,-14.907518,-6.111245,-4.419295,-2.451918
1001.285156,-15.745600,-8.048291,-8.365783,-11.740867
1001.289062,-5.357166,-7.102283,-6.721410,-5.279987
1001.292969,-2.276674,-6.997931,-4.337368,-10.863852
1001.296875,-3.904805,-1.558973,0.584952,-5.077989
1001.300781,-1.059396,5.720788,-1.367382,-0.841277
1001.304688,4.480542,-0.585296,3.374829,5.909365
1001.308594,-3.204511,6.614327,7.727507,8.909988
1001.312500,11.408424,5.643307,8.346046,3.807647
1001.316406,4.624026,4.947106,9.219719,9.913194
1001.320312,7.706959,12.989126,9.667451,11.632495
1001.324219,9.104801,8.026012,9.416447,9.582844
1001.328125,5.551608,12.161570,5.980302,10.206797
1001.332031,9.927792,9.146898,8.985252,11.070317
1001.335938,6.198337,3.085062,6.420541,15.333827
1001.339844,5.796647,-2.002880,7.562409,6.088177
1001.343750,1.412205,8.112545,-1.103286,-1.123384
1001.347656,5.187376,3.675987,8.065186,1.530546
1001.351562,-2.812781,3.519907,0.772084,2.997343
1001.355469,-3.043940,-2.944771,-8.224495,-3.816716
1001.359375,-5.372502,-10.609607,-5.212065,-9.585022
1001.363281,0.238757,-9.400800,-14.318041,-5.432806
1001.367188,-10.422925,-9.838419,-9.444333,-5.502523
1001.371094,-18.628036,-6.175999,-9.925093,-6.340776
1001.375000,-10.408347,-14.541524,-10.206684,-13.196014
1001.378906,-16.035713,-15.489020,-11.148234,2.617407
1001.382812,-10.518599,-9.426283,-9.418910,-7.969259
1001.386719,-13.618390,-10.672421,1.892720,-9.886862
1001.390625,-2.896059,-5.226706,1.356503,-10.280546
1001.394531,-8.684474,-5.069404,-0.127003,-1.877974
1001.398438,-8.196182,1.231216,-5.433609,1.375954
1001.402344,1.198139,1.840797,-1.386365,4.004775
1001.406250,8.091665,8.386206,5.545863,0.580788
1001.410156,4.870029,6.790504,8.467583,10.998005
1001.414062,7.859935,12.953889,11.225753,6.724661
1001.417969,10.632431,15.989907,6.751733,5.995814
1001.421875,10.919526,3.568925,13.340472,14.991915
1001.425781,5.217797,5.800951,2.741702,8.875764
1001.429688,10.484273,11.045857,12.372295,7.769003
1001.433594,4.202208,2.069414,4.085788,10.312464
1001.437500,5.947573,9.160645,8.901683,10.774212
1001.441406,8.891096,9.687072,1.322150,10.000021
1001.445312,2.224051,1.347023,4.884604,-0.224115
1001.449219,3.976020,-6.104655,-3.854497,3.895083
1001.453125,5.441254,-7.053032,0.858243,-2.233120
1001.457031,-4.325903,-4.833982,-2.360287,2.762138
1001.460938,-6.755643,4.319906,-10.815575,-2.168385
1001.464844,-10.787926,-4.861617,-6.848857,-1.882733
1001.468750,-10.541394,-6.278172,-8.240473,-12.871311
1001.472656,-7.664571,-13.231091,-5.807988,-9.792061
1001.476562,-10.556337,-8.531838,-12.088379,-14.108714
1001.480469,-15.377185,-14.908739,-9.269094,-8.611451
1001.484375,-13.445623,-3.821690,-7.080754,-10.671636
1001.488281,-10.886273,-3.091093,-4.922716,-6.861770
1001.492188,-3.358369,-7.082310,1.641891,-0.716825
1001.496094,-1.930939,-0.862493,-4.177890,-9.845886
1001.500000,-5.329740,-0.844151,-0.571191,-4.665127
1001.503906,-4.233863,-1.534016,7.267641,5.187775
1001.507812,6.117388,1.767511,1.735006,2.780007
1001.511719,6.359713,1.529731,12.204090,8.493093
1001.515625,4.184121,5.783684,7.922833,18.745955
1001.519531,7.367783,10.679832,7.378587,10.334584
1001.523438,10.198573,9.743186,9.013334,16.201340
1001.527344,9.821323,4.978004,5.516741,17.985199
1001.531250,10.902278,13.089054,5.492886,8.176812
1001.535156,2.282236,1.636970,-0.206097,4.205090
1001.539062,3.866127,4.061414,8.768602,9.378214
1001.542969,9.292795,8.588031,-0.909937,0.055211
1001.546875,8.230937,-3.424924,-1.038049,7.627445
1001.550781,13.471733,-1.021227,-6.743945,1.983912
1001.554688,-4.802824,0.882309,-8.293557,-2.522362
1001.558594,-3.963709,-3.034427,-11.328312,-1.285910
1001.562500,-5.858694,-4.610552,-8.089354,5.170681
1001.566406,-10.670753,-7.925704,-8.538568,-9.672351
1001.570312,-6.347662,-8.107862,-10.399079,-5.672491
1001.574219,-9.774973,-9.204353,-7.383356,-8.702618
1001.578125,-12.440942,-5.075957,-5.389588,-19.035295
1001.582031,-15.669641,-16.663688,-5.465434,-12.099195
1001.585938,2.969677,-15.329509,-8.875702,-6.882874
1001.589844,-1.590337,-4.256554,-7.296807,-5.606980
1001.593750,-4.064131,-4.091431,-8.896745,-9.591231
1001.597656,-3.970793,2.075724,-6.198166,-3.886014
1001.601562,-0.908079,1.032632,-1.025790,-4.752443
1001.605469,3.082460,2.385295,5.133146,3.724634
1001.609375,9.475517,-1.431555,4.589063,6.778030
1001.613281,13.354072,4.868623,5.748405,8.597819
1001.617188,9.373574,7.131557,9.958949,5.588000
1001.621094,7.974608,13.170883,10.727680,12.720425
1001.625000,18.134784,12.496412,14.733243,11.856351
1001.628906,10.553855,6.387666,4.084955,14.442360
1001.632812,7.987870,6.072912,4.766113,0.576493
1001.636719,15.073181,5.826390,8.315282,3.447455
1001.640625,1.698039,6.974090,13.372242,3.935246
1001.644531,2.943176,3.426786,-3.167520,4.136612
1001.648438,-3.434799,2.986609,-0.483623,-1.349178
1001.652344,-1.319176,2.757463,-2.055527,-2.341856
1001.656250,-6.542731,-7.168465,-10.924961,3.933119
1001.660156,3.019417,0.438180,-6.248061,-5.823399
1001.664062,-4.960564,-2.288137,-6.945819,-5.623903
1001.667969,-3.988764,-7.555575,-11.341929,-8.518048
1001.671875,-2.838631,-11.396904,-10.477691,-14.118719
1001.675781,-1.905358,-6.875528,-9.117906,-7.816795
1001.679688,-7.760821,-14.809517,-11.523222,-13.940191
1001.683594,-4.500506,-13.633978,-10.695837,-10.104675
1001.687500,-12.158647,-13.160856,-10.955383,-6.795587
1001.691406,-8.467925,-9.259548,-10.391019,-8.020036
1001.695312,-9.288747,-4.753929,-6.133602,-7.482992
1001.699219,4.472561,1.344217,-4.216819,3.934508
1001.703125,1.690035,4.080249,8.977860,-2.316694
1001.707031,5.244136,7.477271,4.178946,8.395623
1001.710938,4.698150,10.112640,3.861279,10.655947
1001.714844,3.178555,6.503796,7.702418,4.839707
1001.718750,16.529609,2.921103,7.466201,19.895696
1001.722656,11.843832,13.741948,11.615522,9.565155
1001.726562,4.602630,5.410247,0.293340,7.721457
1001.730469,7.201748,8.852987,11.261759,10.637069
1001.734375,10.700682,2.317885,9.109738,10.409466
1001.738281,8.428394,3.465019,7.792840,2.567655
1001.742188,0.162789,-1.186745,3.455465,0.848181
1001.746094,7.358335,4.542090,6.323218,5.296851
1001.750000,-0.712684,1.424819,-5.877635,-0.316004
1001.753906,3.677663,4.252133,-0.614609,-5.069496
1001.757812,-3.972489,-8.227316,-5.371403,-15.448567
1001.761719,-3.884766,-6.172194,-9.342495,-7.808699
1001.765625,-12.861139,-9.384045,-10.323375,-8.846878
1001.769531,-9.058364,-8.345940,-6.153448,-8.952305
1001.773438,-6.437900,-8.101076,-7.124891,-8.418769
1001.777344,-8.062471,-6.389767,-10.580997,-9.157149
1001.781250,-7.807714,-6.395920,-13.167919,-7.717654
1001.785156,-13.331990,-6.689826,-7.912769,-5.541054
1001.789062,-12.008437,-8.634451,-8.667976,-4.415609
1001.792969,-12.738492,-1.219351,-3.203180,-6.153885
1001.796875,-2.020201,1.298705,-2.573312,-5.932003
1001.800781,1.700414,-5.108788,3.732839,1.491962
1001.804688,2.404572,3.217525,0.594183,4.637299
1001.808594,9.151269,14.537316,-1.647069,2.107082
1001.812500,11.562096,7.227393,4.010850,11.865213
1001.816406,4.612584,1.319996,2.383113,6.520942
1001.820312,11.029375,14.602829,12.749445,1.226868
1001.824219,14.067661,5.114445,11.748452,8.789270
1001.828125,10.119057,11.310463,9.327942,10.469013
1001.832031,6.402861,2.410006,6.084883,12.167447
1001.835938,9.440136,13.320555,6.730667,-2.935877
1001.839844,11.840526,8.446463,7.216790,8.608955
1001.843750,-0.511674,12.558094,3.546874,-1.790597
1001.847656,-0.698498,4.644237,4.780825,1.775190
1001.851562,-3.796175,2.258654,3.113865,-6.533474
1001.855469,-1.422083,-3.727771,1.080675,10.383660
1001.859375,-12.634701,-4.956750,-2.766469,-13.440766
1001.863281,-0.893240,-9.527921,-6.676055,-10.812691
1001.867188,-8.285704,-8.106320,-9.021477,-4.545621
1001.871094,-8.229499,-6.720027,-2.442099,-10.076030
1001.875000,-5.970392,-7.672758,-16.488220,-8.105061
1001.878906,-11.265874,-7.216110,-2.800765,-12.517454
1001.882812,-7.086058,-8.182668,-14.776238,-9.224364
1001.886719,-9.036010,-7.251880,-9.770387,-13.893369
1001.890625,-0.392883,-4.621749,0.904823,-6.395538
1001.894531,-7.291558,-7.639155,-3.190143,0.718623
1001.898438,-2.513902,1.619435,-4.962081,-1.723385
1001.902344,-1.806637,-1.789875,1.695973,-6.360967
1001.906250,15.350531,8.522783,2.288459,8.113703
1001.910156,3.606339,6.018004,5.621708,13.040098
1001.914062,11.603958,7.093723,3.530484,-3.123815
1001.917969,3.472221,5.219190,10.562359,11.802036
1001.921875,4.057735,4.814048,17.365176,7.156508
1001.925781,5.532810,11.232782,5.767961,2.771823
1001.929688,5.682718,10.200449,9.213453,11.247462
1001.933594,4.314822,5.567287,6.274418,11.861049
1001.937500,11.294340,14.978917,9.569131,4.495766
1001.941406,1.963909,-6.245329,10.693635,8.662827
1001.945312,-1.269263,10.032490,4.971235,0.681086
1001.949219,-2.555126,1.065741,0.290049,0.183600
1001.953125,0.078499,-3.635021,-4.339470,4.834304
1001.957031,-8.289381,-7.086326,-4.188476,-0.997489
1001.960938,-4.884135,0.281225,-14.499240,-1.139824
1001.964844,-3.618953,-7.804119,-5.568994,-12.598213
1001.968750,-7.234971,-2.375078,-11.112344,-2.611556
1001.972656,-9.983307,-3.261137,-8.033215,-11.408466
1001.976562,-9.180986,-6.301665,-13.518390,-6.341985
1001.980469,-5.754369,-1.332634,-7.330174,-7.397696
1001.984375,-10.602972,-17.498316,-15.965461,-11.202052
1001.988281,1.086601,-1.661193,-11.599349,-10.222548
1001.992188,-2.646638,-0.052634,-1.653253,-5.280295
1001.996094,-0.664524,-1.517121,8.094726,-3.733832
1002.000000,-1.359634,6.645101,1.063682,4.049718
1002.003906,5.338706,-2.435992,2.271124,5.883572
1002.007812,7.756592,6.764478,3.899473,6.129516
1002.011719,3.005533,13.304587,6.548166,4.360793
1002.015625,7.343133,5.444443,5.677795,7.492948
1002.019531,7.633060,9.377759,10.960901,6.525568
1002.023438,2.850130,17.013955,15.510607,0.376835
1002.027344,13.239829,4.692980,3.524531,8.663314
1002.031250,16.340880,13.736768,2.418542,6.502641
1002.035156,8.566271,8.033418,0.784705,0.754176
1002.039062,4.496226,9.919001,9.578418,-1.437246
1002.042969,1.278187,5.970896,1.919115,-2.121396
1002.046875,-2.616457,2.312736,4.741379,3.192755
1002.050781,4.604706,3.029272,-6.202057,-7.847157
1002.054688,-5.757245,1.263182,1.413521,-2.187797
1002.058594,-2.431713,-5.856259,-1.833045,-6.013508
1002.062500,-6.028873,-0.405615,-10.210313,-14.333525
1002.066406,-7.102527,-11.656343,-11.486962,-6.485799
1002.070312,-4.409895,-9.610229,-11.967020,-10.127517
1002.074219,-3.567535,-11.962517,-14.853755,-2.654720
1002.078125,-8.389769,-8.454161,-7.522418,-8.796674
1002.082031,-12.652635,-13.430607,-6.319579,-9.317491
1002.085938,-2.973556,-7.060397,-2.752818,-12.552954
1002.089844,-4.840523,-6.778174,-5.679851,-3.206830
1002.093750,-0.659216,-8.541830,-2.933725,-7.390499
1002.097656,-1.765769,-0.318895,-6.038816,-4.182603
1002.101562,5.987573,1.785582,-0.675801,2.959288
1002.105469,-4.482140,2.974169,5.138758,3.429900
1002.109375,10.177619,8.816900,5.119716,16.531469
1002.113281,8.345208,3.003479,9.557393,7.665361
1002.117188,2.592400,12.068933,8.697868,8.138723
1002.121094,9.813687,6.538736,9.639859,8.922142
1002.125000,12.458592,15.208066,9.076112,13.326017
1002.128906,9.417513,11.962775,7.030039,6.849681
1002.132812,8.985325,10.589537,2.363126,9.176993
1002.136719,8.324679,-0.483863,4.603387,0.883049
1002.140625,5.716900,8.864937,6.190372,1.956023
1002.144531,4.883638,0.684139,4.150724,-1.286984
1002.148438,6.721760,-0.606934,-0.814573,7.668677
1002.152344,-2.014297,1.302187,-2.324313,-3.309169
1002.156250,-10.024489,-3.734574,-1.894727,-1.142575
1002.160156,-0.787560,-8.597520,-3.327593,6.117428
1002.164062,-13.940306,-3.916845,-2.462994,-5.472001
1002.167969,-14.142228,-8.001017,-9.886547,-11.483131
1002.171875,-9.636464,-7.879507,-14.219589,-10.014749
1002.175781,-9.196276,-13.973576,-8.447555,-7.742811
1002.179688,-1.228277,-12.159057,-14.775119,-15.061104
1002.183594,-3.706395,-5.297816,-10.272395,-13.483175
1002.187500,-9.447088,-11.616311,-4.380508,-12.783458
1002.191406,-2.074759,-15.804268,-1.827943,-8.917069
1002.195312,0.632967,-1.276398,3.126694,-4.839447
1002.199219,3.243593,4.361415,0.890613,-5.771893
1002.203125,-0.137273,1.404044,5.812080,-0.113655
1002.207031,8.222905,-0.973475,-4.112144,4.172930
1002.210938,8.832264,11.619636,14.325084,3.795503
1002.214844,10.917327,11.331899,11.760670,4.841940
1002.218750,6.030737,10.746201,12.451014,4.652716
1002.222656,13.165228,12.378347,9.890508,8.926893
1002.226562,12.501178,8.294850,13.152577,5.084331
1002.230469,12.056741,1.558268,8.492847,16.588313
1002.234375,5.550384,10.348698,9.143959,2.058880
1002.238281,6.615481,6.982866,8.730999,10.217516
1002.242188,5.407404,6.297472,5.016435,9.036505
1002.246094,-3.830709,5.271627,1.147413,0.690980
1002.250000,-4.708640,6.178433,-1.021852,0.104810
1002.253906,5.755686,-3.205230,-2.071878,-1.044691
1002.257812,-7.191362,-6.779523,-0.586368,-6.870449
1002.261719,-13.916003,-11.924390,-0.378304,-14.065300
1002.265625,-0.953752,-8.107228,-5.061857,-11.797826
1002.269531,-4.864722,-6.087139,-6.278087,-9.675516
1002.273438,-9.354511,-11.197112,-4.827490,-0.957901
1002.277344,-13.706327,-7.083986,-13.720383,-6.372262
1002.281250,-13.578780,-15.196978,-7.042832,-14.109989
1002.285156,-5.186790,-3.918984,-10.706653,-4.537711
1002.289062,-10.071916,-13.597358,0.357457,-3.729767
1002.292969,-12.362550,-4.273637,-2.557337,-5.538167
1002.296875,-6.888908,2.709696,-1.188032,-0.170384
1002.300781,-0.222233,3.453179,-2.356595,-3.355098
1002.304688,1.038269,-2.770888,1.743784,-1.922139
1002.308594,3.815084,17.795167,7.825036,7.053809
1002.312500,14.001131,9.515411,7.553794,11.170460
1002.316406,10.776965,6.630216,10.844790,15.364513
1002.320312,8.679060,4.379417,9.747927,5.788069
1002.324219,4.797881,10.398316,7.821206,14.611366
1002.328125,19.756987,8.949186,5.676192,13.469716
1002.332031,9.472257,8.568557,13.981473,7.724787
1002.335938,5.859303,6.600825,6.099589,11.142124
1002.339844,4.514025,2.585429,9.883726,1.351056
1002.343750,11.755357,7.428063,4.470279,4.730227
1002.347656,-0.984867,-0.072190,-1.628113,4.296636
1002.351562,0.371865,-2.165718,0.941134,-2.830293
1002.355469,1.519551,-9.811144,-2.394726,-5.703252
1002.359375,0.115952,-9.681735,-6.103099,-2.979107
1002.363281,-14.129589,-7.525838,-5.193877,-9.249885
1002.367188,-20.341245,-13.419158,-13.354434,-9.972763
1002.371094,-10.346890,-7.561035,-10.829463,-12.294350
1002.375000,-5.210340,-13.102208,-5.521722,-13.960283
1002.378906,-11.313104,-12.833950,-15.359683,-8.854925
1002.382812,-16.065423,-4.721239,-6.544401,-9.432106
1002.386719,-9.417463,-7.315945,-17.326768,-12.043248
1002.390625,-3.770199,-5.063634,-3.765669,-12.423036
1002.394531,-0.832997,-6.803169,0.761665,1.226654
1002.398438,-2.996628,0.612173,-6.991230,-4.416887
1002.402344,3.775196,-4.983280,2.106249,-0.321684
1002.406250,6.615842,-0.241870,4.057784,3.167282
1002.410156,5.712509,4.539430,4.803978,11.848214
1002.414062,8.257287,15.600832,6.481042,8.963753
1002.417969,6.706098,14.442132,4.928511,10.593754
1002.421875,9.979805,13.392453,6.719292,7.106876
1002.425781,13.140044,6.393273,13.805111,5.933594
1002.429688,1.979112,6.813098,11.197642,3.670484
1002.433594,9.426088,8.314256,12.701296,13.389578
1002.437500,15.825154,15.009958,6.799012,6.018414
1002.441406,4.070254,-0.472589,9.697758,4.263442
1002.445312,7.389706,1.780954,4.756400,2.539079
1002.449219,2.375706,-3.276986,-3.623869,-2.854561
1002.453125,-11.077025,-6.452942,-6.897861,-1.995933
1002.457031,-0.457182,4.921235,-4.182531,-6.212141
1002.460938,-10.397314,-10.837297,-7.420001,-12.988948
1002.464844,-11.692611,-3.371734,-6.918846,-6.413002
1002.468750,-10.993276,-9.068928,-8.648445,-6.746818
1002.472656,-14.760991,-8.046459,-11.018637,-12.629277
1002.476562,-4.929879,-6.418900,-5.291237,-10.877437
1002.480469,-3.761992,-2.941161,-4.087661,-6.897167
1002.484375,-5.343020,-6.071493,-11.680675,-18.769613
1002.488281,-11.148167,-11.619180,-10.029392,-7.265752
1002.492188,4.088080,-1.435128,-6.846253,-0.570557
1002.496094,-5.912637,0.844294,-3.138562,0.227084
1002.500000,2.124928,1.111061,-1.641276,-3.449508
1002.503906,-2.806468,4.287344,9.509274,1.597259
1002.507812,2.211374,6.296736,2.333098,7.832126
1002.511719,6.295279,4.817752,9.759438,8.461415
1002.515625,9.620475,15.372652,2.848493,19.645942
1002.519531,9.197046,7.088944,3.173161,14.472644
1002.523438,5.546728,4.510519,10.885630,13.552869
1002.527344,2.989904,6.313510,5.914156,5.749237
1002.531250,12.500180,5.407831,4.824447,3.085957
1002.535156,5.309802,0.295533,12.848381,4.463231
1002.539062,6.933038,3.816970,7.712822,0.465788
1002.542969,3.351972,3.804570,-1.421690,2.529883
1002.546875,9.765438,-3.592704,-4.319774,-0.185918
1002.550781,-3.406159,3.721649,-2.812025,0.478916
1002.554688,-0.839337,-4.790382,-0.580971,-1.320130
1002.558594,-7.244775,-8.610424,-11.794505,-3.536545
1002.562500,-2.966564,-7.853954,-1.368524,-3.470318
1002.566406,-12.582834,-12.169722,-8.653309,-4.205395
1002.570312,-9.613759,-15.310976,-13.337096,-9.224392
1002.574219,-15.813686,-6.997836,-11.053034,-13.432025
1002.578125,-7.367417,-2.896157,-8.992846,-10.949814
1002.582031,-6.533071,-6.832076,0.573221,-4.468630
1002.585938,-5.932730,1.369378,-7.997431,-8.487967
1002.589844,-6.016123,-10.695009,-2.610375,-4.779732
1002.593750,-1.367532,-4.248684,-9.626699,-4.423044
1002.597656,-2.964714,-5.085972,-6.074505,-6.838200
1002.601562,0.489433,-4.728649,0.736300,-3.507694
1002.605469,1.994977,-0.923362,4.979380,1.760668
1002.609375,9.034383,2.876973,2.275731,9.232776
1002.613281,9.125965,6.837703,12.253090,8.145385
1002.617188,15.827545,16.407390,8.114225,6.770686
1002.621094,11.397359,13.193809,1.702330,2.572254
1002.625000,7.805850,8.815406,15.292299,15.990639
1002.628906,3.752980,12.744977,8.357115,2.148398
1002.632812,7.239343,7.403355,7.299485,12.343162
1002.636719,8.800993,11.811405,2.310065,9.148906
1002.640625,3.901044,4.096179,6.392180,7.028119
1002.644531,5.395952,-0.117520,8.795615,2.532701
1002.648438,7.169862,4.737915,5.365447,6.742792
1002.652344,-1.790091,-6.054148,3.076506,-11.251504
1002.656250,0.961348,1.537756,-0.403679,-3.477893
1002.660156,-14.098974,-3.994056,-6.294622,-11.081831
1002.664062,2.652136,-11.304433,-2.588931,-4.252694
1002.667969,-8.060901,-8.993310,-13.890050,-5.990508
1002.671875,-13.647112,-11.397235,-12.720732,-19.438815
1002.675781,-12.153654,-5.562519,-7.318971,-7.088307
1002.679688,-14.172636,-6.756092,-7.844958,-10.502943
1002.683594,-1.744319,-13.192914,-16.074889,-5.519395
1002.687500,-7.560488,-4.946461,-15.747333,-10.007575
1002.691406,-4.000310,-7.930710,-6.032321,0.224176
1002.695312,0.339825,-1.436575,1.802100,-8.435619
1002.699219,-5.989820,0.581181,-0.179889,-3.622905
1002.703125,0.774063,-1.534623,2.993412,-7.238847
1002.707031,6.801336,3.186881,8.768712,4.933461
1002.710938,9.188688,1.585663,5.949302,12.784086
1002.714844,9.294323,9.627560,5.896594,2.060326
1002.718750,11.995064,12.166006,12.175343,18.659439
1002.722656,15.500011,17.886398,14.946784,12.200615
1002.726562,11.164393,7.067419,14.870626,12.573358
1002.730469,14.465301,7.082443,11.995606,10.854542
1002.734375,5.420816,10.018621,4.116236,8.273247
1002.738281,1.801964,15.646763,1.182514,6.836736
1002.742188,6.206143,5.857045,-1.188892,-8.912031
1002.746094,-0.145487,-1.753248,7.243945,-4.132021
1002.750000,1.083606,-6.741870,-1.347514,5.204150
1002.753906,-0.658775,-2.646962,-5.464045,-2.336770
1002.757812,-5.549199,-3.527138,-3.410250,-9.127983
1002.761719,-10.504836,-6.137706,-6.832885,-0.673011
1002.765625,-12.227826,-7.122233,-9.694948,-7.832655
1002.769531,-7.190446,-7.380080,-9.565854,-6.033230
1002.773438,-13.965189,-8.687428,-3.181161,-7.551159
1002.777344,-11.056625,-16.004632,-3.800507,-3.594327
1002.781250,-9.810433,-4.983666,-11.724453,-8.918616
1002.785156,-7.300188,-11.301312,-9.889723,-10.214598
1002.789062,-4.217784,-0.927767,-3.696100,-2.943256
1002.792969,-1.591271,-5.330960,-1.933101,-7.826757
1002.796875,-3.994897,-5.530097,-2.753046,-8.578693
1002.800781,5.892238,-6.347857,-3.086244,0.817267
1002.804688,2.493717,9.094898,1.927522,1.292504
1002.808594,-3.529699,7.922268,6.767468,7.844115
1002.812500,9.636972,10.627204,13.721146,9.674789
1002.816406,8.680782,13.838588,7.063057,8.086357
1002.820312,6.939688,12.198222,12.416632,13.575602
1002.824219,9.786262,12.561701,16.606823,5.385819
1002.828125,13.104502,7.767036,14.408695,10.020763
1002.832031,16.358107,10.459171,12.704039,13.083020
1002.835938,9.071911,11.109956,9.655031,12.467727
1002.839844,1.342249,3.928739,3.721840,6.818003
1002.843750,3.814218,8.392344,13.501195,6.503423
1002.847656,6.536019,5.123790,7.071265,-1.012589
1002.851562,2.910422,1.936221,-2.202751,2.301927
1002.855469,-3.291083,-3.190003,-8.136096,-1.666000
1002.859375,-6.610730,-5.794808,-8.877848,-4.983928
1002.863281,-4.918388,-8.140286,-4.318434,-11.549712
1002.867188,-10.978508,-8.913246,-13.750915,-8.779005
1002.871094,-8.813305,-5.124146,-7.469377,-2.082768
1002.875000,-9.689875,0.256828,-7.094362,-15.656239
1002.878906,-8.636187,-10.643130,-15.062960,-7.387562
1002.882812,-4.774631,-9.789047,-5.459467,-1.981025
1002.886719,-12.331445,-9.266602,-13.106124,-9.178403
1002.890625,-9.410117,-12.839697,-4.782540,-8.186894
1002.894531,-4.517496,-5.006301,2.025023,1.149672
1002.898438,2.182285,0.446291,-1.604216,0.776698
1002.902344,3.150343,1.573813,-0.023879,5.193419
1002.906250,0.769953,2.648568,0.753449,6.603401
1002.910156,0.365880,7.672120,11.011080,2.744543
1002.914062,3.963942,6.804452,8.001645,3.854690
1002.917969,10.892900,6.151410,6.561052,10.543111
1002.921875,3.018194,16.299762,4.974963,10.987363
1002.925781,6.054734,7.019983,6.643146,12.765231
1002.929688,2.496571,2.960612,8.539391,17.086319
1002.933594,10.751762,14.937382,8.675370,10.479970
1002.937500,12.513481,2.469130,11.133405,3.503598
1002.941406,14.204524,2.792284,6.716028,6.234021
1002.945312,1.600210,-4.972785,11.511519,-3.760051
1002.949219,1.129196,4.645577,-5.423054,3.119200
1002.953125,-3.052712,4.358087,-4.158970,-4.971292
1002.957031,-6.672553,-6.109198,-3.163675,-6.863373
1002.960938,-6.871115,-7.089597,-5.119945,-0.895508
1002.964844,-13.774436,-4.273549,-10.961175,-14.278770
1002.968750,-13.879406,0.359352,-7.471273,-7.615172
1002.972656,-8.875963,-7.383333,-8.267249,-5.774243
1002.976562,-3.414467,-11.127159,-4.033842,-11.873939
1002.980469,-7.968332,-9.885463,-6.198314,-5.932361
1002.984375,-9.276066,-8.212715,-16.234051,-5.639401
1002.988281,-4.650888,-1.264867,-5.291783,-6.195402
1002.992188,-12.800941,-3.897097,1.740951,-7.667962
1002.996094,-0.243030,0.420422,1.204782,-1.835380
1003.000000,3.971718,4.225882,3.117972,2.703186
1003.003906,9.350015,4.682653,-1.735372,-1.711035
1003.007812,7.603409,3.465455,7.188451,6.188433
1003.011719,4.117949,12.984107,9.869575,11.471779
1003.015625,2.294276,12.659736,2.616196,3.623304
1003.019531,12.834760,18.053114,15.399897,13.402802
1003.023438,9.526104,8.817189,8.839175,4.152449
1003.027344,6.851220,5.438066,6.863960,8.324472
1003.031250,7.232406,9.537434,9.987146,12.473526
1003.035156,2.043422,8.494736,10.337509,11.422307
1003.039062,1.242384,4.097340,6.098653,5.988404
1003.042969,6.854524,4.812990,4.963766,-1.069242
1003.046875,3.613042,-6.397719,-4.017783,4.852816
1003.050781,7.045010,1.088209,-0.474172,-7.046415
1003.054688,-7.167619,-4.725962,-0.828781,-2.009944
1003.058594,-8.205097,-1.463822,-7.796851,-0.445195
1003.062500,-10.854708,-10.538736,-12.840595,-5.472427
1003.066406,-8.573228,-18.238661,-10.327032,-9.543371
1003.070312,-10.041465,-2.892248,-14.194503,-9.385749
1003.074219,-13.156780,-10.999448,-10.381645,-11.678554
1003.078125,-11.534685,-6.041698,-5.313077,-10.639791
1003.082031,-12.779283,-2.010648,-7.845255,-10.797309
1003.085938,-1.493925,-9.959536,-13.460740,-3.467315
1003.089844,-0.448732,-4.468166,-4.066298,-11.473206
1003.093750,1.535990,0.183757,1.756630,-10.157926
1003.097656,4.055375,-2.845809,-0.303242,4.630460
1003.101562,-2.162770,-7.042931,6.892656,2.457805
1003.105469,-3.053776,3.074779,13.523970,2.131715
1003.109375,4.913515,12.214457,7.463688,3.756258
1003.113281,14.229335,7.420608,1.696211,9.573982
1003.117188,5.556125,11.892490,10.674314,10.071312
1003.121094,11.683805,10.746956,7.532896,6.371825
1003.125000,8.420416,7.867099,5.525635,5.115756
1003.128906,11.605995,7.612101,11.291538,14.283304
1003.132812,10.403518,12.381222,4.498919,5.709665
1003.136719,2.035557,6.779404,10.661225,9.396319
1003.140625,8.907482,8.118226,3.224220,8.189882
1003.144531,0.666853,9.455469,7.113412,13.538011
1003.148438,-4.666049,4.214439,9.254638,-2.096654
1003.152344,-0.679008,-10.210449,-6.538898,-4.847576
1003.156250,-4.950391,-14.129493,1.085260,-6.086489
1003.160156,-2.905865,0.887176,-12.667985,-3.117132
1003.164062,-8.162644,-4.026781,-10.437360,-5.910145
1003.167969,-15.523785,-11.378826,-5.817554,-4.749970
1003.171875,0.524220,-7.256356,-5.159576,-12.012413
1003.175781,-6.565432,-8.730632,-10.449328,-12.924738
1003.179688,-13.406445,-11.375003,-14.046835,-6.437987
1003.183594,-5.330121,-2.131401,-8.857805,-4.400570
1003.187500,-8.347132,-0.482176,0.357159,1.606108
1003.191406,-4.932765,-10.893247,-9.191716,-14.882883
1003.195312,-3.870094,-2.530912,-1.799766,-6.065725
1003.199219,4.705678,1.829720,6.267537,-5.755189
1003.203125,-2.492720,-1.878286,7.849197,6.019434
1003.207031,3.199955,-0.461708,3.047596,3.148808
1003.210938,3.065620,6.771286,4.063339,8.333136
1003.214844,5.507276,9.352614,9.825069,10.556894
1003.218750,9.812665,6.969624,12.128295,12.394389
1003.222656,7.954762,7.376526,6.994006,14.531725
1003.226562,7.808854,9.025753,15.907137,7.393954
1003.230469,10.557604,5.261209,8.912891,7.330827
1003.234375,9.901854,-1.375295,9.644939,12.588460
1003.238281,5.620964,0.181255,6.956510,1.046992
1003.242188,6.089369,1.476228,2.239411,8.452023
1003.246094,6.616619,2.198792,2.847188,-2.494653
1003.250000,-7.093664,-0.667675,-4.925928,-3.651453
1003.253906,-1.078895,-0.521846,-6.887843,-1.122773
1003.257812,-4.813732,-8.324033,-0.147591,-1.622793
1003.261719,-7.970900,-11.812639,-2.478766,-6.140147
1003.265625,-8.393778,-4.831547,-18.931977,-6.431885
1003.269531,-4.295892,-6.326572,-7.039981,-14.797206
1003.273438,-9.003311,-8.168393,-7.719766,-12.675644
1003.277344,-8.544546,-7.329291,-15.707092,-13.093811
1003.281250,-12.176420,-9.052269,-6.569078,-9.032396
1003.285156,-6.164264,1.831008,-4.048938,-10.826948
1003.289062,-7.958857,-5.817035,-6.733370,-8.091992
1003.292969,1.748538,-7.858503,-0.125427,-3.697456
1003.296875,1.851084,0.170687,3.598091,-4.135038
1003.300781,1.696543,-6.315071,-3.170912,5.008179
1003.304688,1.529717,1.691975,2.136874,2.980444
1003.308594,1.114882,-0.838701,4.401193,-2.387129
1003.312500,2.024316,5.049230,1.766412,2.979765
1003.316406,6.655070,13.864556,10.099891,8.920760
1003.320312,5.535103,13.582212,13.818945,9.529114
1003.324219,10.662333,16.449340,5.157026,18.515495
1003.328125,9.346621,13.042449,5.099756,13.112639
1003.332031,13.614957,7.492822,15.634034,3.038472
1003.335938,-4.608360,12.939962,3.871851,1.696755
1003.339844,5.564745,11.544010,7.651024,0.112424
1003.343750,6.636689,7.220632,5.205664,10.034610
1003.347656,0.429982,8.691857,3.165734,2.779065
1003.351562,-1.258051,-8.943007,-0.488597,2.569325
1003.355469,-10.120542,2.488596,2.637124,-5.657368
1003.359375,-9.934835,-1.464184,-7.132844,-13.084862
1003.363281,-4.301544,4.025181,-1.610252,-6.840105
1003.367188,-8.885536,-6.136855,-12.887185,-5.850658
1003.371094,-11.317251,-14.934777,-6.419563,-7.685399
1003.375000,-10.766667,-10.309698,-1.434107,-15.751426
1003.378906,-12.239555,-4.307960,-7.576093,-10.313937
1003.382812,-15.512854,-15.135693,-9.649114,-8.518816
1003.386719,-0.787874,-9.445495,-6.646461,-11.032525
1003.390625,-3.916041,-10.009103,-4.485852,-2.178926
1003.394531,-4.338762,-3.895085,-2.521490,-4.257506
1003.398438,8.176822,1.198823,0.773133,-0.226186
1003.402344,-3.417058,2.802154,6.534987,-1.447194
1003.406250,8.105143,2.904012,12.540397,6.407339
1003.410156,4.861411,1.191627,1.703180,7.366104
1003.414062,11.497743,15.328398,10.854606,5.710979
1003.417969,5.861334,11.050512,12.752462,10.714674
1003.421875,4.309398,7.368466,10.660099,11.318025
1003.425781,9.765891,7.558586,16.514782,17.398711
1003.429688,10.519705,7.142768,14.388599,5.041185
1003.433594,13.946317,9.820895,12.821537,5.397939
1003.437500,5.026881,4.753082,8.117704,9.687052
1003.441406,8.360108,-1.972153,11.631588,9.749112
1003.445312,1.594644,7.437897,6.335224,-5.109818
1003.449219,4.445275,5.445780,0.378040,5.186895
1003.453125,-0.485805,-1.839486,-4.877325,-7.821214
1003.457031,-4.306962,-2.143988,-5.973810,-4.155086
1003.460938,-9.252417,-6.255039,-5.495769,-7.366824
1003.464844,-9.098976,-3.159354,-11.508735,-11.876634
1003.468750,-2.953997,-9.518260,-11.455240,-7.276314
1003.472656,-8.941166,-7.581984,-13.518026,-12.358820
1003.476562,-20.488133,-8.168493,-5.687337,-5.331042
1003.480469,-4.453888,-16.650638,-13.198799,-12.490545
1003.484375,-11.945321,-8.990114,-9.026972,-11.448449
1003.488281,-10.399209,-16.588506,-1.285697,-14.204519
1003.492188,-6.791946,4.763604,-9.825579,-1.558849
1003.496094,2.811489,-4.471053,-0.180816,-6.371090
1003.500000,-1.921181,-2.267030,2.187214,-1.340912
1003.503906,-1.519825,12.235788,-2.364174,1.292380
1003.507812,0.470116,6.052132,0.658115,3.176600
1003.511719,2.594317,8.393574,8.686768,6.079032
1003.515625,9.061282,12.524357,11.808852,7.950681
1003.519531,13.516017,5.276286,10.223168,7.887897
1003.523438,10.423313,9.380466,12.190595,12.482672
1003.527344,13.794928,14.145696,9.903689,6.747113
1003.531250,8.170039,5.012581,7.009042,6.935080
1003.535156,6.317526,14.643831,5.459876,11.122839
1003.539062,3.645160,0.935567,8.401503,5.107233
1003.542969,9.030904,6.226356,-0.400590,-6.316710
1003.546875,7.148611,1.567817,2.711082,8.357130
1003.550781,-3.031392,0.746447,-1.316806,7.643871
1003.554688,-10.615291,-3.420408,0.343853,-7.124421
1003.558594,-5.966880,-4.287853,-5.507734,-9.296804
1003.562500,-5.946495,-2.018224,-2.259687,-4.687464
1003.566406,-5.572757,-10.217881,-4.104551,-15.036207
1003.570312,-5.210716,-4.330682,-8.409499,-5.195197
1003.574219,-10.549870,-2.363899,-4.926743,-11.224107
1003.578125,-10.671381,-13.356284,-11.514296,-3.953408
1003.582031,-5.385938,-4.608965,-1.421152,-8.064748
1003.585938,-11.057775,-9.773550,-6.480999,-1.588357
1003.589844,-4.932447,1.136714,-7.198476,-7.722786
1003.593750,-3.750659,-4.824861,-0.448722,-0.364373
1003.597656,3.081489,-1.745188,-1.791191,-3.560819
1003.601562,1.970288,2.098501,6.628194,-7.633739
1003.605469,5.538257,3.152034,8.651847,4.970298
1003.609375,1.114651,0.861889,11.087075,13.500504
1003.613281,9.508141,4.839768,6.644237,6.373763
1003.617188,4.711050,8.491948,5.949918,7.905278
1003.621094,9.587996,9.307873,14.213055,6.841049
1003.625000,11.553908,12.821426,12.802738,13.826272
1003.628906,9.144426,11.297020,10.023116,14.827907
1003.632812,11.002679,17.269525,1.159832,14.676247
1003.636719,10.582117,-2.057596,10.736537,9.898014
1003.640625,4.958557,5.594441,7.419378,4.784751
1003.644531,-0.720455,2.840892,-3.260644,7.465978
1003.648438,1.365165,6.173492,-0.839680,8.412343
1003.652344,0.968084,-1.542766,-0.286947,-1.021914
1003.656250,0.835011,-2.242203,-5.117915,-1.060446
1003.660156,-7.302514,-14.496680,-6.397021,-5.889275
1003.664062,-8.682867,-8.629993,-9.232055,-10.538313
1003.667969,-10.198043,-4.455174,-3.475256,-16.248447
1003.671875,-8.199148,-5.000671,-4.953280,-8.157187
1003.675781,-4.252879,-10.523985,-7.348228,-10.468808
1003.679688,-6.425296,-19.231009,-5.120474,-7.667662
1003.683594,-7.079920,-8.992526,-17.090835,-8.366594
1003.687500,-4.387552,-9.183080,-3.862896,-7.069533
1003.691406,0.511058,2.067794,-5.272508,-1.106447
1003.695312,-6.653480,-5.240662,-7.830962,-6.772430
1003.699219,4.266640,-2.425376,4.534760,-4.023582
1003.703125,3.253468,1.105875,-1.057864,-3.742543
1003.707031,7.056762,-0.651266,6.800796,6.072871
1003.710938,6.229220,1.255821,8.059651,13.002280
1003.714844,7.391746,6.457698,3.311189,9.469655
1003.718750,10.204705,12.142647,15.669001,7.000091
1003.722656,9.631799,11.504108,7.734769,15.836023
1003.726562,7.952628,5.886090,9.990152,14.462356
1003.730469,15.748729,7.896968,7.319838,11.203560
1003.734375,5.021931,14.379252,9.052640,8.929887
1003.738281,-2.680533,8.055186,9.674789,11.481903
1003.742188,0.466188,4.857019,1.751061,12.469574
1003.746094,4.034818,-3.566901,5.545597,5.230256
1003.750000,1.251015,0.757975,8.927920,-4.469556
1003.753906,-0.197373,0.048033,0.085253,-2.116326
1003.757812,-5.345376,-5.110025,-3.583718,-0.538847
1003.761719,-7.694139,-6.982727,-6.441322,-4.299909
1003.765625,-11.756468,-5.818382,-8.841836,-12.573119
1003.769531,-10.072109,-5.759862,-14.810456,-8.445646
1003.773438,-14.183088,-9.109176,-10.494318,-8.579029
1003.777344,-7.177722,-6.676105,-6.243267,-7.167730
1003.781250,-3.067322,-8.263277,-9.763642,-4.723401
1003.785156,-5.952743,-12.175538,-6.008266,-8.006873
1003.789062,-5.244502,-6.459491,-10.577224,-2.009901
1003.792969,-2.463804,4.742365,-5.614656,-8.919046
1003.796875,-9.248341,-8.517883,-1.234229,3.762836
1003.800781,-2.054420,-6.228598,0.873490,1.366682
1003.804688,-1.677363,3.445560,5.256796,1.859795
1003.808594,3.646147,5.921368,8.178455,-3.060542
1003.812500,1.516660,5.675269,6.183639,6.871592
1003.816406,14.075055,14.731302,12.597803,2.413534
1003.820312,15.373906,5.275646,9.031314,12.299030
1003.824219,6.325489,4.850860,7.344615,12.763609
1003.828125,13.491942,10.693611,9.508652,14.482749
1003.832031,6.499547,9.458352,9.384444,14.078457
1003.835938,1.847560,7.511756,6.201138,1.907076
1003.839844,0.501697,8.505831,-1.567412,12.474160
1003.843750,8.617261,-1.733143,4.869141,4.823145
1003.847656,3.964357,0.034521,6.693128,0.082923
1003.851562,-5.425906,-0.719570,4.959367,-1.698474
1003.855469,5.957515,-3.294838,-0.351226,-7.385761
1003.859375,-2.481730,0.367165,0.382605,-8.743231
1003.863281,2.033609,-4.452916,-4.988005,-13.480066
1003.867188,-6.567691,-7.290635,-10.055665,-9.170955
1003.871094,-9.645301,-11.316339,-6.091336,-8.699557
1003.875000,-9.762111,-5.984776,-8.405203,-23.557965
1003.878906,-10.991149,-9.068000,-13.942207,-9.559427
1003.882812,-15.692984,-15.981006,-6.837320,-3.496869
1003.886719,-5.897762,-7.949815,-2.471661,-8.929679
1003.890625,-6.689922,-8.821403,-13.443216,-5.648076
1003.894531,-4.771956,-12.120760,-1.761140,2.039424
1003.898438,-6.382638,-8.079409,-3.078913,0.389807
1003.902344,6.261858,4.847359,1.429210,5.049526
1003.906250,10.259565,-1.851913,1.791225,-0.871960
1003.910156,5.793806,4.283659,4.183139,6.782432
1003.914062,15.106314,-0.239388,11.413905,14.702542
1003.917969,12.214203,5.391778,8.540838,9.460546
1003.921875,2.478542,13.875983,11.944496,11.825166
1003.925781,11.292929,17.332932,8.893112,14.868476
1003.929688,3.180899,15.350532,9.975574,12.255293
1003.933594,6.806001,2.798736,8.157017,15.996442
1003.937500,9.704646,9.489134,12.665524,13.530907
1003.941406,3.270983,6.629119,-0.112287,7.949351
1003.945312,2.898890,5.679155,-3.803150,0.082615
1003.949219,2.422984,2.064683,3.374960,-7.639663
1003.953125,-1.388815,2.319596,1.327122,-1.487868
1003.957031,-4.868654,-2.259233,0.946149,-1.327807
1003.960938,-6.557158,-1.803601,-8.842646,-3.117065
1003.964844,-6.806174,-10.480561,-7.783202,-5.707016
1003.968750,-4.521765,-0.033687,-9.533458,-12.638930
1003.972656,-14.683393,-4.025649,-13.796788,-6.741815
1003.976562,-15.231047,-13.760663,-13.650910,-7.769557
1003.980469,-5.429020,-3.344208,-10.867832,-2.364199
1003.984375,-8.785305,-8.390595,-10.757198,-7.632639
1003.988281,-2.694950,-7.257283,-3.987681,-4.609240
1003.992188,-4.855641,1.730009,6.356755,-5.282623
1003.996094,-2.289767,1.312816,-3.411651,-0.300592
1004.000000,5.471329,-2.670141,-1.769984,5.114135
1004.003906,-4.762675,4.900841,0.844593,1.280716
1004.007812,11.750532,2.806354,4.889033,6.936665
1004.011719,16.998532,1.338466,6.839198,8.465851
1004.015625,8.554040,10.236609,1.222280,16.141172
1004.019531,10.658594,4.501164,9.380414,16.845490
1004.023438,8.359180,10.262984,12.458651,13.790882
1004.027344,9.710401,7.538562,14.655390,3.891604
1004.031250,7.126233,10.143023,14.847853,7.092181
1004.035156,6.567700,5.100422,7.828186,9.034403
1004.039062,3.872928,5.691493,10.159661,-1.427923
1004.042969,10.473235,8.303881,10.412956,0.226499
1004.046875,7.716542,0.198737,2.806229,-2.360391
1004.050781,0.783389,1.413496,0.228381,-0.396090
1004.054688,2.190331,-1.197886,-3.763813,-5.183544
1004.058594,5.023823,-9.384798,-0.763766,1.913586
1004.062500,-12.008437,-3.469445,-2.358167,-7.033735
1004.066406,-9.118584,-8.830168,-10.590004,-7.883907
1004.070312,-6.589601,-2.284747,-14.278603,-11.017296
1004.074219,-8.298000,-9.289284,-0.035453,-8.821257
1004.078125,-6.162090,-15.689094,-0.356796,-9.445889
1004.082031,-2.572758,-9.959733,-13.127201,-13.157288
1004.085938,-6.567038,-9.393499,-5.825117,-4.880602
1004.089844,-5.261414,-9.790463,-8.888112,-4.081470
1004.093750,-3.143520,0.728769,-5.155121,-0.650189
1004.097656,-5.262137,-0.493823,-2.069397,-4.027115
1004.101562,4.500465,-1.581604,10.629009,13.186498
1004.105469,0.936965,7.208649,3.405771,13.802064
1004.109375,8.397923,7.665074,16.400835,0.373301
1004.113281,10.901444,14.961076,13.732246,4.384348
1004.117188,13.345979,12.673537,2.426061,6.797686
1004.121094,8.852900,16.587258,10.859481,7.257331
1004.125000,11.325478,16.086156,6.905686,12.947064
1004.128906,6.988876,0.842537,0.749155,8.985102
1004.132812,9.465597,8.615429,15.362288,8.376356
1004.136719,8.842697,2.546765,-0.031012,2.949197
1004.140625,4.105530,12.454840,16.540306,2.999240
1004.144531,1.577760,11.286229,6.453584,4.936990
1004.148438,-4.238892,3.893458,1.202621,4.512275
1004.152344,-4.850215,-4.447559,-4.713725,-1.422939
1004.156250,-10.619607,2.115740,2.105930,-9.173347
1004.160156,-10.758601,-12.997207,-5.328487,-3.222964
1004.164062,-10.330824,-10.052503,-12.783716,-8.921659
1004.167969,-6.946584,-14.949693,-8.319998,-10.777644
1004.171875,-10.703490,-14.910822,-13.713470,-1.924218
1004.175781,-14.408573,-6.344646,-4.688044,-3.142967
1004.179688,0.664549,-16.482923,-7.557701,-12.218548
1004.183594,-7.838343,-5.628119,-4.440695,-6.381255
1004.187500,-10.246325,-11.432551,-10.311658,0.063115
1004.191406,-6.894807,-5.037380,-11.420751,-6.213644
1004.195312,6.880122,-6.049545,3.183101,-10.339748
1004.199219,-5.914404,-3.072144,5.148263,-1.925239
1004.203125,8.488664,5.058282,8.232576,6.758995
1004.207031,-0.232449,1.500047,8.722793,-0.419521
1004.210938,2.874581,8.137868,8.121141,9.048956
1004.214844,9.229378,7.919292,9.220099,4.568876
1004.218750,3.207786,11.570845,13.648699,13.458249
1004.222656,11.570663,12.487178,9.422158,6.872492
1004.226562,9.971357,11.953812,16.542207,8.138571
1004.230469,20.277492,7.793575,10.659860,10.037048
1004.234375,9.224874,13.341620,6.160526,7.209182
1004.238281,6.275846,9.592202,9.191585,9.981108
1004.242188,4.056199,2.900498,5.795201,-0.936430
1004.246094,1.218147,1.712121,9.420560,7.849220
1004.250000,-6.324556,4.821533,-3.461217,4.061983
1004.253906,-6.809922,-4.425134,0.370217,-10.191233
1004.257812,-1.026733,-3.463593,-3.582274,-14.820703
1004.261719,-9.113382,-3.984167,-0.078345,-10.488303
1004.265625,-6.616456,-11.827814,-10.126841,-5.131252
1004.269531,-7.137539,-9.645672,-8.106495,-15.340875
1004.273438,-10.908657,-9.459889,-17.744623,-9.827644
1004.277344,-16.243289,-13.734723,-6.382566,-3.241414
1004.281250,-13.801205,-6.461744,-13.926374,-10.306347
1004.285156,-13.620502,-5.552109,-7.987000,-11.072804
1004.289062,-8.376439,-1.391265,-13.292001,-5.370974
1004.292969,-3.919548,-7.333548,-3.535328,-8.626863
1004.296875,-4.088332,-4.289761,-1.078186,-0.649829
1004.300781,1.742396,-6.727520,7.490117,6.676305
1004.304688,-3.311094,6.766536,1.730098,2.459968
1004.308594,9.264811,10.452410,8.951211,4.394796
1004.312500,12.383958,3.592550,1.447493,2.649013
1004.316406,4.822344,10.479862,7.471791,7.312890
1004.320312,13.966263,6.613982,12.657110,14.928188
1004.324219,-0.176679,11.859158,10.606229,8.167655
1004.328125,16.012989,8.470067,10.671617,9.137098
1004.332031,5.081376,4.179673,10.629161,10.445312
1004.335938,4.553741,5.822385,5.052738,3.780358
1004.339844,10.034247,2.057195,5.523305,2.009294
1004.343750,2.607181,8.418634,-0.151671,12.146647
1004.347656,0.006653,5.773539,2.128021,-1.548834
1004.351562,-6.809365,0.792908,-7.353153,-12.361570
1004.355469,2.009144,-1.456120,4.594354,-4.296645
1004.359375,-12.708636,-11.490583,-9.437718,-7.748746
1004.363281,-6.571647,-4.870072,-6.541463,-7.876870
1004.367188,-12.481774,-1.215260,-10.884639,-10.748539
1004.371094,-12.983723,-10.901825,-7.164670,-14.252296
1004.375000,-9.407966,-13.768866,-4.408281,-6.168046
1004.378906,-12.822330,-11.367091,-6.617087,-9.499718
1004.382812,-10.306947,-7.620435,-9.281554,-6.479946
1004.386719,-17.251447,-3.815254,-8.565334,-5.104668
1004.390625,-4.528003,-1.400498,-4.446869,-5.000113
1004.394531,-3.449447,-4.794094,-4.312589,-7.152133
1004.398438,-7.991842,-2.975631,3.850564,1.708417
1004.402344,-1.609163,0.351787,-5.738996,2.472962
1004.406250,15.402282,12.560275,9.840409,3.159464
1004.410156,6.996803,10.251829,6.387733,4.872440
1004.414062,8.498965,12.517635,7.542160,5.895356
1004.417969,9.304322,15.145002,2.376780,11.598991
1004.421875,3.289141,9.273490,11.278802,13.119520
1004.425781,11.984894,10.308402,11.045085,9.779100
1004.429688,12.555750,5.568682,8.377935,8.383742
1004.433594,6.670864,7.406820,13.497963,11.010497
1004.437500,10.093575,6.815255,10.040845,7.164180
1004.441406,4.774094,1.699726,1.823589,5.785136
1004.445312,6.517844,-4.108915,-0.826440,1.075053
1004.449219,5.177338,-6.346369,-0.726416,3.241828
1004.453125,-6.242340,3.874222,-3.538948,-3.712513
1004.457031,-11.068777,4.747920,-5.489411,-5.361984
1004.460938,-4.364995,-4.565208,-10.320394,-5.762000
1004.464844,-15.031945,-6.047484,-10.466787,-10.226575
1004.468750,-5.939792,-10.732510,-16.474641,-10.143535
1004.472656,-8.015758,-17.233514,-2.396148,-8.494941
1004.476562,-11.262402,-18.147573,-16.334520,-4.383793
1004.480469,-8.797794,-10.746058,-9.862409,-8.148093
1004.484375,-9.329439,-10.949678,-8.330008,-10.632370
1004.488281,-15.628544,-13.453701,-5.174083,-8.140561
1004.492188,-9.521629,-7.752755,-14.558759,0.448864
1004.496094,-0.695648,4.432489,-1.946050,-1.787531
1004.500000,-5.427772,-1.605091,2.822304,1.649593
1004.503906,-4.903975,2.847155,-0.859188,9.789671
1004.507812,6.141157,2.257082,8.709325,12.313992
1004.511719,7.346274,8.651661,8.187168,3.891028
1004.515625,11.837272,8.443836,11.076212,16.578139
1004.519531,4.347210,13.809016,3.389807,6.721635
1004.523438,4.498415,6.185242,12.240685,8.019823
1004.527344,12.278744,13.680476,3.628764,6.036765
1004.531250,1.997186,-6.366272,11.284897,7.929330
1004.535156,11.549611,10.587905,12.696027,8.689383
1004.539062,6.759314,4.299638,-0.159582,6.647205
1004.542969,0.430238,7.813163,10.180183,5.082315
1004.546875,0.735795,9.481090,-0.107437,4.006365
1004.550781,-2.131832,0.174969,0.350343,7.434489
1004.554688,0.925692,-4.314115,2.816947,2.649634
1004.558594,-4.998666,-10.606816,-0.171307,-10.234964
1004.562500,-5.810179,-5.303205,-7.694727,-6.725965
1004.566406,-14.891482,-6.824265,-12.402228,-3.210566
1004.570312,-7.544300,-7.252516,-5.393048,-14.191220
1004.574219,-11.750093,-12.195958,-4.835674,-9.209474
1004.578125,-15.639868,-13.345160,-13.439321,-9.623409
1004.582031,-7.010712,-5.954646,-16.357048,-7.526110
1004.585938,-11.030487,-14.611250,-2.781953,-8.058468
1004.589844,-8.854025,-7.854377,-4.802884,-11.870464
1004.593750,-3.743900,1.229466,-0.834126,0.175296
1004.597656,-7.508230,-0.825618,1.950822,-4.434978
1004.601562,-4.246574,8.062599,-0.421204,-0.788223
1004.605469,1.042055,3.360015,-0.751218,1.078898
1004.609375,10.307406,3.482267,-0.246793,6.203194
1004.613281,9.780825,7.916435,7.809404,9.289782
1004.617188,7.382884,2.174448,10.108829,9.519372
1004.621094,8.786041,11.134918,15.777444,9.032466
1004.625000,7.331437,8.356973,5.877245,7.230081
1004.628906,12.565489,7.828320,6.285182,6.549420
1004.632812,7.513185,11.942887,16.588702,7.955722
1004.636719,11.877130,7.550398,9.552262,13.462194
1004.640625,3.541570,4.200443,5.926316,1.267229
1004.644531,1.796948,0.847375,8.453640,3.969645
1004.648438,1.523846,-3.841442,-0.895606,-0.188413
1004.652344,0.634524,3.062723,-2.304344,-2.563751
1004.656250,-9.318881,1.896860,-2.349103,-6.028950
1004.660156,0.442141,-11.221619,-5.760643,-7.864470
1004.664062,-15.776908,-6.488636,1.133407,-5.153139
1004.667969,-12.117088,-7.857090,-9.587667,-11.171245
1004.671875,-11.998244,-6.634767,-4.765729,-9.554709
1004.675781,-7.821064,-5.670728,-2.673965,-11.037567
1004.679688,-12.595679,1.021771,-10.819985,-9.851016
1004.683594,-11.599921,-0.170337,-7.822144,-4.249014
1004.687500,-7.837467,-12.596151,-3.418268,-4.834320
1004.691406,-12.021479,-2.876844,5.055391,-2.052933
1004.695312,-3.098805,-8.387917,-5.008436,-0.520089
1004.699219,3.754551,1.526470,-5.262526,-0.165106
1004.703125,-1.058191,4.520243,5.553826,3.012731
1004.707031,4.458371,13.166602,0.366922,12.976782
1004.710938,3.527475,7.334736,5.437363,8.842092
1004.714844,9.568144,3.106078,3.041956,0.441719
1004.718750,13.771698,7.815847,3.969821,7.995597
1004.722656,12.577986,5.586548,10.526110,4.100911
1004.726562,5.377964,12.290850,9.350458,10.258408
1004.730469,7.854744,9.536992,6.443813,14.740778
1004.734375,15.523710,18.200293,8.853960,8.741928
1004.738281,10.545267,6.669243,9.100350,2.994625
1004.742188,2.682711,6.511371,5.003031,2.603610
1004.746094,1.658182,-1.724160,6.158891,-0.767539
1004.750000,1.332388,2.596886,-6.114489,-0.182953
1004.753906,-6.051176,1.478715,-2.429520,2.103332
1004.757812,1.946494,-9.615367,-6.998203,-7.957595
1004.761719,-0.710873,-8.885516,-10.484825,-16.812387
1004.765625,-5.468945,-11.189271,-8.856106,-8.996689
1004.769531,-14.941557,-11.194324,-4.736300,-6.453093
1004.773438,-7.433577,-3.796243,-14.198402,-11.806327
1004.777344,-10.024805,-12.295197,-17.288545,-12.176294
1004.781250,-21.446318,-5.692994,-7.212726,-8.422488
1004.785156,-8.186618,-12.496803,-10.192000,-12.397334
1004.789062,-3.178470,-10.980891,-13.369797,-3.346659
1004.792969,-8.470288,-3.959160,-6.127207,-4.899350
1004.796875,-8.808080,-2.726398,-2.415901,-6.003534
1004.800781,0.109217,-5.633586,4.257828,4.101163
1004.804688,8.307301,6.596631,2.952041,2.363265
1004.808594,-1.384992,6.445348,3.568503,9.625932
1004.812500,11.917673,13.377455,0.170706,3.706820
1004.816406,7.477257,11.567243,8.844909,10.702863
1004.820312,10.445276,6.901575,11.303973,4.497909
1004.824219,8.721816,7.809856,3.919358,8.550627
1004.828125,8.388788,6.509411,12.641818,7.297328
1004.832031,4.831046,11.371654,8.538141,12.711008
1004.835938,13.771264,6.881332,10.500540,6.801052
1004.839844,8.782334,11.048806,0.960630,15.300385
1004.843750,1.651300,5.609050,7.861853,7.750301
1004.847656,0.806896,1.152820,6.776350,-0.860628
1004.851562,1.842432,-3.553595,-4.737788,-3.939398
1004.855469,4.450277,-7.490858,7.510072,-0.312217
1004.859375,-6.585631,-4.023067,-6.914690,-5.226995
1004.863281,-13.715105,-3.721406,-3.724609,-14.432032
1004.867188,-12.160534,-10.889077,-13.975237,-12.092166
1004.871094,0.784774,-11.826286,-4.120994,-14.496369
1004.875000,-12.670841,-13.053528,-6.404426,-8.811538
1004.878906,-14.924560,-0.880173,-8.402835,-7.061479
1004.882812,-14.097739,-10.645637,-6.223225,-6.724976
1004.886719,-8.574763,-3.727581,-14.457175,-10.038878
1004.890625,-11.707041,-7.370355,-8.697643,-9.980057
1004.894531,-2.698176,-2.917924,-4.197984,-5.035786
1004.898438,-0.978059,-6.717820,0.019478,0.525528
1004.902344,-0.171900,-2.602567,8.596758,-0.372923
1004.906250,3.370440,0.419443,2.871775,5.403323
1004.910156,5.249438,11.694491,6.834971,5.745138
1004.914062,8.444599,5.340853,8.747900,13.377336
1004.917969,0.454656,7.478307,2.406942,6.811091
1004.921875,16.770823,9.117291,10.631117,9.617789
1004.925781,12.781848,-1.586811,14.632682,5.055074
1004.929688,13.341227,12.037357,9.495667,8.328114
1004.933594,10.765092,11.242165,5.349175,5.041283
1004.937500,15.016671,8.880411,1.483154,1.493738
1004.941406,5.274913,10.777042,3.414947,0.858639
1004.945312,3.202550,0.576475,0.149094,4.611204
1004.949219,5.484967,6.009147,-3.537321,2.550543
1004.953125,-2.273849,5.283472,-3.120447,0.770475
1004.957031,-2.244072,-5.990192,-1.146255,-5.899673
1004.960938,-3.542107,-4.051057,-5.068250,-4.261766
1004.964844,-13.144493,-9.388018,-14.473374,-8.722215
1004.968750,-9.316015,-11.099602,-11.312910,-4.381441
1004.972656,-17.770974,-7.123361,-8.780928,-9.425353
1004.976562,-8.471747,-9.835851,-6.268418,-12.574067
1004.980469,-4.414351,-9.040101,-10.499383,-15.176133
1004.984375,-9.161872,-14.713838,-5.619377,-7.407437
1004.988281,-6.190488,-2.196119,-8.413755,-4.338877
1004.992188,-7.358920,-2.661572,-8.322843,-6.783054
1004.996094,-7.137437,-3.596583,-5.936027,-6.004235
1005.000000,-2.751953,2.062576,-2.293939,1.555631
1005.003906,1.680214,-0.816329,3.328073,1.276018
1005.007812,7.857276,5.333345,8.426402,7.642202
1005.011719,3.546169,7.966739,7.453634,1.305895
1005.015625,10.187542,4.852738,4.510362,9.192930
1005.019531,12.019207,13.381247,12.523900,8.102190
1005.023438,12.207526,9.792911,3.515569,6.251683
1005.027344,14.036232,5.339824,3.553067,13.221754
1005.031250,8.146334,8.790134,8.072265,-0.578671
1005.035156,7.480752,7.632926,13.276818,8.473930
1005.039062,7.112485,5.687701,12.443529,7.015269
1005.042969,0.044560,12.821820,9.908043,1.544917
1005.046875,-4.493678,3.346799,-5.021236,6.553998
1005.050781,0.727573,4.447964,3.789933,-2.117124
1005.054688,-2.286568,-9.819201,2.563350,-4.055508
1005.058594,-4.400580,-6.210574,-8.862470,-8.514122
1005.062500,-8.332927,-3.326401,-12.550593,-12.789317
1005.066406,-17.984093,-8.517396,-10.644085,-6.760080
1005.070312,-11.480214,-16.585689,-12.845008,-13.763308
1005.074219,-9.776936,-13.055770,-1.357783,-9.133405
1005.078125,-8.963778,-6.037998,-14.645940,-13.062127
1005.082031,-2.873291,-9.098510,-9.245637,-6.608385
1005.085938,-0.793123,-11.185606,-8.955909,-2.945560
1005.089844,-9.475645,-5.587558,-3.764412,-9.830423
1005.093750,-7.472281,-1.010770,-8.238975,-8.211885
1005.097656,-2.602349,-5.079489,-6.107052,-2.316060
1005.101562,5.985190,1.534208,0.280891,2.785067
1005.105469,2.929129,2.488127,8.423048,1.415102
1005.109375,1.228746,3.655287,1.741997,-4.688734
1005.113281,0.412666,0.348440,3.675270,8.110809
1005.117188,8.134086,14.431565,13.656444,4.577851
1005.121094,18.519132,13.969038,7.326251,9.767263
1005.125000,13.140927,6.159885,13.147807,12.727348
1005.128906,9.953732,1.365958,12.403165,14.086568
1005.132812,11.999866,8.981797,6.682936,10.679901
1005.136719,7.878210,6.967812,1.627270,0.475975
1005.140625,7.494841,4.797073,13.764081,5.982333
1005.144531,-6.289349,1.607234,4.463360,9.659408
1005.148438,-1.204241,-2.432964,2.450919,3.638833
1005.152344,-0.262974,-3.365423,-4.065286,-3.227839
1005.156250,-5.624012,-1.540217,-3.687878,0.209748
1005.160156,-6.559132,-8.943163,-6.884244,-11.709891
1005.164062,-5.223681,-10.878335,-4.303754,-5.067301
1005.167969,-9.627194,-10.419167,-3.951704,-9.808861
1005.171875,-8.650177,-12.981700,-6.884253,-4.580116
1005.175781,-11.537215,-6.210958,-14.725675,-8.757214
1005.179688,-11.372048,-1.595260,-8.714614,-14.910938
1005.183594,-11.973029,-7.917746,-8.951817,-5.431438
1005.187500,-2.827605,-6.207650,-5.450712,-9.578804
1005.191406,-1.547228,-5.367858,3.877379,-9.520106
1005.195312,-6.748130,-0.561213,-12.239785,-5.504775
1005.199219,6.300894,0.688348,4.249696,-3.728734
1005.203125,1.700606,4.709031,-0.051506,10.466482
1005.207031,6.130578,7.106448,3.546765,5.372319
1005.210938,8.072110,4.380346,1.884444,10.800848
1005.214844,4.030322,7.535968,3.939781,7.149058
1005.218750,20.287706,7.696670,8.265086,11.360791
1005.222656,4.347081,6.974334,16.609062,10.229683
1005.226562,9.090655,8.351324,20.065026,12.370719
1005.230469,9.459844,13.298301,4.361538,7.297214
1005.234375,6.807348,6.601909,15.291901,1.539113
1005.238281,15.334885,5.257418,11.758191,5.631857
1005.242188,3.246446,2.629256,3.014794,-3.874858
1005.246094,3.744933,-1.580460,5.148230,7.167833
1005.250000,7.122631,-6.106438,4.883578,3.979311
1005.253906,-1.490288,3.520607,-0.974262,1.047508
1005.257812,-4.614648,-10.632651,-6.200344,-0.837909
1005.261719,-5.229437,-8.209550,-6.767127,-4.952343
1005.265625,-3.146717,-7.683647,-4.792043,-9.859886
1005.269531,-8.234355,-14.726510,-4.799611,-7.965514
1005.273438,-11.873078,-8.031393,-8.716670,-9.318909
1005.277344,-8.593639,-11.968625,-8.297230,-2.799171
1005.281250,-8.265913,-11.649166,-6.072354,-6.691861
1005.285156,-7.187011,-1.948299,-12.390039,-4.391991
1005.289062,-2.753065,-5.367469,-7.262562,-9.741449
1005.292969,-0.676760,-2.110747,-8.676116,-7.794231
1005.296875,-0.130630,-1.755452,-2.887857,3.501997
1005.300781,-3.601659,-1.246199,-7.516823,1.879109
1005.304688,6.561043,10.461977,-2.562580,-2.204949
1005.308594,5.764014,6.710463,8.997120,1.686819
1005.312500,9.244081,8.443778,5.804936,7.562371
1005.316406,6.510146,10.386575,16.023858,9.715502
1005.320312,7.263886,11.238984,13.677962,11.891061
1005.324219,1.140296,8.751768,7.292142,11.999389
1005.328125,8.937499,15.101249,4.509793,5.840505
1005.332031,8.297964,6.133321,21.012257,18.253227
1005.335938,5.433751,8.599979,9.123442,11.799053
1005.339844,6.972706,7.077458,9.693228,3.585789
1005.343750,-0.752672,-4.057885,13.788452,2.191449
1005.347656,1.262735,0.588337,-4.758042,3.644883
1005.351562,-4.622580,2.213798,-1.568125,-4.915890
1005.355469,1.303920,1.029066,-1.551229,-3.401377
1005.359375,-2.565748,-6.091432,-5.759165,-0.006990
1005.363281,-5.484406,-12.354050,1.570164,-2.291368
1005.367188,-6.824735,-15.845642,-8.594004,-10.555779
1005.371094,-8.528199,-8.150996,-19.006686,-10.317602
1005.375000,-6.886473,-6.182907,-11.420887,-14.244144
1005.378906,-9.107181,-12.690794,-13.406649,0.263501
1005.382812,-6.168892,-8.253030,-9.934739,-7.308806
1005.386719,-6.434466,-6.567854,-6.368979,-7.401348
1005.390625,0.253263,2.190924,-3.902371,-4.526900
1005.394531,-5.858190,-12.391739,-4.268573,-2.098761
1005.398438,-5.485467,-6.428675,-3.595959,-2.124213
1005.402344,9.801484,5.877659,-5.980104,-6.835644
1005.406250,14.533953,12.494345,-2.325615,-5.064946
1005.410156,10.757551,7.695108,7.527220,1.192291
1005.414062,9.550927,8.459268,2.923725,6.208874
1005.417969,8.677642,9.168325,7.567738,3.992582
1005.421875,11.502305,12.798110,4.792346,13.782915
1005.425781,-0.182777,6.001445,10.967971,4.791904
1005.429688,8.544263,5.814986,8.894133,11.186746
1005.433594,8.177362,2.814555,2.790258,8.636861
1005.437500,9.124865,8.518914,6.666395,3.439458
1005.441406,2.071107,4.155152,9.094239,8.401698
1005.445312,6.586644,7.032112,7.039851,0.555112
1005.449219,1.082677,4.122207,-0.381935,3.718317
1005.453125,-1.561184,-7.620089,-4.393575,-3.282439
1005.457031,2.774806,-1.518291,-12.667484,-9.620653
1005.460938,-12.358075,-14.157465,-12.273140,-1.574456
1005.464844,-9.996260,-8.375595,-11.264206,-4.807879
1005.468750,-11.225719,-9.268974,-14.024016,-0.108201
1005.472656,-12.467952,-9.726780,-9.911148,-14.491567
1005.476562,-8.001906,-14.935360,-9.865999,-9.240354
1005.480469,-4.947487,-9.132885,-12.577417,-7.769499
1005.484375,-11.545548,-11.718862,-12.640952,-9.172330
1005.488281,-7.053177,-16.010479,-0.494513,-7.270612
1005.492188,-8.876257,-1.804756,-4.689027,-0.591909
1005.496094,-3.627852,-2.394328,-4.906235,0.305251
1005.500000,7.532475,-0.097593,0.680200,-4.834475
1005.503906,1.489828,4.822474,2.975989,9.977670
1005.507812,2.973049,9.436989,7.013513,3.078195
1005.511719,8.128871,7.417075,6.935446,6.244675
1005.515625,1.428411,6.979175,1.522955,7.231555
1005.519531,4.536124,7.203539,15.025680,14.825030
1005.523438,16.327148,9.746711,8.072309,13.618588
1005.527344,13.368775,11.256776,14.365811,17.019189
1005.531250,5.214499,12.846438,9.899415,12.091212
1005.535156,5.666670,8.041985,6.924813,12.135691
1005.539062,2.505904,9.575258,5.605905,7.618736
1005.542969,7.104524,6.847144,-3.493331,2.766617
1005.546875,7.283638,1.503830,1.737290,1.156025
1005.550781,5.882395,-1.702354,1.498865,-0.950052
1005.554688,-8.292469,-5.133218,-7.501029,-7.445668
1005.558594,-8.369894,-8.369166,-0.158656,-0.894312
1005.562500,-8.428953,-3.110077,-6.988626,-13.923657
1005.566406,-3.657789,-7.029693,-5.065867,-8.511173
1005.570312,-3.973743,-8.941317,-2.880025,-9.139579
1005.574219,-8.437639,-6.291760,-13.485135,-8.468880
1005.578125,-2.841180,-8.738902,-9.237043,-13.195971
1005.582031,-15.861287,-8.247500,-12.349661,-9.276499
1005.585938,-5.337248,-6.868256,-10.507708,-10.177277
1005.589844,-4.986325,-8.586437,-1.046832,-9.269389
1005.593750,-0.856179,-2.901136,2.996921,-4.113049
1005.597656,1.979838,-3.547096,1.562182,-3.712862
1005.601562,-2.291390,6.072339,3.990985,0.606220
1005.605469,6.178532,-0.793451,5.925140,4.778670
1005.609375,5.536132,5.366767,0.956124,8.731371
1005.613281,7.377450,7.260707,10.070738,19.657406
1005.617188,8.937143,4.537535,1.599343,10.013172
1005.621094,10.287968,6.284195,8.191334,1.045276
1005.625000,11.298207,7.661555,12.215400,5.869908
1005.628906,9.258395,0.706191,15.597600,6.542239
1005.632812,8.852050,10.797679,9.848763,14.108372
1005.636719,11.673219,0.222745,4.680652,1.939832
1005.640625,1.099413,10.853088,13.096647,9.832436
1005.644531,0.911471,-4.223654,1.222590,2.481542
1005.648438,6.485660,0.212168,-1.515047,1.541060
1005.652344,1.183372,2.341033,-6.581182,-8.909855
1005.656250,-5.247125,-2.471598,0.015950,-8.103726
1005.660156,-5.089454,-3.760902,-10.742184,-4.792311
1005.664062,-6.302221,-7.534911,-0.978843,-8.129060
1005.667969,-15.168332,-13.958868,-10.035059,-11.278100
1005.671875,-7.780143,-12.294061,-6.121541,-11.486856
1005.675781,-13.964780,-8.656803,-14.528383,-9.041740
1005.679688,-10.234991,-11.436933,-7.805491,-7.045694
1005.683594,-5.281936,-0.948914,-9.745173,-15.383639
1005.687500,3.702767,-0.880464,-6.121533,-2.756428
1005.691406,-6.977932,0.239267,0.045320,-1.268408
1005.695312,-1.325795,-5.786570,-6.529491,-7.903745
1005.699219,6.615084,6.605522,0.841731,2.553425
1005.703125,2.030633,2.792855,7.400996,-0.379372
1005.707031,2.645568,7.759656,7.014713,0.751967
1005.710938,7.815550,9.504789,9.983113,7.177201
1005.714844,9.912491,12.985591,4.197261,9.358093
1005.718750,15.798111,10.343545,4.144777,4.322129
1005.722656,10.985870,12.008020,10.121852,3.620329
1005.726562,3.182673,10.660817,9.313359,5.280606
1005.730469,9.952919,8.974733,14.069920,11.467626
1005.734375,12.971854,12.499690,9.037859,9.295763
1005.738281,1.497671,13.741457,3.595364,4.795783
1005.742188,7.673708,7.703136,5.805417,-1.763796
1005.746094,2.109020,-0.018448,4.048871,-1.929695
1005.750000,-5.190042,-1.089944,-0.460745,1.861116
1005.753906,-4.981553,-2.530543,-1.124326,-0.621921
1005.757812,-1.871496,-10.742470,-8.352189,-3.535196
1005.761719,-8.263008,-6.466313,-4.768613,0.989620
1005.765625,-11.835796,-13.956295,-11.561934,-7.371791
1005.769531,-9.735238,-15.044483,-3.084084,-12.154766
1005.773438,-16.898196,-14.738220,-10.142715,-4.410286
1005.777344,-13.783850,-1.969448,-6.598205,-10.498912
1005.781250,-6.291217,-10.045801,-5.832383,-9.026773
1005.785156,-6.979721,-7.666365,-8.797876,-7.823476
1005.789062,-8.483782,-11.489313,0.091482,-2.378353
1005.792969,-5.487829,-1.049198,-4.344863,-8.570664
1005.796875,-5.793697,-4.736176,-5.917350,-2.871291
1005.800781,-5.378968,-2.508567,2.917707,7.388410
1005.804688,-0.393220,7.652929,7.155586,6.302189
1005.808594,6.166361,4.285762,2.097447,3.476835
1005.812500,10.158465,1.790582,7.819159,12.140631
1005.816406,6.408640,6.079867,6.846958,10.913788
1005.820312,9.902715,7.080311,4.944926,4.288482
1005.824219,8.272337,8.248341,10.097071,11.218313
1005.828125,11.445834,9.471185,4.162773,7.784425
1005.832031,12.286471,9.238197,4.681006,2.059485
1005.835938,12.724048,5.267988,11.351509,7.309909
1005.839844,6.064892,5.553738,8.818875,13.680547
1005.843750,5.372796,3.479265,2.462462,4.355853
1005.847656,7.363476,1.015421,-2.415880,2.982676
1005.851562,-6.198411,-5.376321,1.030459,0.970152
1005.855469,-1.096727,-1.270273,-1.532029,-5.068156
1005.859375,-4.516329,-3.466317,-3.076514,-9.955959
1005.863281,-8.309260,-1.484659,-9.601399,-10.543547
1005.867188,-5.349019,-5.034565,-17.497757,-8.810755
1005.871094,-9.923065,-16.770638,-8.911573,-4.426097
1005.875000,-5.001881,-5.034654,-11.280756,-13.766020
1005.878906,-11.545931,-13.797320,-12.952236,-5.020487
1005.882812,0.613379,-13.641035,-7.989486,-16.134179
1005.886719,-8.394482,-3.668291,-6.906354,-7.259859
1005.890625,-10.224165,-6.228080,-4.019887,-2.601505
1005.894531,-5.638662,-0.213782,-3.688360,-1.125978
1005.898438,1.876381,-2.660926,-0.416670,-0.302530
1005.902344,-1.421237,4.259774,-2.903504,8.978437
1005.906250,6.192318,7.407225,0.912694,7.555598
1005.910156,2.598963,6.515530,9.107085,15.322357
1005.914062,10.438048,8.018410,13.167305,2.116419
1005.917969,2.806306,7.071045,11.896366,13.034190
1005.921875,18.460782,13.823389,8.238126,11.200637
1005.925781,12.621930,12.648498,7.881506,5.252535
1005.929688,12.020325,6.421496,9.379435,8.450658
1005.933594,10.417114,16.499440,6.153174,10.485957
1005.937500,3.512549,12.536422,11.095809,10.648679
1005.941406,9.155764,1.828775,6.907589,10.868886
1005.945312,5.299077,5.989036,0.908843,-1.309257
1005.949219,-0.768327,-10.230303,-1.135441,-6.394525
1005.953125,2.095218,-3.777356,-2.252591,-9.120196
1005.957031,-1.006817,1.928973,-8.272895,1.045287
1005.960938,-5.096026,-9.616777,-5.763815,1.512206
1005.964844,-14.225361,-6.491227,-13.428325,-10.344307
1005.968750,-8.212659,-3.596890,-10.866415,-3.697443
1005.972656,-6.326722,-7.933343,-14.177347,-8.000877
1005.976562,-11.620571,-10.411862,-2.138995,-4.366125
1005.980469,-6.761553,-9.463484,-9.999168,-19.236310
1005.984375,-8.431464,-15.818348,-4.946452,-9.456713
1005.988281,-0.385968,-6.838512,-11.831199,-4.710173
1005.992188,-8.395998,-7.030213,-5.382689,-12.736446
1005.996094,0.341041,5.184449,-2.758799,-2.194848
1006.000000,-3.965311,-6.866774,2.074794,2.333978
1006.003906,-4.961163,3.446479,0.534645,3.633346
1006.007812,6.731772,-0.444189,7.873051,13.001689
1006.011719,2.241215,4.500695,11.656779,8.738245
1006.015625,8.627357,4.616042,5.154193,9.223752
1006.019531,4.054806,1.869670,5.750700,8.110429
1006.023438,3.042477,1.003100,10.090666,9.270865
1006.027344,11.364869,12.924292,11.062040,10.913681
1006.031250,7.831394,9.046739,11.050669,5.021323
1006.035156,3.688751,5.182693,11.684367,4.475627
1006.039062,5.101399,9.046807,14.144591,-0.353170
1006.042969,3.924582,7.832216,1.419448,3.780446
1006.046875,1.619835,2.642130,2.789534,5.852225
1006.050781,-9.622615,6.306438,-4.672250,-3.674821
1006.054688,5.540061,-0.685858,0.833856,-2.973841
1006.058594,-11.277551,-5.064382,-6.688148,-5.856766
1006.062500,-3.409545,-13.978427,-6.674650,-9.817089
1006.066406,-5.426114,-10.438532,-9.000526,-5.344682
1006.070312,-16.605643,-10.907345,-6.809924,-7.942260
1006.074219,-7.013621,-8.527806,-14.677900,-13.250827
1006.078125,-10.290514,-13.335680,-11.067939,-10.751105
1006.082031,-9.178609,-7.598843,-8.965005,-8.331185
1006.085938,-2.810216,-7.006245,-8.133992,0.661477
1006.089844,-6.751795,-4.921008,-1.068142,-6.985385
1006.093750,-4.389540,-8.837799,-2.420611,-4.099519
1006.097656,-0.980936,1.905494,-1.821047,-1.810225
1006.101562,2.021513,-1.233462,-5.736134,0.104950
1006.105469,8.855088,4.953983,6.371215,1.530928
1006.109375,2.815280,5.940796,2.616299,5.788023
1006.113281,3.401650,10.198768,4.038345,13.026549
1006.117188,5.054262,3.021634,7.741315,6.452336
1006.121094,10.111253,3.774145,11.297880,14.913006
1006.125000,7.320251,8.738939,9.787904,8.079256
1006.128906,13.315225,13.119520,7.779319,10.986467
1006.132812,9.283010,10.239836,8.350263,9.759141
1006.136719,3.604030,10.272155,4.788812,3.309999
1006.140625,3.771025,8.517765,6.181044,5.813178
1006.144531,3.181927,8.046647,5.022339,5.807236
1006.148438,9.896807,6.806059,-5.015248,2.062557
1006.152344,-4.720610,1.991916,0.475870,1.907799
1006.156250,-3.452952,-4.015113,-1.571746,-7.594789
1006.160156,-4.389073,-7.019432,-1.515231,-9.321412
1006.164062,-4.604640,-6.711004,-4.345636,-1.955590
1006.167969,-13.309104,-7.371771,-8.937834,-7.613769
1006.171875,-9.594907,-3.198031,-11.880784,-9.136275
1006.175781,-10.368619,-18.291369,-11.063730,-12.652290
1006.179688,-15.763377,-3.555519,-7.332621,-2.784539
1006.183594,-0.868163,-10.004786,-14.557637,0.303549
1006.187500,-5.958535,-1.914889,-11.519217,-11.397304
1006.191406,-6.581388,-5.410304,-4.934033,-9.167968
1006.195312,-9.691227,-0.261114,-6.061211,-5.415719
1006.199219,-4.541232,-2.985279,-7.928935,1.818279
1006.203125,0.779277,6.425004,7.299427,1.162699
1006.207031,-1.781950,-1.562698,6.650772,8.897006
1006.210938,6.103054,17.165849,15.281052,4.416646
1006.214844,6.049791,11.338623,-2.078193,12.927505
1006.218750,10.396929,9.635793,14.776692,11.822236
1006.222656,12.383760,12.286891,16.097259,3.616054
1006.226562,4.869602,18.145145,11.089709,2.803196
1006.230469,14.087245,11.014981,8.227456,13.084638
1006.234375,5.639342,6.922674,9.090487,13.734848
1006.238281,6.350354,10.925879,15.910938,7.808179
1006.242188,-4.582877,8.626408,1.314084,1.903872
1006.246094,1.759928,9.173830,4.676308,1.877365
1006.250000,-1.939798,-5.470337,2.907465,-1.269455
1006.253906,3.440262,-8.367623,0.061691,1.454505
1006.257812,-2.759075,-0.475276,-3.986259,-4.535817
1006.261719,-10.740386,-2.523545,-6.109932,-3.712584
1006.265625,-7.988785,-13.598026,-14.316108,-8.379865
1006.269531,-4.955486,-12.586030,-3.558894,-12.900707
1006.273438,-11.015762,-15.048390,-14.662345,-11.007597
1006.277344,-5.622330,-11.110763,-9.424889,-14.461449
1006.281250,-6.913083,-12.651015,-18.121626,-16.078600
1006.285156,-11.351496,-10.416268,-2.241513,-13.498857
1006.289062,-14.170192,-3.446722,-8.072675,-6.341570
1006.292969,-3.449451,-4.715487,-5.400395,-2.325716
1006.296875,1.786503,-5.258991,5.137464,0.580833
1006.300781,-2.206902,1.251423,-1.892502,1.298613
1006.304688,-0.126176,5.139486,3.389096,8.852288
1006.308594,4.796392,-4.189149,12.755850,2.397616
1006.312500,13.283536,11.540487,6.152496,8.185568
1006.316406,6.571189,18.398354,11.172942,1.575618
1006.320312,4.146423,12.654440,11.577754,16.934505
1006.324219,12.239943,9.898674,12.919445,14.426889
1006.328125,18.385811,14.848934,6.570439,14.134858
1006.332031,7.927901,5.275513,4.165626,11.710049
1006.335938,9.657351,5.098713,9.462835,2.752522
1006.339844,0.922082,4.837766,-1.661308,4.377120
1006.343750,6.022094,12.382535,-1.797741,4.730659
1006.347656,-0.485793,-7.532126,-3.058597,5.242345
1006.351562,-0.703218,0.575235,-1.460121,-2.487184
1006.355469,-0.469117,-1.268857,-7.835898,-2.295052
1006.359375,-4.188678,-11.978633,-5.514102,-13.465754
1006.363281,-12.753599,-8.082312,-2.377946,-1.479891
1006.367188,-5.412151,-11.229050,-8.015501,-9.240134
1006.371094,-12.063687,-10.119143,-9.676021,-15.710896
1006.375000,-7.661221,-4.636807,-6.727292,-11.341688
1006.378906,-14.853401,-9.343079,-2.810805,-3.139733
1006.382812,-10.921462,-12.527152,-11.628755,-12.313415
1006.386719,-9.164369,-2.048586,-5.125547,-14.242357
1006.390625,-4.105925,-4.204121,-6.752354,0.952166
1006.394531,-5.450956,1.527231,-8.673746,-1.871336
1006.398438,1.248932,-4.039336,3.012909,1.552279
1006.402344,4.922708,5.775761,-2.507157,-0.359819
1006.406250,4.504885,3.366445,1.487050,2.751318
1006.410156,5.741927,7.291311,7.775495,13.964869
1006.414062,11.408672,11.457193,7.452047,12.332591
1006.417969,12.117385,11.137023,8.556844,10.753330
1006.421875,2.843432,14.158313,16.566063,6.788161
1006.425781,9.647545,10.935565,7.313494,16.563539
1006.429688,13.061449,13.721400,10.332017,12.305171
1006.433594,12.922609,7.537969,15.562683,13.161164
1006.437500,5.829371,10.508200,11.365464,9.384234
1006.441406,6.228857,5.263157,5.399867,7.424969
1006.445312,2.860711,-1.881422,4.020759,1.099512
1006.449219,3.398692,6.060897,6.258554,-4.523851
1006.453125,-5.114227,-6.105425,4.158128,-4.765353
1006.457031,-4.426996,-6.280256,-8.137668,-10.500049
1006.460938,-3.273398,-6.725185,-6.542461,-9.438933
1006.464844,-12.926598,1.481507,-8.082263,-10.341327
1006.468750,-8.278571,-5.639298,-13.872520,-10.380170
1006.472656,-8.985332,-7.840222,-4.622091,-15.619531
1006.476562,-10.367441,-4.557404,-13.683951,-11.054743
1006.480469,-13.103690,-11.196190,-4.629859,-9.063887
1006.484375,-13.245983,-9.000548,-1.585987,-17.050911
1006.488281,-10.792459,-2.422103,-5.132269,-10.229868
1006.492188,-4.682167,-8.446819,-13.657038,-0.099508
1006.496094,-9.250749,-9.206776,-3.018183,-1.678758
1006.500000,0.862527,-2.476229,-2.575526,1.300650
1006.503906,0.823239,1.581055,-4.775016,9.804804
1006.507812,3.686099,5.132098,10.172111,2.744199
1006.511719,11.051782,-0.549430,3.180886,6.882909
1006.515625,11.083338,12.185918,12.317588,11.347409
1006.519531,8.981341,6.672122,4.112757,12.200566
1006.523438,18.597806,11.537325,5.784934,10.508612
1006.527344,10.575464,2.590754,11.475724,6.903177
1006.531250,8.472611,14.931943,3.622993,15.340403
1006.535156,4.905192,7.656283,8.231885,12.865619
1006.539062,4.325927,5.584344,10.908380,4.793930
1006.542969,3.601211,6.721133,7.116127,6.966299
1006.546875,-3.026520,9.071887,4.180897,2.647185
1006.550781,-0.841001,7.551234,-2.360860,2.957884
1006.554688,1.211751,-2.009857,-4.400817,10.613368
1006.558594,-11.307689,-12.334552,-4.315516,2.283932
1006.562500,-3.893861,-8.367351,-5.613678,-4.580114
1006.566406,-7.918648,2.779008,-12.782562,-8.386344
1006.570312,-9.956170,-10.445005,-11.296197,-11.837879
1006.574219,-4.312875,-11.081426,-12.918851,-10.701189
1006.578125,-12.843673,-10.625722,-13.238333,-16.600415
1006.582031,-9.031361,-8.251522,-6.271745,-6.802375
1006.585938,-11.989922,-8.419833,5.205999,-9.842517
1006.589844,-5.983710,-8.305982,-4.345022,-16.830792
1006.593750,-2.785802,-4.857552,-6.967276,-6.349482
1006.597656,-5.730821,-5.868455,-4.284472,-2.210288
1006.601562,0.191810,4.958864,5.129829,2.743624
1006.605469,2.399280,-1.467117,7.376435,6.866317
1006.609375,8.271728,-1.141471,6.066762,9.218283
1006.613281,1.563100,10.033187,9.404659,2.969583
1006.617188,10.066229,10.592773,5.260235,-0.637469
1006.621094,9.596348,14.707610,5.582039,11.895711
1006.625000,9.349099,14.946500,9.547021,12.061684
1006.628906,10.103152,16.123446,7.155669,21.416628
1006.632812,12.427776,12.110275,13.352040,11.139866
1006.636719,11.462920,8.425583,11.222238,8.139080
1006.640625,9.086947,5.616560,3.971801,12.252775
1006.644531,6.330406,-0.553317,8.059205,1.495645
1006.648438,3.666698,2.205352,-1.720665,-1.782912
1006.652344,-3.938809,-1.581405,-6.555681,0.333174
1006.656250,-2.597553,-3.367219,-6.407810,-7.840987
1006.660156,-0.859257,-6.212348,-0.714688,-9.150849
1006.664062,-7.279692,-7.034381,-9.010355,-8.686551
1006.667969,-13.947364,-2.645441,-12.897587,-8.674054
1006.671875,-15.376384,-9.077297,-12.802324,-10.743203
1006.675781,-9.858022,-9.269188,-5.670123,-8.188172
1006.679688,-1.087417,-12.794585,-8.621321,-11.971169
1006.683594,-9.523228,-8.386048,-9.536927,-6.507318
1006.687500,-7.884288,-3.821519,-7.184015,-6.522116
1006.691406,-0.986389,-3.922652,-9.154266,-6.780608
1006.695312,-4.620599,-7.682904,6.475544,-1.643203
1006.699219,-6.169260,-5.445707,-4.907007,1.979390
1006.703125,-0.649619,7.109959,1.853461,0.248502
1006.707031,7.619730,6.071490,3.492624,3.335826
1006.710938,3.161872,12.904231,-0.462123,6.620439
1006.714844,5.721759,7.325290,5.575292,12.401513
1006.718750,7.260179,7.808096,11.979461,2.822347
1006.722656,9.128539,13.417793,14.524875,10.392738
1006.726562,11.120459,15.101902,13.717094,8.522264
1006.730469,6.584556,7.543147,2.845664,9.972470
1006.734375,6.458434,6.475477,9.664435,12.824069
1006.738281,7.542264,3.203989,2.535509,5.552767
1006.742188,10.204319,2.946901,0.092777,3.076645
1006.746094,0.076051,1.947619,6.217785,-6.131395
1006.750000,2.094787,2.657832,1.593362,-8.078515
1006.753906,-5.532957,-6.381416,-3.010761,0.257198
1006.757812,-1.272537,-0.715006,-3.451119,-8.569523
1006.761719,-4.792783,-6.890411,-7.292308,-1.599228
1006.765625,-8.834261,-16.906587,-2.090979,-6.226091
1006.769531,0.790896,-10.460419,-0.524832,-8.961000
1006.773438,-13.659958,-11.301069,-5.961386,-4.471854
1006.777344,-8.399065,-10.062460,-10.997322,3.309096
1006.781250,-11.141412,-12.537174,-4.515485,-7.837245
1006.785156,-8.700717,-7.679461,-1.017179,-8.252612
1006.789062,0.938883,-4.020063,-6.430444,-6.623048
1006.792969,-8.639666,0.011073,-1.650598,1.309290
1006.796875,-7.487948,-1.429687,2.273835,1.933554
1006.800781,2.983170,2.652412,-0.171748,-5.768774
1006.804688,4.681259,4.245182,-1.910870,-1.764619
1006.808594,-1.888236,6.267066,4.808301,9.881076
1006.812500,5.483074,4.493955,4.397203,5.428047
1006.816406,9.790019,13.137021,5.865587,7.939677
1006.820312,11.215074,7.814856,3.986910,5.087301
1006.824219,12.180916,19.964049,12.453884,19.016295
1006.828125,10.895188,11.251837,2.690785,-1.086787
1006.832031,14.737708,2.374413,7.764353,11.386989
1006.835938,9.673152,9.623072,10.078232,10.280615
1006.839844,-1.019094,-2.758117,8.098371,9.159749
1006.843750,5.711051,9.814747,-1.992151,2.362833
1006.847656,6.115013,-2.948780,-0.566865,2.617669
1006.851562,2.568079,-2.158030,-1.446653,1.852948
1006.855469,-8.556194,-9.863736,2.040499,2.078778
1006.859375,-5.994209,-5.247025,-12.780948,-3.913815
1006.863281,-10.732442,-4.813187,-14.801503,-2.663546
1006.867188,-14.166473,-9.824431,-9.190458,-10.491480
1006.871094,-14.506491,-21.278285,-9.082588,-4.830688
1006.875000,-14.524682,-6.781777,-4.775547,-18.049342
1006.878906,-2.591231,-11.891000,-10.869631,-11.684962
1006.882812,-8.730181,-6.284425,-7.120306,-7.283974
1006.886719,-7.858760,-0.413068,0.873115,-5.458095
1006.890625,1.619909,-8.666471,-1.197585,1.602234
1006.894531,-3.114661,-5.141233,2.124766,-9.448200
1006.898438,-3.262469,8.157452,-3.645907,-0.770840
1006.902344,-1.691241,9.313788,1.752785,-2.776829
1006.906250,7.287100,2.668439,-0.544997,-0.463433
1006.910156,6.329731,6.271240,5.593949,10.041347
1006.914062,7.125278,9.463646,16.005577,6.495049
1006.917969,14.446741,4.234157,12.371247,14.115982
1006.921875,9.979385,13.822121,16.363834,9.437956
1006.925781,10.834481,4.279241,11.763190,8.375450
1006.929688,7.626346,8.682963,5.333383,8.146848
1006.933594,11.385697,9.405865,10.376666,10.937314
1006.937500,3.768570,5.797163,11.239535,9.798252
1006.941406,2.183289,2.431999,10.442879,5.881504
1006.945312,9.198676,1.701051,5.260637,7.255443
1006.949219,4.129194,-0.346608,5.753368,5.531705
1006.953125,-3.718781,-0.860693,-1.492820,-3.852746
1006.957031,-6.729657,-7.788618,-7.605812,1.116103
1006.960938,-1.745572,-5.556133,-4.960621,-7.894632
1006.964844,-9.234226,-5.011017,-3.152596,-8.928698
1006.968750,-10.201141,-14.782509,-12.117417,-11.292416
1006.972656,-10.338417,-16.070599,-7.668626,-9.466497
1006.976562,-11.588662,-5.726253,-13.330189,-10.891606
1006.980469,-7.441852,-5.698490,-7.954592,-7.812056
1006.984375,-8.491065,-8.052229,-9.072744,-3.201975
1006.988281,-6.348169,-12.822162,-10.178563,-10.206309
1006.992188,-0.454904,-8.864207,-3.580721,-1.960837
1006.996094,-0.225176,-1.960545,-2.567163,-6.194422
1007.000000,2.054773,-2.602856,-2.693518,-0.084856
1007.003906,6.614555,8.168664,3.143018,9.396362
1007.007812,5.055915,2.724100,5.706560,5.273134
1007.011719,2.726265,10.062334,4.658070,8.377136
1007.015625,0.374465,9.210846,0.221248,10.766497
1007.019531,12.820347,14.077020,6.199900,14.093643
1007.023438,12.508837,10.517268,10.243583,16.756679
1007.027344,4.043971,12.838399,6.556270,16.317513
1007.031250,3.520774,7.522722,11.817220,2.130011
1007.035156,17.527519,3.609500,8.471997,8.259525
1007.039062,7.701845,2.403363,11.107125,1.780243
1007.042969,3.694069,9.014332,-0.238905,7.350864
1007.046875,2.070621,7.996752,0.102767,2.091604
1007.050781,1.115620,-0.047168,4.271085,-1.086628
1007.054688,0.612194,2.941566,5.082870,-4.212615
1007.058594,-9.604436,-3.775483,-9.908647,0.262977
1007.062500,-10.008530,-1.982989,-6.294438,-3.022235
1007.066406,-12.026655,-6.713673,-7.192609,-8.291472
1007.070312,-14.948886,-7.845932,-2.390066,-10.603116
1007.074219,-5.035969,-15.686126,-11.469256,-9.274796
1007.078125,-10.113781,-7.941539,-18.507253,-11.298540
1007.082031,-9.906589,-9.436558,-11.573445,-11.356942
1007.085938,-4.972444,-6.071042,-6.650410,-5.535134
1007.089844,-6.028350,-4.641965,-7.760605,-3.657967
1007.093750,-2.451136,-5.747925,-4.166526,-10.069538
1007.097656,-1.539801,-1.269091,-3.721472,-4.000504
1007.101562,-0.649710,5.432143,0.776686,-3.329292
1007.105469,0.968699,0.928967,6.519439,10.311232
1007.109375,16.740234,15.941391,2.734388,3.648482
1007.113281,5.601490,7.096070,2.204948,9.317611
1007.117188,16.702500,11.535389,12.160822,6.810797
1007.121094,10.538379,6.408643,10.806030,10.726814
1007.125000,9.764900,11.573960,12.488317,7.094868
1007.128906,14.243060,10.000983,9.057625,7.219423
1007.132812,9.199262,2.583396,0.463634,7.983721
1007.136719,5.926576,3.163912,12.910825,11.702101
1007.140625,9.396801,3.929827,-1.376799,0.031060
1007.144531,1.548706,4.919057,-4.326912,5.143534
1007.148438,3.104447,0.185875,1.866027,-7.002686
1007.152344,-0.785627,-8.268089,-6.888707,-3.216970
1007.156250,-4.778373,-0.166197,-3.465266,-3.119028
1007.160156,-7.510359,-7.142183,-10.350914,-9.011592
1007.164062,-10.731770,-12.575791,-9.028788,1.546390
1007.167969,-3.202732,-10.194804,-10.117992,-10.522152
1007.171875,-0.990743,-4.789807,-5.786594,-12.431621
1007.175781,-13.105133,-8.957120,-20.019668,-11.628273
1007.179688,-14.025288,-11.458279,-5.330129,-9.562769
1007.183594,-8.748971,-7.140643,-10.555986,-5.116891
1007.187500,-12.560334,-3.020083,-12.986652,-2.915368
1007.191406,0.629488,-6.307313,-7.053750,1.808768
1007.195312,-2.642893,-2.437384,5.331397,-3.896237
1007.199219,-5.119041,-0.911055,1.259915,5.588730
1007.203125,0.416414,1.686339,-2.911071,8.624312
1007.207031,5.833299,8.235897,3.194296,0.607935
1007.210938,1.629643,9.729732,0.814925,9.875747
1007.214844,6.978472,8.426436,10.391365,5.961993
1007.218750,7.310366,9.309076,14.847165,0.812751
1007.222656,12.423190,12.243887,1.054913,7.984880
1007.226562,6.881402,9.994413,9.842602,15.358171
1007.230469,6.608095,15.628647,10.858929,6.834030
1007.234375,6.692969,12.148980,5.196385,8.619926
1007.238281,10.982058,12.201935,3.025913,4.579455
1007.242188,1.901723,8.162414,-0.088264,1.072240
1007.246094,5.140922,4.783055,1.198548,-4.939755
1007.250000,0.894705,0.894829,-5.539266,-2.297732
1007.253906,-1.796763,-4.406994,-2.228949,3.347146
1007.257812,-10.439964,-4.966763,-2.778521,-3.489659
1007.261719,-12.299791,-5.012381,-4.356626,-11.679483
1007.265625,-8.548365,-6.375473,-4.614923,-10.457380
1007.269531,-13.016145,-15.137316,-9.733692,-8.514763
1007.273438,-9.928636,-16.443530,-4.758472,-15.265171
1007.277344,-16.762167,-8.175022,-10.194803,-9.994163
1007.281250,-9.094447,-3.688221,-3.663010,-7.114686
1007.285156,-1.289671,-13.977669,-5.677863,-12.833258
1007.289062,-4.341065,-6.198957,-4.875682,-4.384039
1007.292969,-11.054010,-10.402179,-5.790972,1.096133
1007.296875,-11.160497,2.458833,-3.121245,2.131137
1007.300781,3.684440,-5.277593,-4.085780,5.363398
1007.304688,3.750174,6.874982,6.726659,9.948014
1007.308594,1.362443,-1.923162,12.179935,4.693502
1007.312500,8.915983,10.465494,6.405834,8.725759
1007.316406,14.705534,15.919243,10.149741,6.951433
1007.320312,4.136792,7.373743,13.327369,7.115949
1007.324219,4.502696,7.773228,12.909499,8.723257
1007.328125,18.103398,4.109291,10.751136,16.233061
1007.332031,13.605681,9.240011,7.784690,9.139548
1007.335938,14.774884,3.813643,7.844047,0.663481
1007.339844,6.265942,7.313116,0.754583,4.125219
1007.343750,7.990732,7.203585,5.682484,-1.860836
1007.347656,13.993837,1.494196,-3.704754,-1.330495
1007.351562,1.256682,3.561177,-2.455629,-8.818364
1007.355469,0.668272,-3.648427,-4.247617,-8.242791
1007.359375,-5.486167,-8.783527,-8.640570,-8.691859
1007.363281,-3.213247,-6.640065,-9.630448,-6.521671
1007.367188,-10.891692,-3.103605,-18.787115,-13.027982
1007.371094,-10.528121,-16.042615,-10.363383,-7.998830
1007.375000,-14.668509,-11.190675,-9.547593,-12.871577
1007.378906,-2.128678,-10.779226,-12.648625,-12.215370
1007.382812,-4.380842,-7.960738,-6.030987,-7.142299
1007.386719,-16.108327,-4.778320,-16.976596,-10.565849
1007.390625,-7.917985,-11.105385,-2.591563,-0.873776
1007.394531,0.400795,-4.132661,2.997610,-1.604660
1007.398438,1.756651,1.278628,-1.309544,-0.574991
1007.402344,-5.913332,-4.134248,1.772607,0.467184
1007.406250,3.079771,10.242583,2.189802,4.415961
1007.410156,9.243234,3.839272,-0.105784,8.672964
1007.414062,3.062708,2.487456,8.124107,9.638486
1007.417969,6.163769,2.866065,4.926484,12.284472
1007.421875,17.522501,16.447353,7.525391,9.279061
1007.425781,10.543867,7.224178,12.968256,9.156445
1007.429688,2.583321,5.319626,7.634345,10.736412
1007.433594,11.919582,4.223202,9.268973,6.369204
1007.437500,0.924254,5.259586,4.395499,9.459973
1007.441406,6.468038,6.694956,3.549396,7.807788
1007.445312,1.129092,3.320880,1.988495,1.133214
1007.449219,3.954124,-3.001380,0.210790,0.024916
1007.453125,2.252762,6.375293,2.647259,-6.930303
1007.457031,-2.741329,-12.507442,2.101557,-12.129377
1007.460938,-5.651405,-5.889087,-5.969051,-3.679705
1007.464844,-5.289918,-12.835491,-2.558150,-3.717894
1007.468750,-9.731150,-10.360507,-9.965197,-8.668440
1007.472656,-12.684826,-6.943649,-13.927186,-5.150571
1007.476562,-11.386885,-12.123235,-20.806274,-5.359631
1007.480469,-8.787888,-8.022160,-7.025824,-9.828572
1007.484375,-8.967013,-6.360035,-19.066408,-12.766295
1007.488281,-5.793462,-4.579413,-4.937137,-14.212256
1007.492188,-6.137831,-7.285267,-6.689323,-3.749107
1007.496094,0.551629,-0.329102,2.521495,-2.006755
1007.500000,-1.538004,-6.407134,1.499971,1.479482
1007.503906,7.727366,3.618720,2.754225,2.793552
1007.507812,6.606960,4.141640,-1.062505,-3.765350
1007.511719,4.722536,4.579221,6.721978,3.994787
1007.515625,7.637091,6.030574,8.625101,9.557296
1007.519531,18.805482,4.089638,13.327534,9.512304
1007.523438,12.787032,10.310589,8.370439,11.345807
1007.527344,10.916728,13.717667,9.598282,12.320456
1007.531250,10.706844,9.774068,13.042906,7.957610
1007.535156,13.144836,10.110111,7.437653,9.600832
1007.539062,5.082220,10.677714,2.858713,0.931464
1007.542969,6.444336,4.428812,5.672934,3.875869
1007.546875,1.645567,-0.650959,2.091195,1.257569
1007.550781,-0.470488,-0.387691,2.757186,0.990885
1007.554688,-1.784629,-5.202557,6.472466,-1.655493
1007.558594,-8.919546,-10.137252,-7.366811,-11.407026
1007.562500,-11.662654,-12.244983,-1.882689,-12.315699
1007.566406,-7.903730,-6.774626,-10.774292,-8.176212
1007.570312,-9.403593,-21.559489,-10.148707,-9.815469
1007.574219,-8.410403,-11.391227,-15.933055,-15.385547
1007.578125,-17.272867,-15.289496,-6.570474,-13.875276
1007.582031,-10.016370,-7.290530,-5.060632,-10.115556
1007.585938,-6.371140,-13.534953,-11.972520,-3.027092
1007.589844,-6.108333,-7.789383,-4.513562,-5.776989
1007.593750,2.150067,-3.766268,3.619677,-2.998078
1007.597656,-5.110666,-7.083709,-2.365846,-0.235183
1007.601562,0.125610,1.716596,14.444046,-6.540069
1007.605469,8.119423,1.432769,11.164616,5.262783
1007.609375,9.672287,6.092159,5.966597,1.908779
1007.613281,3.676871,8.923169,10.339182,10.379978
1007.617188,8.363261,13.348079,8.406957,9.215134
1007.621094,11.297158,7.043766,14.434804,5.835928
1007.625000,8.002460,10.204331,8.800526,6.560145
1007.628906,8.522545,13.748251,12.692446,6.905107
1007.632812,8.096936,7.192038,15.978871,4.445473
1007.636719,6.256221,6.106274,3.165495,8.686463
1007.640625,7.634586,2.862733,7.257151,0.923092
1007.644531,0.049197,-0.387262,1.742738,-2.541370
1007.648438,-0.545888,0.839076,4.220142,-1.357191
1007.652344,-9.883317,-3.716121,-1.983994,-0.617153
1007.656250,-4.571443,-1.540816,-13.011295,-1.058419
1007.660156,-7.265348,-4.592372,-6.067813,4.237509
1007.664062,-12.520993,-0.185011,-5.753126,-7.302741
1007.667969,-4.180464,-9.112264,-9.114327,-13.509399
1007.671875,-12.621941,-7.980607,-8.847708,-10.966393
1007.675781,-3.695536,-11.965439,-6.893739,-12.408408
1007.679688,-17.325805,-5.517195,-3.831554,-10.834074
1007.683594,-12.820121,-9.220536,-16.153932,-11.138956
1007.687500,-7.668662,-5.571143,-7.585857,-7.232590
1007.691406,-8.976151,-1.227085,-4.691771,-3.561331
1007.695312,-4.265191,-5.677888,-5.526973,3.533528
1007.699219,4.324170,0.371316,-0.321660,-1.815398
1007.703125,-0.474978,1.459325,0.245072,4.246387
1007.707031,9.263494,-3.820585,7.301795,6.777172
1007.710938,3.990958,5.547569,6.639121,1.121214
1007.714844,7.225583,8.833372,2.697385,7.201296
1007.718750,9.091852,13.200835,7.070041,2.807857
1007.722656,11.312409,5.866397,8.537691,8.636798
1007.726562,8.717454,11.063816,4.012373,6.801714
1007.730469,15.184747,5.173685,13.502172,10.161521
1007.734375,6.446531,6.966817,13.307474,15.492254
1007.738281,9.837765,5.837151,8.223164,8.995125
1007.742188,4.886885,-2.113135,3.165295,-1.839573
1007.746094,4.390168,2.604943,5.551382,12.072146
1007.750000,-2.332907,2.123608,2.696113,3.958213
1007.753906,1.570420,3.765313,-4.142673,0.650354
1007.757812,-2.177636,-3.264094,0.054291,-3.742276
1007.761719,-6.861279,-3.085172,-8.287873,-1.010295
1007.765625,-10.793369,-4.646546,-5.788304,-5.976575
1007.769531,-6.778206,-14.535324,-10.842579,-11.936214
1007.773438,-5.664469,-8.359031,-12.031952,-11.414599
1007.777344,-10.955044,-11.178517,-5.805400,-12.036672
1007.781250,-8.219863,-6.933408,-6.713893,-13.755553
1007.785156,-13.234507,-11.557175,-2.005008,-4.295024
1007.789062,-12.371797,-4.435341,-7.108464,-6.845649
1007.792969,-1.408442,-4.353451,-1.470427,0.316233
1007.796875,0.797377,2.790366,-4.999952,-1.983317
1007.800781,-2.362339,-1.243212,0.129661,3.228329
1007.804688,1.159632,0.756150,-1.100695,-2.003116
1007.808594,8.968474,8.980517,-0.291184,9.366916
1007.812500,8.294955,12.814718,-0.513159,6.300715
1007.816406,10.518546,13.104170,6.470119,9.889832
1007.820312,10.844255,4.220812,9.521281,11.513259
1007.824219,11.416380,20.685073,14.647915,5.414634
1007.828125,15.077640,2.848425,14.258502,5.165673
1007.832031,8.670468,9.947804,9.653755,6.167408
1007.835938,16.495378,12.144451,3.918975,4.556296
1007.839844,9.430652,6.051572,4.355244,10.493342
1007.843750,5.504963,-1.698000,4.626466,3.229872
1007.847656,5.377089,-4.596050,0.574910,6.107203
1007.851562,-2.549799,-3.775141,-5.640765,1.246958
1007.855469,-5.854674,-2.296113,-11.637814,-3.502354
1007.859375,-7.664448,-6.550257,-5.307169,-3.168742
1007.863281,-8.529893,-2.581752,-12.104351,-10.444958
1007.867188,-6.270976,-1.597364,-9.827484,-7.146921
1007.871094,-10.600862,-14.504970,-8.357963,-12.222549
1007.875000,-13.855844,-7.845798,-11.530648,-9.460948
1007.878906,-8.497201,-6.721844,-12.427980,-8.401938
1007.882812,-9.117143,-9.034156,-4.907897,-18.967764
1007.886719,-11.840044,-4.566851,-6.379269,-1.374806
1007.890625,2.854882,-10.433250,-6.162813,-8.782478
1007.894531,-7.777233,-2.671371,-2.197842,-9.691642
1007.898438,-0.075069,-2.526987,2.186706,-3.466302
1007.902344,-2.335841,3.741922,0.250821,-0.074177
1007.906250,1.345825,5.025928,3.480292,5.942795
1007.910156,6.122269,3.394278,9.664904,11.673415
1007.914062,9.159342,4.191540,8.381890,9.055963
1007.917969,7.298435,-2.067502,6.313791,12.247151
1007.921875,11.842901,9.775274,3.411840,11.672026
1007.925781,9.591144,7.519192,14.172651,0.126515
1007.929688,9.100147,-2.127819,22.929950,7.449905
1007.933594,8.474044,8.525186,4.683599,11.557914
1007.937500,6.944054,1.250853,1.550130,3.736619
1007.941406,6.926557,6.063164,9.465676,8.242725
1007.945312,2.693632,2.699808,-3.811100,6.766796
1007.949219,-5.891565,5.068418,-0.304700,-0.509823
1007.953125,1.305797,-2.074721,-10.337573,5.715035
1007.957031,-5.631036,1.532184,-1.085543,-2.528081
1007.960938,-3.508155,-9.077469,-2.132407,-6.375631
1007.964844,-6.709899,-7.634991,-1.829644,-9.574234
1007.968750,-6.615303,-10.933410,-10.817995,-6.926530
1007.972656,-8.056756,-12.358847,-8.524894,-7.487098
1007.976562,-12.346931,-11.594380,-11.663213,-5.805262
1007.980469,-7.800274,-11.212325,-9.441120,-10.653757
1007.984375,-9.664959,-9.053363,-6.370433,-11.713466
1007.988281,-3.739877,-2.740933,-11.114261,-15.127126
1007.992188,-5.066821,-3.504209,-4.324570,0.618225
1007.996094,-3.194631,-6.854968,-0.605795,0.724389
1008.000000,-6.479699,2.249398,1.862486,-7.727492
1008.003906,1.469581,-4.612490,0.775934,7.148555
1008.007812,5.756332,2.060729,0.131736,7.545373
1008.011719,5.378489,10.497486,6.068221,4.839151
1008.015625,10.521757,4.972695,3.442977,10.860431
1008.019531,8.874760,8.865300,14.422303,6.628043
1008.023438,14.913428,22.660909,19.388150,11.652661
1008.027344,8.731271,4.837247,11.103683,11.940412
1008.031250,10.258444,10.850416,10.348100,8.765564
1008.035156,8.194255,1.923330,14.093197,3.021254
1008.039062,7.448526,3.303393,9.926768,-2.684112
1008.042969,6.526522,10.957782,4.523795,5.937748
1008.046875,-3.972864,2.888731,-3.238047,0.464860
1008.050781,-1.809554,-6.222263,-4.597989,-3.626246
1008.054688,-0.265234,11.802913,-7.438807,-5.696969
1008.058594,-10.671218,-0.885831,2.754104,0.911787
1008.062500,-10.297671,-9.458504,-12.217263,-0.748592
1008.066406,-2.736843,-4.939401,-8.886143,-1.577035
1008.070312,-19.856111,-8.407919,-11.283894,-9.980060
1008.074219,-11.705207,-12.967002,-11.599094,-15.245312
1008.078125,-14.466119,-17.447269,-3.713712,-2.737806
1008.082031,-7.926698,-12.278651,-11.018720,-6.300584
1008.085938,-3.711355,-8.550798,-5.391603,-6.132084
1008.089844,-4.229638,-4.127395,-7.996863,-6.003770
1008.093750,-1.646270,0.072504,-6.347063,-7.524993
1008.097656,-2.845653,2.755799,-2.436516,4.562105
1008.101562,0.537835,1.723248,-5.632768,-3.704183
1008.105469,10.351816,9.005214,6.592378,-0.247679
1008.109375,8.171035,5.923077,4.182251,11.308444
1008.113281,10.291329,13.263988,8.219591,8.796625
1008.117188,3.849200,12.201261,10.287640,13.905730
1008.121094,10.506003,10.633237,17.770995,5.850179
1008.125000,15.895049,7.825888,14.523773,13.189397
1008.128906,11.744758,11.919493,9.780658,4.375551
1008.132812,12.953389,-1.347423,7.786309,7.556954
1008.136719,12.455720,9.152147,8.247129,6.407890
1008.140625,6.853015,2.509371,4.374372,-3.605717
1008.144531,-3.411645,1.745934,7.978722,7.773521
1008.148438,1.305036,-6.538108,2.340390,-2.011474
1008.152344,4.348834,1.824924,-3.277933,-3.194959
1008.156250,-7.407193,1.772185,-2.556218,-2.485085
1008.160156,-2.479798,-2.643553,-6.684762,-6.959187
1008.164062,-8.764193,-5.637143,-12.344317,-5.019538
1008.167969,-7.764227,-6.009780,-9.049148,-10.598364
1008.171875,-4.656524,-13.201465,-8.393390,-13.653365
1008.175781,-6.981805,-17.749773,-11.911851,-11.076904
1008.179688,-14.486255,-7.952632,-11.965397,-9.127331
1008.183594,-13.117206,-9.773107,-4.289789,-11.461464
1008.187500,-3.570542,-6.689372,-7.361764,-3.438539
1008.191406,-5.772738,-3.421178,-2.738811,-1.496422
1008.195312,-2.678279,-3.474934,1.146965,-1.637865
1008.199219,0.303134,1.227382,2.077718,-2.681734
1008.203125,3.871398,1.030738,9.938513,2.645814
1008.207031,8.315011,3.787082,-0.474971,1.233452
1008.210938,12.442645,4.594833,8.005842,9.974741
1008.214844,10.553145,15.988446,8.910111,7.611064
1008.218750,14.662135,10.373143,13.713285,3.303978
1008.222656,8.816696,8.758175,14.236218,14.086835
1008.226562,2.516740,0.608897,0.545620,8.123116
1008.230469,15.085601,5.309313,14.572495,-0.166865
1008.234375,6.946321,7.876646,3.731169,9.649676
1008.238281,5.481329,3.495285,11.111971,15.235702
1008.242188,4.870020,1.461375,-1.322058,6.586837
1008.246094,2.183573,3.774201,3.450677,-3.502302
1008.250000,-1.174377,1.941735,-3.251737,0.667835
1008.253906,4.584539,-6.888770,-1.379848,2.621871
1008.257812,-3.148097,-3.887720,-12.444703,-3.257873
1008.261719,-3.220220,-5.289730,-11.749210,-9.852836
1008.265625,-1.460549,-11.266243,-11.272666,-7.971319
1008.269531,-4.707089,-12.416230,-8.201106,-11.690150
1008.273438,-9.036448,-8.982985,-14.976115,-7.942077
1008.277344,-8.735619,-7.849525,-17.142321,-15.354051
1008.281250,-7.925334,-5.529840,-14.436386,-10.179721
1008.285156,-8.325638,-13.153411,-2.807730,-11.018601
1008.289062,-7.807946,-4.830444,-2.841338,-8.059768
1008.292969,0.426229,-2.390390,-4.755843,-5.294524
1008.296875,-2.256487,4.580151,-1.267543,1.287838
1008.300781,-1.999989,-6.672201,-0.197967,5.136532
1008.304688,6.026216,7.365488,-5.903819,7.380501
1008.308594,6.880235,7.083409,-1.051645,5.055218
1008.312500,11.818880,3.022226,7.586437,15.186092
1008.316406,6.805011,11.104013,10.515529,11.949221
1008.320312,7.723468,10.632842,3.691142,6.107120
1008.324219,10.462008,3.421142,12.988808,13.787847
1008.328125,17.810533,8.857753,6.599529,4.268614
1008.332031,14.271206,4.982729,10.838930,9.235954
1008.335938,10.929318,3.325151,7.971278,7.708619
1008.339844,7.446077,10.423881,1.657568,10.187560
1008.343750,10.995622,3.545224,4.881157,4.635859
1008.347656,-0.326678,4.196437,4.352779,3.168242
1008.351562,4.662403,2.494698,0.165205,0.934587
1008.355469,-3.780038,-0.345687,-2.988232,-3.853081
1008.359375,-6.348704,-8.891520,-9.765526,-6.031221
1008.363281,-8.288850,-9.840395,-1.693989,3.488434
1008.367188,-1.884385,-10.031244,-5.272943,-6.167751
1008.371094,-14.531803,-8.603802,-8.373748,-11.013769
1008.375000,-12.529696,-6.752266,-5.999347,-4.544008
1008.378906,-7.775359,-4.804676,-15.623527,-12.435706
1008.382812,-7.656978,-10.500020,-7.453419,-4.556564
1008.386719,-7.719364,-12.934072,-10.439302,-6.805105
1008.390625,-8.933568,-5.406260,-3.213167,3.984164
1008.394531,2.401327,0.911332,-2.756492,-1.813219
1008.398438,-7.058016,-1.163935,-6.717487,-0.138556
1008.402344,8.990337,2.910761,2.814766,-4.479954
1008.406250,2.207207,0.915309,-4.517845,6.588622
1008.410156,5.102328,-6.382597,3.477460,5.678228
1008.414062,10.970998,7.906021,2.511446,6.100714
1008.417969,14.245572,10.759025,12.665103,12.209342
1008.421875,11.237677,12.066877,22.415260,13.165338
1008.425781,9.382102,18.205217,12.647003,9.664309
1008.429688,4.924241,9.788117,3.851765,7.687331
1008.433594,20.196809,11.480547,15.800558,6.752171
1008.437500,1.534767,-2.223351,15.403970,5.179449
1008.441406,7.477413,5.262086,4.233542,2.569105
1008.445312,10.873294,6.968237,4.358034,5.276420
1008.449219,-0.110766,0.215855,-6.193850,1.430508
1008.453125,0.747251,-11.052489,-1.418552,2.260676
1008.457031,-5.831614,1.349123,0.302391,-0.821445
1008.460938,-1.904316,-2.746739,-3.601965,-12.608469
1008.464844,-8.180181,-9.061251,-11.928631,-6.950528
1008.468750,-13.761571,-12.294129,-11.831816,-12.644826
1008.472656,-10.582659,-8.953083,-5.450982,-12.185574
1008.476562,-8.218409,-13.171273,-5.285384,-3.940542
1008.480469,-15.348256,-12.403634,-11.902274,-11.299523
1008.484375,-4.071457,-16.531121,-8.213320,-3.683779
1008.488281,-1.997294,-11.485406,-3.344443,-5.745315
1008.492188,-8.067132,-5.090580,-1.870428,-5.928098
1008.496094,-3.595934,-8.212001,-6.171300,-4.414648
1008.500000,-7.050363,-7.389082,-2.133400,-0.921007
1008.503906,3.583187,2.379460,-3.434280,7.504947
1008.507812,8.612390,-0.175027,6.486223,12.255782
1008.511719,-2.321968,12.140913,5.671279,3.658239
1008.515625,13.781437,14.409696,5.217849,9.214667
1008.519531,1.230204,7.780328,9.561217,2.774085
1008.523438,15.326915,9.943096,10.664265,13.255732
1008.527344,10.114962,3.632051,15.657506,6.321574
1008.531250,5.947081,6.837195,4.959475,6.828824
1008.535156,9.759883,4.841837,10.515222,5.603395
1008.539062,6.588884,8.447015,5.245059,15.590015
1008.542969,5.533093,5.380682,0.261345,10.268543
1008.546875,-7.774950,0.395173,6.459682,-2.675814
1008.550781,3.889719,-0.352355,-1.746482,2.122473
1008.554688,-1.373159,1.083415,-2.940912,-5.020754
1008.558594,-3.934161,-7.705000,-3.893204,-3.848550
1008.562500,-3.955005,0.732160,-5.209517,-6.369306
1008.566406,-12.041171,-10.243691,-7.962037,-9.762390
1008.570312,-9.749613,-4.481453,-10.706081,-7.236563
1008.574219,-7.972579,-11.927430,-12.265846,-11.028007
1008.578125,-16.174052,-8.969089,-4.915690,-14.417196
1008.582031,-9.631478,-9.785980,-5.889130,-12.698727
1008.585938,-2.732476,-13.865222,-7.375430,-12.825019
1008.589844,-3.995302,-2.767632,-7.358621,3.030572
1008.593750,-3.424766,1.331432,-3.600079,-6.347357
1008.597656,-0.789093,-4.526433,-4.746145,-0.470313
1008.601562,1.621711,4.299124,-2.364949,-0.186830
1008.605469,4.177285,4.398132,0.734954,-0.531567
1008.609375,7.420765,3.785839,2.418989,8.613114
1008.613281,12.109242,13.084615,1.487187,1.161952
1008.617188,5.455810,3.357425,9.097296,10.140233
1008.621094,7.784696,9.088632,10.893987,10.016382
1008.625000,12.642175,21.954628,15.042885,9.567142
1008.628906,11.385839,3.091733,12.721264,13.134923
1008.632812,2.934801,12.750710,13.267978,4.766451
1008.636719,7.990802,15.195323,8.172855,-2.473511
1008.640625,-2.664817,12.660335,6.126784,4.963756
1008.644531,7.391372,1.420485,-0.930894,-1.441061
1008.648438,12.713747,10.677821,2.743095,-4.339985
1008.652344,1.726847,-2.156532,-2.880987,9.171975
1008.656250,-6.998266,-6.303816,-4.064091,-4.502590
1008.660156,-3.083783,0.194542,-1.331423,-10.690426
1008.664062,-7.824341,-0.910040,-3.552396,-10.680844
1008.667969,-7.179560,-6.500872,-5.563934,-7.687027
1008.671875,-9.521968,-8.689754,-19.837370,-11.514597
1008.675781,-9.627157,-6.842301,-9.485031,-12.921491
1008.679688,-11.132624,-14.213779,-16.622084,-5.798314
1008.683594,-3.534730,-9.051820,-15.751628,-10.553561
1008.687500,-2.275346,-13.382421,-14.012441,-8.748737
1008.691406,-0.785987,-6.373730,-2.953349,-5.767455
1008.695312,-4.312454,-5.418331,-0.529563,-2.662305
1008.699219,-4.274760,-8.070126,-4.401193,3.432878
1008.703125,0.130224,1.288426,-0.590298,1.125750
1008.707031,3.028242,1.933794,5.180276,4.851445
1008.710938,8.513449,4.342593,3.771847,4.136178
1008.714844,12.766800,9.445177,1.832962,5.933060
1008.718750,5.583695,2.385663,9.706873,6.844018
1008.722656,15.397025,11.644880,5.780396,10.884270
1008.726562,13.472437,13.052113,6.494503,6.477711
1008.730469,2.598119,4.420784,9.723806,6.203291
1008.734375,0.935310,10.527447,8.360501,12.900314
1008.738281,11.882275,3.397665,7.737998,8.946753
1008.742188,7.985084,2.733099,2.423030,-1.564387
1008.746094,2.969127,0.771869,-1.328871,-1.402860
1008.750000,5.604886,2.996984,-5.471721,-0.250227
1008.753906,4.340244,-6.436723,-2.142822,2.565627
1008.757812,-1.402431,-0.716204,-4.749479,-10.083321
1008.761719,-6.599656,-9.965486,2.629858,-11.624104
1008.765625,-9.586872,-6.138013,-3.993749,-7.497426
1008.769531,-8.893268,-5.668918,-12.382200,-8.079526
1008.773438,-11.813087,-3.010508,-8.599230,-11.158704
1008.777344,-11.171878,-6.871222,-9.393788,-12.945842
1008.781250,-10.444229,-11.484992,-7.614213,0.212620
1008.785156,-8.414622,-1.714282,-18.996245,-9.195948
1008.789062,1.134654,-3.579086,-4.096832,-2.282724
1008.792969,-8.630483,-9.511388,-1.095994,-4.646216
1008.796875,-1.847824,0.243547,-2.322390,-2.947393
1008.800781,3.773885,2.053259,8.182309,2.719305
1008.804688,4.305125,1.182380,-1.456935,2.686866
1008.808594,5.179796,9.294650,5.075202,10.031813
1008.812500,6.220600,3.247125,3.922103,2.789368
1008.816406,12.448383,5.636383,10.798061,16.452545
1008.820312,9.944597,13.800584,7.247069,7.679791
1008.824219,4.382069,17.521296,6.908243,9.109842
1008.828125,9.769156,8.681294,9.146659,8.080948
1008.832031,13.020524,15.243720,7.638251,8.649152
1008.835938,16.476118,9.572554,1.121544,6.187029
1008.839844,1.774816,6.439018,4.697004,6.164629
1008.843750,5.222693,0.983379,0.069138,4.032927
1008.847656,-1.351515,1.947356,-2.483696,0.108367
1008.851562,-5.399790,2.090810,1.094407,-1.610726
1008.855469,-1.882298,0.419157,-0.124445,-8.752467
1008.859375,-7.308576,-12.501486,-6.618529,-1.680845
1008.863281,-3.447206,-7.895374,-0.536029,-7.451282
1008.867188,-8.393073,-15.564632,-2.462869,-11.228609
1008.871094,-8.562301,-9.664070,-5.184690,-11.110855
1008.875000,-11.082232,-18.796658,-19.579899,-13.578210
1008.878906,-6.467936,-9.646989,-8.022597,-11.389489
1008.882812,-12.454381,-3.507361,-11.094544,-12.768182
1008.886719,-8.737790,-1.909358,-10.555271,-4.227971
1008.890625,-1.401284,-4.181846,1.093648,-7.581618
1008.894531,-4.000311,-8.977456,-4.888459,-0.367919
1008.898438,-0.343552,2.418291,0.257924,3.254778
1008.902344,2.611225,14.161495,1.184545,6.387396
1008.906250,0.124795,10.594662,2.426108,9.171824
1008.910156,2.662548,5.587628,9.434925,6.634703
1008.914062,3.782206,10.957657,4.855894,6.774579
1008.917969,7.397462,13.174575,13.870307,5.858025
1008.921875,6.558848,6.974154,7.115581,4.282116
1008.925781,11.591067,11.084244,7.528895,16.413627
1008.929688,6.918153,4.456241,8.948906,10.936355
1008.933594,12.275597,5.727883,11.641823,13.016872
1008.937500,7.877227,7.448628,8.246180,1.159874
1008.941406,-2.201336,-1.972096,9.655657,8.269842
1008.945312,-1.651479,1.312269,-1.975634,-0.892198
1008.949219,-1.436190,-4.611763,3.460936,2.292472
1008.953125,-2.733081,-3.523199,-6.391947,-4.409437
1008.957031,-9.393153,-3.205969,-6.032323,-2.073889
1008.960938,-3.826486,-6.181480,-5.331154,-3.210738
1008.964844,-5.382275,-16.385306,-10.815642,-11.978491
1008.968750,-6.757374,-12.397465,-12.864233,-9.451851
1008.972656,-16.062944,-12.784645,-9.293188,-2.942037
1008.976562,-5.153752,-17.260038,-12.522309,-9.077973
1008.980469,-16.643668,-11.251714,-5.163939,-10.330618
1008.984375,-2.333767,-2.091588,-5.324816,-5.766156
1008.988281,-10.790085,-12.747823,-11.523073,-5.890685
1008.992188,-12.530837,-12.250882,0.569272,4.002433
1008.996094,5.115410,-4.672335,1.228558,-5.563760
1009.000000,-1.906960,-4.193992,5.021824,5.943731
1009.003906,0.001204,-0.414111,3.461569,-1.343692
1009.007812,5.474198,0.248929,3.553050,1.434528
1009.011719,10.867138,16.331796,-0.786210,3.615076
1009.015625,3.378196,3.814919,11.756849,12.685190
1009.019531,14.746918,14.388909,10.281324,8.602971
1009.023438,13.260298,9.778723,6.410143,4.593976
1009.027344,11.693233,10.311418,11.608538,14.322524
1009.031250,12.863760,7.890317,9.501362,9.330197
1009.035156,10.439473,11.811807,6.443596,4.392193
1009.039062,2.436158,8.336464,0.155343,12.633314
1009.042969,11.702153,1.048969,7.984327,-2.057682
1009.046875,3.472050,-1.379527,-7.846752,-3.415231
1009.050781,-5.028675,1.072510,-2.935299,-1.699426
1009.054688,-5.588941,1.740604,-2.512458,-6.023111
1009.058594,-7.954323,-4.874488,-2.418985,-7.166964
1009.062500,-12.402362,-10.886022,-9.468064,-4.843130
1009.066406,-8.922240,-4.689574,-11.541337,-8.798927
1009.070312,-8.068002,-10.600826,-20.337313,-3.258208
1009.074219,-16.619406,-9.776692,-13.828851,-12.978793
1009.078125,-10.489747,-4.192644,-14.441176,-21.174402
1009.082031,-10.966823,-5.028394,-9.020582,-13.660861
1009.085938,-10.706236,-8.008219,-1.954152,-13.834811
1009.089844,-8.328129,-6.796609,-7.657351,-6.913168
1009.093750,-0.924073,-5.932894,-0.188284,1.846926
1009.097656,-2.358312,-6.636914,-3.705106,-0.988950
1009.101562,0.176270,0.601282,7.890801,7.415923
1009.105469,-2.538702,1.027356,-0.988214,-3.515725
1009.109375,8.340711,4.237416,10.244242,0.818382
1009.113281,2.745424,9.222190,12.908496,1.279512
1009.117188,9.785415,10.164205,6.383945,10.385382
1009.121094,17.199441,8.909630,3.798605,10.965682
1009.125000,7.763485,12.453970,6.454413,15.767389
1009.128906,8.106295,18.402843,6.024795,12.280796
1009.132812,6.080372,15.049579,15.726506,6.876977
1009.136719,15.106061,4.791148,11.502861,0.927327
1009.140625,10.072105,0.304176,7.861316,1.839860
1009.144531,-6.947197,3.289955,5.405640,13.485849
1009.148438,0.993138,-4.612197,7.275863,6.485857
1009.152344,4.418728,-3.115963,-3.683504,-1.639105
1009.156250,-5.162344,-15.891672,-4.658879,-6.381916
1009.160156,-5.717264,-11.723283,-8.464733,-13.155124
1009.164062,-5.037602,-9.255635,-8.080054,-2.795409
1009.167969,-11.079524,-13.096432,-3.336959,-5.026590
1009.171875,-11.696359,-7.963295,1.028338,-12.581224
1009.175781,-8.020151,-13.172770,-6.730136,-11.915580
1009.179688,-14.185649,-11.538754,-8.045040,-4.497193
1009.183594,-8.365185,-14.641581,-9.120181,-12.574652
1009.187500,-9.169571,-12.466763,-4.911729,-4.818375
