timestamp,TP9,AF7,AF8,TP10
1000.000000,-4.446724,-3.430917,-3.329804,5.628843
1000.003906,0.411265,-4.470890,6.678512,2.890042
1000.007812,10.520663,4.887754,2.020197,9.970783
1000.011719,12.587139,5.560580,12.265886,4.030223
1000.015625,8.739055,14.251312,3.687998,1.493839
1000.019531,6.468557,9.469043,7.743470,10.151968
1000.023438,9.345646,11.732905,4.941512,4.041230
1000.027344,10.124281,9.785525,13.482475,5.857469
1000.031250,1.207949,13.522835,10.958142,7.543522
1000.035156,5.223223,8.278155,8.279364,10.792892
1000.039062,7.990692,1.192127,-0.966588,4.777030
1000.042969,4.907747,1.434465,14.644909,1.881074
1000.046875,-1.019175,-1.576923,14.968612,5.054500
1000.050781,-0.646383,-0.131618,-6.997354,7.027383
1000.054688,-5.948964,-6.182322,1.642460,-6.885633
1000.058594,3.666056,-5.863669,-8.245006,-8.079092
1000.062500,-7.420409,-1.347710,-3.742764,-4.872503
1000.066406,-2.704090,-14.059114,-2.552058,-6.161590
1000.070312,-11.342190,-14.820612,-17.515788,-14.221584
1000.074219,-6.201541,-12.681810,-13.095695,-3.860133
1000.078125,-8.463590,-7.297247,-9.949197,-7.455257
1000.082031,-3.248524,-10.920097,-10.744800,-7.730695
1000.085938,-12.947287,-7.213516,-9.715657,-15.481544
1000.089844,-2.483017,-10.637697,-9.689950,-6.742470
1000.093750,-2.234465,-2.481179,-5.590818,-0.846979
1000.097656,0.651229,-2.140604,-2.263408,-5.415001
1000.101562,-3.101103,4.787831,9.767349,-0.620697
1000.105469,6.017633,-2.491826,1.782111,4.987765
1000.109375,3.155046,4.329985,11.461457,9.653300
1000.113281,3.542519,11.648497,5.852006,12.470815
1000.117188,9.583002,15.135751,4.792782,8.663090
1000.121094,7.298663,8.234891,16.043942,9.954464
1000.125000,16.379090,7.211619,9.851337,7.212814
1000.128906,6.678977,5.281845,13.075968,6.775739
1000.132812,3.942798,12.865073,22.018022,7.283958
1000.136719,1.659583,7.729866,2.897841,7.933501
1000.140625,6.834510,13.054471,7.502467,5.841567
1000.144531,8.273375,7.481290,6.177900,9.126446
1000.148438,2.910791,1.164569,7.179821,-0.197643
1000.152344,-0.890229,3.314038,-1.984448,1.904841
1000.156250,-6.036417,3.860752,2.330859,-9.826732
1000.160156,-6.795610,-6.274062,-1.311565,-7.379422
1000.164062,-6.843371,-6.299631,-4.551274,-11.801999
1000.167969,-5.934295,-7.878987,-3.707812,-10.949747
1000.171875,-12.333123,-16.189431,-7.599050,-10.412179
1000.175781,-8.329848,-21.762476,-12.432877,-14.002093
1000.179688,-8.348878,-7.753739,-12.237233,-10.680439
1000.183594,-10.818219,-8.389695,-10.168793,-7.734062
1000.187500,-2.222100,-5.476678,-7.998432,-8.900894
1000.191406,2.710578,-2.137473,-7.266386,-5.155569
1000.195312,-0.785997,-9.424009,-4.267843,-4.973430
1000.199219,-0.606252,-1.011697,2.478398,-2.146194
1000.203125,-2.667598,-1.669000,-4.832567,7.432615
1000.207031,5.305208,2.187188,4.114518,7.841330
1000.210938,8.629421,3.462723,2.130376,11.280877
1000.214844,5.890551,12.771170,13.084080,10.086692
1000.218750,8.588528,12.086743,11.523350,10.123953
1000.222656,5.358972,19.276381,7.637756,10.690595
1000.226562,12.757167,6.316517,12.130035,14.387437
1000.230469,7.591943,5.758207,13.008690,11.146423
1000.234375,12.393248,4.774257,14.424189,7.695409
1000.238281,-0.685247,0.801745,1.904419,12.248847
1000.242188,-1.541932,4.093436,4.729815,3.104988
1000.246094,-3.302180,3.144087,9.467186,0.046120
1000.250000,-1.617758,4.027126,-5.892749,4.419161
1000.253906,-1.778714,0.214244,0.583726,2.735506
1000.257812,-10.130287,-6.912840,-3.411765,-3.743692
1000.261719,0.282959,-11.913498,-6.686226,-4.129179
1000.265625,-16.934900,-10.335292,-6.349691,-11.208822
1000.269531,-5.711451,-9.648548,-2.128637,-8.108418
1000.273438,-13.549125,-11.626786,-18.888892,-12.332768
1000.277344,-8.843867,-20.901236,-9.824688,-9.937387
1000.281250,-10.506463,-6.637326,-13.019892,-11.652311
1000.285156,-5.504278,3.104621,-10.388034,-12.954498
1000.289062,-8.174210,-2.095487,-4.724255,-5.944589
1000.292969,-3.629391,-3.727177,-7.716798,-6.377571
1000.296875,-4.596007,5.414894,1.571063,5.978691
1000.300781,5.077824,-3.630864,4.438496,4.008435
1000.304688,-1.809430,2.275322,5.687492,-6.967453
1000.308594,1.388797,-0.224117,3.069212,5.006979
1000.312500,12.003642,5.709412,2.052065,1.697951
1000.316406,5.108448,14.501444,4.532635,13.403268
1000.320312,18.422833,3.513975,11.165071,4.614942
1000.324219,12.102999,8.003289,14.386884,7.472300
1000.328125,7.032398,12.105269,14.296431,5.813013
1000.332031,14.549779,5.084476,9.496419,12.364806
1000.335938,-2.120083,9.852137,8.102887,14.735328
1000.339844,1.898316,-0.327255,0.152163,2.516014
1000.343750,5.891335,-0.535519,2.572000,11.881399
1000.347656,2.834628,11.435277,3.006560,7.122756
1000.351562,-0.121453,0.352624,-11.348079,-4.148178
1000.355469,-4.620608,-12.144055,-6.891308,-5.088855
1000.359375,-8.974257,-9.337734,-12.849586,-2.012281
1000.363281,-15.385011,-5.308503,-9.089617,-11.175989
1000.367188,-16.946179,-11.499975,-16.056289,1.138372
1000.371094,-6.586118,-3.369124,-10.660248,-7.219202
1000.375000,-16.024520,-8.563492,-12.615032,-5.439020
1000.378906,-0.985160,-8.959414,-2.207580,-18.271281
1000.382812,-12.915943,-7.691295,-7.522899,-8.475366
1000.386719,-13.740539,-5.937209,-7.445554,-8.480069
1000.390625,-9.143041,-8.869659,-2.084667,-13.195392
1000.394531,2.117766,-13.848636,1.382403,-5.881526
1000.398438,-0.077613,-3.193724,-4.423189,1.486833
1000.402344,1.837597,-2.989556,5.383672,5.033173
1000.406250,-0.447140,3.788436,6.688841,4.931644
1000.410156,9.007567,10.943891,3.447096,-1.422746
1000.414062,5.291862,13.343069,2.537824,7.521655
1000.417969,3.413880,6.306946,13.764869,6.505266
1000.421875,10.862279,9.518944,11.965539,0.190574
1000.425781,15.791940,7.644082,10.669955,13.987673
1000.429688,14.786576,16.417289,16.361562,7.712560
1000.433594,10.771561,11.911873,10.413767,12.733965
1000.437500,7.717556,-0.632266,6.527281,6.191125
1000.441406,4.918911,-3.264043,-0.330681,9.475231
1000.445312,-0.670181,2.931258,-0.061994,4.468446
1000.449219,0.420616,-0.326987,-0.028585,0.982404
1000.453125,-8.866663,-2.736495,1.388947,-0.967133
1000.457031,-11.395813,-10.135276,-4.580962,-7.114203
1000.460938,-8.626559,-5.468661,-4.914359,-2.705593
1000.464844,0.503611,-12.388672,-3.192678,-6.169978
1000.468750,-7.527185,-12.342458,-9.960767,-11.620467
1000.472656,-8.845397,-4.667341,-15.142836,-6.633116
1000.476562,-8.761651,-5.760005,-2.281166,-4.731546
1000.480469,-6.081752,-8.940089,-9.511425,-7.539793
1000.484375,-5.563766,-7.844533,-6.619494,-16.256545
1000.488281,-8.175488,-1.501142,-4.177338,1.055238
1000.492188,-9.865060,-4.299057,-10.193576,-1.949720
1000.496094,0.439811,-2.396000,-3.801009,-6.918439
1000.500000,0.652386,6.311657,-1.639580,0.905718
1000.503906,-3.140766,6.256900,0.369410,-1.189483
1000.507812,-3.861841,9.764514,5.378921,3.622303
1000.511719,10.691016,5.880390,16.517468,3.390622
1000.515625,-0.467699,13.913140,1.186795,3.452673
1000.519531,12.063604,9.433130,8.327909,10.228175
1000.523438,13.013700,8.493963,20.160078,7.667411
1000.527344,7.008793,8.907537,11.176482,10.513851
1000.531250,9.762477,9.445479,7.112209,5.231871
1000.535156,3.935631,6.365476,6.612682,13.378502
1000.539062,3.562717,7.939735,9.761033,1.665781
1000.542969,7.370818,-1.921012,11.319891,-3.897702
1000.546875,3.540694,0.748669,5.124879,-0.312616
1000.550781,3.226284,-5.197840,1.045499,-1.041044
1000.554688,-7.784714,-4.939620,-1.738533,2.541345
1000.558594,-3.431326,-9.981731,-4.248675,1.404738
1000.562500,-7.874867,-8.460675,-4.960383,-1.096296
1000.566406,-15.389078,-8.598656,-11.624156,-5.216265
1000.570312,-11.388262,-12.130999,-8.935549,-7.173503
1000.574219,-9.943490,-12.210083,-9.679356,-13.275346
1000.578125,-9.577466,-10.819056,-7.136471,-6.677882
1000.582031,-0.833233,-1.317556,-12.227262,-10.608290
1000.585938,-5.694069,-7.065129,-5.152418,-12.664576
1000.589844,-5.902840,-7.173400,1.801339,-4.918644
1000.593750,-8.771009,-1.238405,-5.300897,-6.828626
1000.597656,0.501317,-7.469400,-1.235379,1.047374
1000.601562,2.871592,-2.629808,-1.932263,3.700497
1000.605469,4.887752,0.815527,7.065778,-0.002213
1000.609375,2.843218,9.166630,4.725900,6.379725
1000.613281,7.529459,7.789461,6.336355,0.680352
1000.617188,17.597497,7.652400,8.029034,10.068751
1000.621094,9.922788,14.059739,9.643269,11.289755
1000.625000,6.952206,9.168281,11.294846,9.711114
1000.628906,9.689317,5.364090,13.897696,9.224542
1000.632812,9.894442,10.345754,9.728188,8.433749
1000.636719,4.411170,9.240621,5.829011,6.083011
1000.640625,2.431084,7.508298,9.661996,4.139749
1000.644531,-0.411680,7.418490,1.426894,4.311989
1000.648438,1.429278,2.879599,-5.652563,-3.213841
1000.652344,0.245925,8.327369,-7.706879,-4.513682
1000.656250,-5.266227,-1.302097,-4.611973,-6.623993
1000.660156,-3.188889,1.578385,-8.943495,-5.855763
1000.664062,-4.704335,-6.716067,-3.178440,1.871072
1000.667969,-14.638568,-10.118830,-2.373399,-7.930319
1000.671875,-17.061961,-10.894722,-5.784542,-9.561403
1000.675781,-2.269760,-9.058984,-8.475635,-7.934410
1000.679688,-8.637781,-15.260912,-11.651447,-15.662892
1000.683594,-16.626303,-9.244150,-5.098058,-11.367937
1000.687500,-13.233774,-13.793149,-3.151922,-4.647402
1000.691406,-3.314212,-9.757934,-3.555236,-6.840343
1000.695312,-1.861829,1.980886,-4.030703,-4.271655
1000.699219,-5.125251,1.883011,1.412194,-2.536493
1000.703125,5.959758,7.166052,6.544455,9.703378
1000.707031,-0.392349,9.947435,7.804039,4.514350
1000.710938,0.870325,6.919511,9.045489,4.944343
1000.714844,12.029511,2.299758,5.620926,14.733647
1000.718750,14.447642,8.369054,9.581774,10.007564
1000.722656,11.729075,10.557131,8.403980,8.277646
1000.726562,13.467679,1.306277,10.314224,8.675859
1000.730469,13.276245,9.230362,9.503463,13.621188
1000.734375,6.910123,7.058191,7.103931,8.792977
1000.738281,2.504964,5.521379,10.355268,9.878445
1000.742188,6.273639,1.681710,2.821035,9.557966
1000.746094,1.823480,9.413527,-1.010119,0.601333
1000.750000,1.700529,0.853699,-2.511607,3.114737
1000.753906,1.463247,1.782869,-0.332168,-2.189154
1000.757812,-5.250505,-2.434810,1.872005,-4.950409
1000.761719,-6.801942,-10.790251,-1.254850,-7.338190
1000.765625,-13.047677,-1.179615,-8.376081,-5.616709
1000.769531,-8.961849,-8.282723,-10.260817,-13.560787
1000.773438,-6.360527,-9.784001,-10.701480,-16.418882
1000.777344,-7.933771,-8.800186,-13.859325,-6.941311
1000.781250,-8.278528,-9.619521,-8.596425,-16.116548
1000.785156,-5.931786,-1.932213,-10.644763,-8.662331
1000.789062,-3.410574,-14.266574,-10.527526,-15.743554
1000.792969,-1.842129,-0.251085,-4.604322,-7.781371
1000.796875,-5.191686,-1.291349,5.234847,3.595163
1000.800781,-4.007347,1.416711,3.417864,2.121531
1000.804688,10.023911,0.834672,6.201464,-1.035243
1000.808594,7.962530,5.645790,-2.275227,7.537853
1000.812500,3.141794,6.122589,6.638111,3.217801
1000.816406,11.135226,2.677824,4.341734,8.267389
1000.820312,5.014073,1.979544,8.632230,4.292436
1000.824219,8.329468,6.252380,15.236724,10.822780
1000.828125,17.659369,9.762689,9.778103,11.325869
1000.832031,13.122549,16.502762,2.608660,7.987611
1000.835938,10.108280,9.000333,4.178486,3.481905
1000.839844,0.341316,5.367918,4.726338,14.900544
1000.843750,-2.038760,6.908206,1.337184,5.371515
1000.847656,0.054017,4.519272,3.564953,3.728118
1000.851562,-9.065775,-3.602033,5.362652,-1.540959
1000.855469,-5.289008,-4.351598,5.109499,-4.425704
1000.859375,-13.088193,-3.134687,-6.636186,-7.754633
1000.863281,-5.465499,-5.504935,-8.275834,-9.413534
1000.867188,-0.122435,-10.228593,-5.788856,-18.052761
1000.871094,-5.575525,-12.516158,-11.120099,-6.952359
1000.875000,-11.116326,-6.707009,-11.998253,-0.530359
1000.878906,-10.701622,-7.575106,-11.246811,-0.147182
1000.882812,-9.619459,-8.424049,-4.997748,-9.580503
1000.886719,-9.980956,-5.511060,-12.376522,-0.746846
1000.890625,-8.897603,-11.508996,-5.312707,5.101726
1000.894531,-4.899086,-3.644952,-3.512884,-3.612050
1000.898438,0.402568,0.729530,0.539002,-2.097750
1000.902344,-4.380729,9.705228,7.268210,1.589953
1000.906250,1.921187,8.988695,2.141032,8.657650
1000.910156,5.642971,0.263026,8.122250,5.980385
1000.914062,9.199013,7.301884,7.593188,12.400381
1000.917969,12.348225,5.928900,13.266884,12.308062
1000.921875,11.602086,8.579819,3.666607,14.687328
1000.925781,14.225813,2.850985,13.809950,12.464517
1000.929688,4.973708,11.920558,8.162823,5.938130
1000.933594,14.404538,3.745215,0.520159,6.349165
1000.937500,3.138687,3.516345,2.041154,8.014747
1000.941406,1.170711,2.857425,8.034358,4.731879
1000.945312,9.134290,2.984683,3.399952,7.592195
1000.949219,2.133456,-3.722368,-2.865879,4.669851
1000.953125,-4.485890,-5.834934,5.746212,-3.527984
1000.957031,-2.739688,-0.051179,-7.668405,-0.399121
1000.960938,-3.568219,0.233404,-6.238385,-3.760038
1000.964844,-12.934143,-15.686095,1.205999,-9.254254
1000.968750,-5.619188,-10.789767,-4.210806,-4.136723
1000.972656,-6.465162,-16.791575,-8.819829,-10.501290
1000.976562,-9.500634,-8.993477,-16.561074,-7.854897
1000.980469,-9.535910,-7.512029,-9.320406,-2.936645
1000.984375,-5.003648,-7.514427,-5.936486,-4.422317
1000.988281,-5.490435,-8.634621,-9.648726,-0.660078
1000.992188,-10.953253,-2.526748,-10.288514,-1.972912
1000.996094,-8.590692,-9.317384,-3.386458,-3.701697
1001.000000,-1.420808,-0.747836,3.829681,8.134707
1001.003906,0.181300,3.579217,-6.870409,6.755762
1001.007812,1.819243,2.469762,1.050269,7.053618
1001.011719,12.255270,11.036091,4.976776,12.216259
1001.015625,9.086254,5.856542,17.325486,4.742477
1001.019531,13.776215,6.755131,12.286310,12.977021
1001.023438,9.502535,7.066630,7.296179,13.546036
1001.027344,7.764743,11.285740,12.647159,12.240388
1001.031250,5.922456,6.398005,5.463600,11.964443
1001.035156,9.949256,11.583581,6.569891,0.672164
1001.039062,11.831142,11.622003,6.780860,14.248202
1001.042969,1.765014,5.161816,2.348328,5.317295
1001.046875,6.922045,4.594949,2.952396,4.658954
1001.050781,-0.302229,-3.760875,-2.181700,-1.052437
1001.054688,-1.914773,-7.365396,-6.047443,-9.601334
1001.058594,-6.739552,-11.906695,-10.881297,-10.936601
1001.062500,-5.211890,-6.585778,-3.518691,-13.374015
1001.066406,-7.600576,-5.821304,-12.030815,-6.421379
1001.070312,-8.998089,-5.856094,-9.101061,-0.831770
1001.074219,-10.621112,-11.079895,-1.006170,-5.900878
1001.078125,-13.542704,-15.291244,-8.791244,-8.126598
1001.082031,-13.996705,-15.373584,-8.646491,-14.339026
1001.085938,-10.437630,-5.377867,-3.466788,-8.322412
1001.089844,-4.894073,0.370687,-8.630903,-6.369673
1001.093750,-13.855484,2.731140,2.993202,-1.622665
1001.097656,-6.928591,4.424231,-0.241139,-5.323604
1001.101562,2.675568,1.429211,1.406186,2.950438
1001.105469,1.147664,4.148593,12.697113,1.684406
1001.109375,6.038331,4.903503,7.071698,7.346740
1001.113281,10.905496,1.809805,11.491934,6.955669
1001.117188,7.543716,14.656927,9.532787,6.005670
1001.121094,5.142632,18.556058,7.529153,6.007071
1001.125000,13.004314,11.607301,7.346000,9.711919
1001.128906,10.461312,3.801646,15.297371,5.207139
1001.132812,6.761543,9.692685,10.522439,8.621776
1001.136719,16.162758,6.157943,3.158292,7.077417
1001.140625,1.217235,6.328133,6.424677,15.939693
1001.144531,5.413395,2.703959,1.634667,7.375113
1001.148438,1.418409,5.506557,-4.385043,-0.365457
1001.152344,-1.273428,1.676318,2.013772,-5.585067
1001.156250,-3.472437,1.345125,-2.343520,-0.262093
1001.160156,-4.558546,-14.142125,-3.981529,-10.158129
1001.164062,-9.556192,-11.838945,-11.925078,-12.228860
1001.167969,-12.323109,0.973068,-9.045448,-2.837945
1001.171875,-11.616896,-12.554357,-15.949796,-8.715369
1001.175781,-6.747189,-9.440865,-6.021582,-13.364920
1001.179688,-8.035589,-16.016361,-10.864478,-16.107596
1001.183594,-10.333932,-6.206530,-3.932322,-7.357569
1001.187500,-3.078668,-0.958048,-4.172261,-9.742079
1001.191406,-12.080751,-1.875764,-4.787745,-6.488940
1001.195312,-7.978891,-5.133406,2.697319,-1.125013
1001.199219,6.339379,-5.419690,-0.255687,-2.601404
1001.203125,5.033277,5.770344,2.606024,5.156822
1001.207031,12.892194,8.812648,9.326456,10.037696
1001.210938,0.443890,12.308562,5.562350,6.990003
1001.214844,8.628090,1.326800,8.163351,1.780826
1001.218750,4.257979,9.883952,6.863505,10.207165
1001.222656,17.426325,9.130078,4.006749,6.315307
1001.226562,16.438235,12.561262,9.985945,11.625999
1001.230469,11.115829,8.412894,9.048098,8.574188
1001.234375,6.370274,13.814657,3.230173,19.503391
1001.238281,9.178654,7.513059,11.647005,9.560709
1001.242188,4.599567,3.436955,1.690093,2.146330
1001.246094,0.188773,-1.266686,4.720925,1.018172
1001.250000,-0.627202,4.928199,-5.315327,-2.252279
1001.253906,0.865601,-3.112867,-6.183569,-1.184032
1001.257812,-5.802268,-4.745844,-11.359400,2.752846
1001.261719,-2.883747,-13.127893,-4.048218,-2.935682
1001.265625,-9.968955,-10.467242,-7.947581,-12.767953
1001.269531,-7.871701,-12.872839,-12.740490,-12.323011
1001.273438,-6.843359,-6.710584,-10.958296,-4.485324
1001.277344,-8.347478,-8.816247,-6.196224,-8.711319
1001.281250,-11.050015,-14.242675,-10.073193,-5.041486
1001.285156,-9.172760,-17.054265,-13.368390,-15.285108
1001.289062,-8.947259,4.519571,-8.943536,-2.108312
1001.292969,-1.243110,5.898023,1.339639,-3.968247
1001.296875,-1.764351,-1.569857,-3.103941,-8.747365
1001.300781,-0.174517,6.698133,-1.338923,2.360558
1001.304688,2.907672,-4.315844,3.640267,1.352846
1001.308594,9.365085,9.318415,4.506877,4.424299
1001.312500,3.463005,10.120722,-0.261596,7.275846
1001.316406,5.389647,7.697132,7.804113,9.756487
1001.320312,10.783868,11.631303,6.609118,13.002632
1001.324219,8.533391,5.207482,9.308241,9.396618
1001.328125,15.095973,10.399155,12.027017,6.035383
1001.332031,2.066559,10.375363,8.628208,7.543036
1001.335938,12.562489,2.294972,10.242997,17.893242
1001.339844,7.111474,5.781603,4.695165,0.328794
1001.343750,-0.786818,0.772547,16.197807,-1.020553
1001.347656,3.738643,-8.020028,0.839940,4.099975
1001.351562,-8.945108,0.805800,-5.426541,4.866603
1001.355469,-2.947698,0.298310,1.453854,-1.081969
1001.359375,1.958908,-9.387574,-8.082175,-3.400094
1001.363281,-14.108376,-11.269896,-2.424415,-8.177456
1001.367188,-6.133015,-9.247550,-8.784355,-6.786484
1001.371094,0.565111,-10.385996,-2.791123,-8.866733
1001.375000,-6.524801,-12.217145,-2.540079,-10.627111
1001.378906,-13.781255,-7.342252,-7.782636,-3.338982
1001.382812,-7.719783,-8.270884,-9.199321,-3.153364
1001.386719,-13.990917,-7.351154,-13.932411,-6.192108
1001.390625,-3.013941,-3.069464,-10.320941,-12.653569
1001.394531,1.931285,-2.806718,2.046495,-4.856679
1001.398438,8.555877,-0.054763,-3.155470,-5.041231
1001.402344,1.234398,0.577261,3.231228,-1.370524
1001.406250,5.245952,1.359834,10.084060,-1.238583
1001.410156,8.564205,5.465700,4.065597,15.686994
1001.414062,8.272122,7.972569,7.597110,8.990981
1001.417969,11.400138,7.446046,9.952504,8.645058
1001.421875,16.451258,13.181273,12.012488,5.406217
1001.425781,7.232837,8.046663,16.570518,5.732182
1001.429688,9.699820,7.442800,7.299438,11.076194
1001.433594,10.784939,10.232984,6.005170,8.339491
1001.437500,3.224692,7.752950,12.267468,3.773138
1001.441406,4.966642,3.506821,11.648256,9.194259
1001.445312,-0.828228,2.379613,0.832820,0.904800
1001.449219,6.443618,7.146041,-1.097870,3.591343
1001.453125,-3.595137,-3.163181,1.628576,-2.646212
1001.457031,-10.560624,-1.352242,-2.919225,-8.523329
1001.460938,2.585503,-10.191726,-5.349868,-10.140380
1001.464844,0.596225,-6.353297,-12.456368,-4.922504
1001.468750,-9.512746,-9.080361,-12.799173,-0.725928
1001.472656,-14.849445,-1.878393,-8.326101,-4.031481
1001.476562,-11.053379,-10.168025,-3.731357,-13.811887
1001.480469,-14.766739,-0.357824,-11.626005,-5.508433
1001.484375,-16.188538,-11.744533,-6.709373,-19.678450
1001.488281,-3.505983,-7.110855,-5.168597,-2.020703
1001.492188,-6.308652,0.495496,-11.880303,4.041310
1001.496094,-5.427397,-3.433454,-5.776442,-0.278405
1001.500000,1.413949,-4.249115,-0.480761,-5.821723
1001.503906,2.543240,8.913160,0.761857,4.179768
1001.507812,5.083004,0.147905,5.762439,2.596704
1001.511719,6.134276,9.571721,3.474957,7.928855
1001.515625,11.012571,11.344801,3.492309,8.373632
1001.519531,10.139964,2.451289,8.966920,7.279064
1001.523438,11.684813,11.234802,10.813904,10.795361
1001.527344,11.263893,11.243164,8.951203,8.326751
1001.531250,12.232340,16.143607,10.140580,0.081727
1001.535156,2.454832,6.942296,3.290939,17.636114
1001.539062,6.083349,3.644381,8.722351,6.779605
1001.542969,-1.548627,2.535953,4.090832,5.772875
1001.546875,6.412712,0.520360,3.549849,-2.052097
1001.550781,-4.373239,6.164048,0.746607,8.417011
1001.554688,-0.440116,-5.038811,-5.407407,1.247299
1001.558594,-6.209637,-4.194936,-4.637589,-7.450599
1001.562500,-19.952934,-5.663130,-9.006921,-9.759712
1001.566406,-8.621874,-7.540953,-11.348401,-2.550090
1001.570312,-6.840886,-7.260363,-10.076437,-8.976440
1001.574219,-9.363740,-14.353884,-15.028654,-8.662281
1001.578125,-2.344650,-13.547299,-12.865480,-18.445261
1001.582031,-12.095088,-17.769327,-6.976910,-13.903838
1001.585938,-9.472121,-9.826941,-2.391250,-12.979835
1001.589844,-15.176849,-4.188649,-9.806375,-4.202079
1001.593750,-3.403178,-2.154232,-3.054585,-10.437325
1001.597656,-4.664907,-0.734205,-6.290132,-5.046251
1001.601562,-5.712941,-1.079415,4.994411,4.388637
1001.605469,2.133434,10.721452,5.523432,0.929288
1001.609375,4.461511,9.008536,4.399240,4.046452
1001.613281,3.369415,9.302361,11.310779,7.243349
1001.617188,6.520735,9.639617,15.667906,14.543604
1001.621094,9.612115,11.225434,11.684865,9.096467
1001.625000,7.120603,12.891758,14.652208,12.208052
1001.628906,17.984415,15.136252,20.599133,12.752830
1001.632812,5.217038,8.477783,9.284186,10.106591
1001.636719,10.803181,1.241663,11.113424,9.974564
1001.640625,5.145340,3.965404,2.624418,13.342210
1001.644531,8.721575,-2.372439,5.045044,6.916084
1001.648438,-2.954614,-0.132620,0.006926,4.298236
1001.652344,3.372068,-3.467974,6.857164,2.626783
1001.656250,0.300850,-1.929149,-3.162879,-9.523868
1001.660156,-3.733417,-11.292974,-8.141379,-2.510301
1001.664062,-8.682772,-3.596900,-5.980680,-8.988421
1001.667969,-12.421356,-2.997086,-10.956915,-11.278485
1001.671875,-5.807965,-11.708713,-11.392195,-8.989374
1001.675781,-11.747768,-12.975791,-7.672430,-10.546711
1001.679688,-4.483793,-9.366687,-17.806395,-17.072537
1001.683594,-8.037599,-8.706823,-6.537168,-8.185658
1001.687500,-12.051776,-1.163113,-5.417255,-7.219421
1001.691406,1.610196,-9.987867,-7.484277,-0.856420
1001.695312,-6.665763,1.519919,1.440288,-3.372381
1001.699219,6.925449,-0.930421,0.835245,2.254985
1001.703125,4.602696,1.034056,5.791494,4.608296
1001.707031,0.150332,3.371254,5.314640,-0.847182
1001.710938,7.014113,4.979140,-0.146598,13.836302
1001.714844,5.816801,11.635986,6.416983,3.388999
1001.718750,6.711886,5.335011,10.494984,10.887916
1001.722656,16.475148,12.222647,8.332508,7.600871
1001.726562,11.066254,14.746951,5.142469,7.678987
1001.730469,5.089441,12.046381,0.910786,11.805675
1001.734375,9.910763,10.661107,8.260742,9.903402
1001.738281,2.961050,3.037432,10.263110,9.197968
1001.742188,5.291875,11.349152,7.582445,5.639852
1001.746094,3.414625,4.254878,3.172211,0.245939
1001.750000,4.808888,0.360307,-3.923439,-0.959489
1001.753906,-0.624845,-8.368589,-3.704061,-3.578823
1001.757812,-4.257471,-2.850381,-8.690396,-6.605315
1001.761719,-0.976843,-6.349686,-12.766165,-7.735541
1001.765625,-1.585021,-3.615804,-11.861360,-4.432020
1001.769531,-15.231610,-6.796121,-10.050386,-11.462324
1001.773438,-15.552497,-7.376915,-7.607844,-1.114683
1001.777344,-11.292539,-4.604146,-5.828793,-13.299134
1001.781250,-9.587354,-5.787123,-9.401668,-15.862409
1001.785156,-6.257948,-6.100660,-6.707482,-3.834403
1001.789062,-10.564004,-11.295410,-3.499853,-4.482049
1001.792969,-0.534763,-5.946059,-6.259393,-0.611816
1001.796875,0.289235,5.040614,5.709932,3.825493
1001.800781,2.151024,-3.206617,0.915650,2.940711
1001.804688,6.908793,-0.672571,0.814411,-2.384267
1001.808594,1.467111,1.950373,3.262236,8.703809
1001.812500,11.763771,6.635552,2.438438,11.249912
1001.816406,3.057069,9.643039,4.976270,8.966604
1001.820312,20.091377,11.190829,14.599247,14.347347
1001.824219,12.603065,11.138239,7.531496,7.090584
1001.828125,8.791349,9.145969,14.977255,4.370465
1001.832031,14.099876,11.297884,12.873959,1.665045
1001.835938,2.393894,2.509503,8.208218,4.149141
1001.839844,4.883058,4.523805,6.493783,8.125531
1001.843750,-0.328096,6.327482,0.613352,3.978297
1001.847656,-0.457721,2.101170,0.104204,2.274898
1001.851562,-1.354779,-0.962323,0.592570,-9.596853
1001.855469,-4.866369,-11.136454,2.101090,2.523086
1001.859375,-5.753636,-13.616374,-14.596111,-10.931756
1001.863281,-10.111351,-5.692015,-1.484554,-11.706407
1001.867188,-3.180973,-6.362585,-12.549291,-1.077313
1001.871094,-9.101658,-9.829455,-8.504572,-10.971578
1001.875000,-10.186059,-4.144656,-11.864864,-11.307193
1001.878906,-9.477174,-9.554532,-7.069999,-16.951241
1001.882812,-8.509438,-9.394616,-11.642450,-5.930509
1001.886719,-10.455645,-2.611838,-9.040801,-7.940584
1001.890625,-4.365818,0.786912,-6.841238,-4.137631
1001.894531,-9.137130,-4.951967,-3.038160,2.430082
1001.898438,5.423093,-3.008976,-3.867955,0.029995
1001.902344,-0.143756,-0.575330,1.903336,3.040767
1001.906250,-1.070412,2.937721,5.795129,2.226138
1001.910156,9.740989,8.742965,-0.209375,4.666881
1001.914062,8.325402,6.737272,14.818722,4.530247
1001.917969,10.687509,11.631552,5.237524,8.457459
1001.921875,13.790909,5.713528,16.109563,5.545428
1001.925781,12.911610,11.137879,14.433133,11.548927
1001.929688,9.291430,11.521315,8.941900,5.514444
1001.933594,5.544627,15.479485,11.612115,3.364596
1001.937500,5.968183,0.935768,12.401398,12.047619
1001.941406,6.629455,9.929829,2.716344,4.359427
1001.945312,3.689597,-1.459597,3.585215,-3.927297
1001.949219,3.055587,8.145486,1.664038,0.078303
1001.953125,-2.958214,-2.813549,-1.002736,-2.411494
1001.957031,1.118222,-2.418937,-9.604435,-8.785537
1001.960938,-6.317460,-3.354535,-3.235021,-7.934443
1001.964844,-10.798646,-9.849860,-5.115820,-11.788400
1001.968750,-6.633621,-14.133410,-12.941244,-7.277794
1001.972656,-7.591320,-1.427585,-10.093312,-2.380756
1001.976562,-8.476608,-9.065931,-7.464337,-12.738097
1001.980469,-4.840538,-20.026924,-19.467217,-4.520497
1001.984375,-13.203969,-4.272345,-4.506305,-0.676748
1001.988281,-7.764464,-8.234099,-1.127492,-7.283813
1001.992188,-6.717332,-7.726848,-6.035106,-3.644559
1001.996094,-0.282739,0.056818,-1.456640,2.230974
1002.000000,0.841460,1.339645,-6.186787,-5.748388
1002.003906,4.148950,-2.014075,8.140472,4.622050
1002.007812,0.794565,-2.207256,4.327580,-1.969226
1002.011719,7.576603,-6.817213,4.801309,7.106328
1002.015625,5.055308,8.046037,11.201229,11.453269
1002.019531,12.992592,11.914195,13.007840,12.512075
1002.023438,4.824209,10.637562,12.931940,13.030200
1002.027344,8.639794,4.222217,6.094183,7.727496
1002.031250,6.931617,8.927814,9.323312,4.121279
1002.035156,5.352686,5.645808,10.514562,3.526606
1002.039062,5.929148,6.732196,7.321993,6.976973
1002.042969,6.655437,2.008119,5.016744,1.013671
1002.046875,5.637812,7.296566,2.236496,0.392469
1002.050781,2.459082,-6.734176,3.072666,2.543089
1002.054688,-8.949990,-10.213680,-3.307279,-4.770536
1002.058594,-8.523479,0.360340,-5.486595,1.203560
1002.062500,-3.446073,-11.504804,-7.670911,-8.554534
1002.066406,-12.956653,-11.686899,-8.837928,-6.582891
1002.070312,-11.472413,-10.304970,-4.288403,-8.352524
1002.074219,-6.878808,-12.444007,-4.471189,-7.680903
1002.078125,-11.803627,-13.234924,-8.796889,-7.948575
1002.082031,-9.402221,-5.148522,-9.767980,-7.272365
1002.085938,-7.430461,-8.161771,-5.736438,-2.101091
1002.089844,-5.151759,-8.503881,-10.787409,-3.105730
1002.093750,-3.341207,-5.972799,-5.592568,-3.948783
1002.097656,-0.499564,-3.991557,-4.717746,3.118402
1002.101562,-0.083952,5.504263,-8.422047,-0.254295
1002.105469,2.339093,0.342096,4.529378,2.626256
1002.109375,7.695062,4.874332,9.083597,4.406775
1002.113281,2.066267,7.400835,6.458003,5.391694
1002.117188,6.548593,4.065712,6.898340,7.676824
1002.121094,14.931204,17.092863,8.276009,9.793485
1002.125000,-1.513585,15.125348,13.847773,6.817188
1002.128906,12.216082,9.887311,9.092417,8.933790
1002.132812,-0.178274,11.521292,4.749723,14.181338
1002.136719,8.329612,7.112915,9.747544,1.750743
1002.140625,7.004664,9.236076,-1.038589,8.235671
1002.144531,3.143696,2.010690,5.639531,3.209571
1002.148438,4.037053,-2.418901,-5.099078,1.052757
1002.152344,1.987735,-2.135420,-3.272552,3.598889
1002.156250,-1.489505,-3.531711,-7.259347,-5.366714
1002.160156,-4.639570,0.672103,-9.043171,-6.243226
1002.164062,-5.063571,-12.530653,-4.025655,-5.175698
1002.167969,-5.895610,-13.304724,-14.153910,-13.007477
1002.171875,-8.901744,-6.896750,-10.609691,-8.883142
1002.175781,-0.402999,-13.088321,-12.432006,-14.711551
1002.179688,-3.299092,-3.134951,-7.995176,-11.933032
1002.183594,-10.614225,-9.291890,-20.788358,-14.017279
1002.187500,-8.062248,-9.856836,-11.741630,-2.160180
1002.191406,-11.667607,-4.695451,-5.747563,-7.699887
1002.195312,0.457504,-7.097335,-8.374050,-13.736748
1002.199219,-4.171580,1.774300,-4.108693,-7.027905
1002.203125,-11.496543,0.603588,1.134927,-2.881723
1002.207031,4.101484,5.456376,2.317214,1.853574
1002.210938,9.078239,8.570689,2.560035,4.064367
1002.214844,12.953861,8.241537,4.847178,6.033622
1002.218750,4.682196,2.859860,8.405045,12.244984
1002.222656,9.618589,12.068885,8.835216,1.805193
1002.226562,11.477675,6.861621,6.732768,10.312371
1002.230469,13.266270,7.093932,4.247250,8.714058
1002.234375,12.971491,12.764369,11.767760,12.440842
1002.238281,9.046723,0.007629,7.395605,4.265136
1002.242188,10.364621,5.851823,-2.930708,5.789276
1002.246094,2.098299,15.124982,4.784665,-5.427566
1002.250000,-1.578140,-2.911000,2.729486,-2.945847
1002.253906,-3.199082,-6.677018,-11.943706,-4.890525
1002.257812,-5.679823,-4.225866,-5.783049,-5.294540
1002.261719,-12.359960,-12.261037,-4.789845,-6.138187
1002.265625,-1.140233,-5.412420,-12.294614,-15.590954
1002.269531,-10.413147,-5.336705,-13.492637,-10.887163
1002.273438,-6.875187,-8.273467,-6.909684,-10.623925
1002.277344,-8.669119,-14.017956,-9.798502,-18.293677
1002.281250,-8.572069,-3.341748,-10.068107,-6.497881
1002.285156,-2.409792,-7.838769,-6.258128,-0.566952
1002.289062,-10.175274,-11.194865,-11.866234,-5.864273
1002.292969,-1.743605,-5.912877,-8.908510,-6.596227
1002.296875,-2.807263,-6.005110,0.284145,-7.269373
1002.300781,-1.237152,-2.421701,1.808245,-1.088182
1002.304688,-2.957314,0.662732,4.815288,-0.169833
1002.308594,9.876681,5.196460,7.090282,12.529074
1002.312500,6.406370,10.339397,13.516200,8.808453
1002.316406,6.961071,6.432712,2.505637,11.516199
1002.320312,11.998550,14.866100,13.161684,9.912260
1002.324219,7.048806,9.058329,11.229907,10.018036
1002.328125,3.689040,5.940719,17.149171,13.787305
1002.332031,9.071997,3.360337,5.904235,3.669651
1002.335938,2.174869,7.716496,8.047267,7.206522
1002.339844,10.465275,1.654871,5.010088,11.018623
1002.343750,1.213128,11.003021,6.030525,10.045294
1002.347656,5.751200,-4.478230,9.728333,1.722914
1002.351562,-3.612814,1.201583,4.102157,-5.366979
1002.355469,-3.540166,3.517932,-1.310602,-2.186207
1002.359375,-4.185020,-8.261713,-7.276854,-4.602709
1002.363281,-7.837098,-6.615886,-4.522849,-3.992764
1002.367188,-7.027372,-6.922182,-5.406316,-8.870199
1002.371094,-7.673972,-12.268290,-17.094568,-9.619402
1002.375000,-10.902147,-7.728225,-5.547475,-4.147880
1002.378906,-14.094135,-10.396214,-15.480261,-3.203078
1002.382812,-6.922888,-11.144434,-9.848002,-11.743026
1002.386719,-10.483992,-7.451759,-6.704033,-8.415771
1002.390625,-1.782243,-7.652749,-0.737537,-13.436495
1002.394531,-7.460053,-1.646765,-10.264705,-0.033176
1002.398438,-7.535466,1.901255,-4.037235,5.190639
1002.402344,2.750199,-3.264016,-1.965771,-1.413031
1002.406250,-1.216450,1.091424,-2.122371,2.125460
1002.410156,7.298520,9.626131,0.878360,5.546276
1002.414062,12.241501,7.412100,8.313999,4.336177
1002.417969,6.321584,12.252736,10.666569,7.005431
1002.421875,8.380685,17.633725,8.982022,14.876330
1002.425781,0.074609,6.025065,9.390396,6.694270
1002.429688,7.804660,2.502310,5.262990,13.111496
1002.433594,3.729808,8.649086,9.010133,7.364421
1002.437500,13.286923,8.831511,6.343576,5.568175
1002.441406,5.520312,6.468748,-2.886276,5.431371
1002.445312,6.850634,2.595826,4.388769,-0.026564
1002.449219,4.585116,-2.547545,7.374046,3.305115
1002.453125,-5.336308,-5.827612,2.814909,-3.071061
1002.457031,2.865493,-7.337031,-11.348971,-5.257256
1002.460938,-7.540262,-6.443053,-6.972058,-2.764369
1002.464844,-6.408367,-3.596093,-5.244851,-20.324605
1002.468750,-1.113481,-0.889017,-8.243638,-11.729736
1002.472656,-10.083641,-8.507065,-7.157274,-11.743925
1002.476562,-8.035352,-15.420676,-9.561664,-7.492354
1002.480469,-8.096896,-5.923467,-7.588726,-13.433683
1002.484375,-19.428510,-8.485149,-14.054360,-6.061321
1002.488281,-5.637330,-9.980275,-1.984485,-6.804916
1002.492188,-4.941674,-12.633138,-7.933779,-6.824247
1002.496094,-0.482183,0.319245,0.482955,0.135103
1002.500000,7.186902,-7.561572,0.563292,2.096924
1002.503906,2.876156,4.037608,3.591352,-2.887231
1002.507812,-3.055297,11.072509,-3.364303,1.904147
1002.511719,0.303301,4.653765,5.846349,1.427325
1002.515625,12.673674,4.143900,12.598684,7.656327
1002.519531,13.636480,11.829460,17.182722,13.168628
1002.523438,12.164529,9.937914,5.545645,2.463397
1002.527344,13.595038,11.618530,8.696666,5.547064
1002.531250,11.982038,10.237707,12.290680,9.064545
1002.535156,5.406125,5.046108,-4.109810,10.345255
1002.539062,5.462586,7.723284,5.642783,1.534617
1002.542969,0.611957,3.327134,1.855001,0.857771
1002.546875,1.821288,1.276568,2.319463,-3.880741
1002.550781,-3.057363,0.724010,7.880343,-4.096916
1002.554688,-3.468838,-4.117438,-7.772024,-6.717139
1002.558594,-7.581187,-12.519624,-2.288423,-5.598068
1002.562500,-0.883269,-9.610644,-4.220275,-1.260289
1002.566406,-7.024669,-11.344809,-10.002693,-4.365921
1002.570312,-12.482750,-9.769412,-6.156516,-15.115096
1002.574219,-12.561297,-14.243482,-11.719225,-8.062482
1002.578125,-10.810925,-6.526241,-7.262520,-10.129293
1002.582031,-5.668569,-11.291158,-8.410981,-4.373281
1002.585938,-13.638211,-6.524367,-0.407166,-5.996959
1002.589844,-3.501188,-5.089274,-6.046888,-5.823446
1002.593750,-9.059225,-4.587294,0.923361,-5.252912
1002.597656,-2.051064,-2.292913,-0.644428,-2.514278
1002.601562,3.378980,-2.946789,-1.201892,3.927710
1002.605469,4.703154,5.360127,1.639616,6.251601
1002.609375,1.711456,3.565782,8.621426,9.464093
1002.613281,4.166895,10.698326,8.434655,6.260595
1002.617188,9.525424,9.820108,11.797816,7.688452
1002.621094,6.074954,10.298978,8.898715,5.742647
1002.625000,10.390766,13.443845,1.800896,7.632373
1002.628906,9.594519,6.578259,4.106444,13.444945
1002.632812,9.935992,9.393006,10.164988,16.793506
1002.636719,-0.312811,11.763054,8.276918,8.416094
1002.640625,7.749100,-1.996229,8.993396,6.937393
1002.644531,9.646765,6.835339,8.263902,1.068351
1002.648438,5.730823,-4.178232,0.488731,-2.143666
1002.652344,-0.041603,-9.357042,9.709485,-4.084975
1002.656250,0.925525,-1.140963,-4.334150,-6.988462
1002.660156,-6.134171,-7.782100,-2.165195,-5.370228
1002.664062,-7.497477,-9.146888,-11.174691,-11.668673
1002.667969,-10.891774,-9.285349,-9.364926,-12.558002
1002.671875,-4.417018,-8.306722,-9.020452,-10.720682
1002.675781,-14.629745,-15.474893,-8.107441,-10.324707
1002.679688,-5.923278,-16.481625,-12.203714,-6.489904
1002.683594,-6.331786,-7.986259,-6.340948,-10.453917
1002.687500,-9.893900,-8.769089,-7.682949,-5.805901
1002.691406,-7.469361,-5.209716,-3.995454,-2.321086
1002.695312,-4.734770,-9.997621,-7.421536,4.977964
1002.699219,0.144068,-4.414032,1.275060,-5.779011
1002.703125,-0.067373,11.478148,-1.406584,-2.483039
1002.707031,13.758310,-3.923485,7.375333,1.343030
1002.710938,-0.409813,8.326719,6.737348,6.794728
1002.714844,12.576230,6.896682,7.571552,2.446796
1002.718750,5.659507,13.378773,4.583519,10.953868
1002.722656,15.464918,9.905090,10.142953,8.859860
1002.726562,13.986863,11.384172,15.294287,14.817928
1002.730469,8.510173,10.886795,14.380182,11.736969
1002.734375,9.772594,8.895338,10.543148,5.450280
1002.738281,8.036205,7.881936,2.118973,5.713885
1002.742188,7.124209,-1.102583,2.315311,-3.247218
1002.746094,0.200062,-3.284403,9.228620,5.822405
1002.750000,3.205162,-2.682488,-0.174231,-2.989138
1002.753906,-4.828119,-2.237032,-6.932577,-1.998402
1002.757812,1.276248,-0.292690,-6.666984,-8.982331
1002.761719,-6.028790,-6.535235,-13.858983,-1.496036
1002.765625,-10.858797,-8.549136,-11.085619,-4.081006
1002.769531,-16.109483,-18.142288,-8.998222,-14.227188
1002.773438,-11.301836,-13.652307,-9.289116,-8.149377
1002.777344,-8.609784,-12.557127,-9.075336,-10.963547
1002.781250,-2.830288,-6.927602,-5.955812,-7.233958
1002.785156,-11.190481,-19.902635,-15.711930,0.347970
1002.789062,-10.073929,-7.935267,-13.593490,-2.603409
1002.792969,-1.548297,-9.716011,-5.651272,-14.751994
1002.796875,3.206206,-0.862514,0.014960,-4.672841
1002.800781,2.410820,1.005905,-0.561288,-1.018235
1002.804688,1.900565,12.324173,5.039270,3.150497
1002.808594,1.114838,5.722758,6.805994,-4.115458
1002.812500,10.902615,10.376404,12.743811,11.877574
1002.816406,4.280634,7.275184,4.428953,6.154068
1002.820312,12.468912,13.231433,8.817023,12.362202
1002.824219,7.039511,4.430317,5.849970,4.948724
1002.828125,11.043901,5.206913,12.611808,5.577994
1002.832031,6.132478,8.734111,-0.086441,11.888699
1002.835938,8.855214,15.034027,16.185153,6.341883
1002.839844,8.396952,5.182535,4.925808,3.339369
1002.843750,8.121973,4.378483,12.347000,8.789242
1002.847656,-7.074748,5.627584,2.598498,-7.208925
1002.851562,0.061154,-7.749827,-2.422046,-0.597089
1002.855469,-0.438104,-1.659682,-5.763166,-7.457913
1002.859375,-10.583914,-2.312920,-0.986341,-6.212952
1002.863281,-9.140385,-5.761089,-10.476657,-5.409765
1002.867188,-4.230929,-2.430960,-5.999602,-11.007044
1002.871094,-11.778950,-4.829126,-4.166268,-2.213501
1002.875000,-8.117995,-7.262776,-10.359420,-15.661491
1002.878906,-11.540971,-6.947320,-1.526065,-11.293451
1002.882812,-11.852400,-6.764198,-13.236768,-8.845479
1002.886719,-14.241171,-10.862705,-11.765653,-11.237779
1002.890625,-11.858877,-9.949521,-13.346791,-4.979425
1002.894531,-3.085911,0.617578,-8.956787,-0.929323
1002.898438,4.144106,-4.851080,1.569782,-1.312935
1002.902344,-3.281477,-6.266236,1.515736,3.387615
1002.906250,7.838864,3.442537,0.787367,3.182396
1002.910156,6.272916,1.643646,10.969016,-0.394897
1002.914062,5.088952,12.299746,13.326052,6.614974
1002.917969,6.593497,11.914069,10.077964,3.091097
1002.921875,13.142143,7.380803,7.897135,7.819902
1002.925781,11.921620,4.794905,6.045774,17.386238
1002.929688,11.965927,5.475681,13.791615,10.053502
1002.933594,8.745978,6.888416,11.871510,3.228368
1002.937500,15.115538,4.244690,9.895814,5.003524
1002.941406,1.877907,7.036568,10.704433,4.264470
1002.945312,3.742207,-5.201686,2.921010,0.131011
1002.949219,-3.483074,5.340067,-1.229397,5.428943
1002.953125,4.077683,-0.769216,4.738938,-9.369043
1002.957031,-4.902005,-0.904834,0.170470,-0.667896
1002.960938,-0.138414,-1.105574,-1.534461,-7.598271
1002.964844,-1.939386,-4.949375,-8.952011,-10.884361
1002.968750,-15.876219,-8.114348,-13.401316,-6.481560
1002.972656,-5.613538,-11.900386,-2.866588,-14.289248
1002.976562,-11.011037,-3.692090,-4.169799,-5.737535
1002.980469,-11.967555,-17.368141,-7.356040,-8.718940
1002.984375,-9.499465,-15.553451,-13.645627,-9.040877
1002.988281,-1.428480,-8.467336,-8.200619,-14.464508
1002.992188,-4.981389,-2.765455,1.334702,-1.738300
1002.996094,-4.777705,0.569883,1.443632,-0.793992
1003.000000,3.987519,1.974762,-0.230270,4.179211
1003.003906,0.216570,9.752537,3.352747,4.588456
1003.007812,7.599357,4.629898,2.476243,0.133898
1003.011719,3.423580,9.441899,1.930730,6.380887
1003.015625,5.534360,14.088483,8.857432,4.598027
1003.019531,5.997330,10.344051,11.607980,8.001690
1003.023438,13.234783,13.890561,14.946359,5.557953
1003.027344,6.701365,3.288610,7.123769,11.981891
1003.031250,7.078546,20.517980,3.040320,10.100938
1003.035156,2.061710,7.335940,15.252511,7.757684
1003.039062,5.792116,1.406083,7.028807,5.235888
1003.042969,9.421414,2.763209,10.617317,13.260109
1003.046875,9.921342,0.371948,-6.741564,4.698088
1003.050781,-0.470191,6.175224,2.269771,1.381357
1003.054688,2.751651,-4.514788,-3.227348,-5.644957
1003.058594,-13.203811,-13.325586,-2.270011,-11.113440
1003.062500,0.094886,-15.746988,-8.362125,-4.924085
1003.066406,-3.684548,-10.121758,-11.181241,-11.952533
1003.070312,-9.124115,-10.011280,-10.523204,-6.551751
1003.074219,-10.477803,-9.589305,-9.145856,-11.740029
1003.078125,-11.262477,-11.481699,-12.481944,-10.636691
1003.082031,-8.387720,-8.991644,-16.211758,-6.528076
1003.085938,-2.281429,-9.645867,-8.593777,-15.433771
1003.089844,-7.977928,-5.491460,-2.895522,-6.980879
1003.093750,-0.250486,-14.657878,-5.755030,-4.536980
1003.097656,-4.448155,-0.129094,6.178400,-3.189920
1003.101562,-1.965873,-4.666668,7.655601,-3.470197
1003.105469,-2.937037,6.112340,-7.646848,5.914354
1003.109375,4.233739,5.437389,9.148867,8.311029
1003.113281,5.958238,10.575748,0.796772,3.897717
1003.117188,7.197568,10.020571,12.868415,3.446218
1003.121094,13.935584,9.397786,1.478057,11.038015
1003.125000,10.264219,19.636171,16.028578,12.783849
1003.128906,5.214299,12.658963,6.534095,14.804087
1003.132812,5.676615,5.211034,11.035295,13.025700
1003.136719,13.508362,8.720619,11.078516,10.879527
1003.140625,2.064313,5.104136,5.248175,5.556730
1003.144531,5.598982,4.233920,8.532722,4.259923
1003.148438,-4.297734,0.704118,4.523295,-1.191328
1003.152344,0.648230,-2.407358,2.092276,-1.320541
1003.156250,-2.511899,3.481951,-2.174021,-1.156345
1003.160156,-8.346994,1.384943,-9.138574,-5.601908
1003.164062,-8.399669,-11.558866,-12.469795,-11.890870
1003.167969,-11.767233,-9.481768,-1.356111,-10.096216
1003.171875,-9.516128,-9.247466,-11.683880,-8.505197
1003.175781,-16.083838,-11.631353,-11.362684,-2.923082
1003.179688,-11.249471,-8.471438,-8.074355,-13.498846
1003.183594,-7.507109,-4.902498,-9.921886,-10.836919
1003.187500,-4.466155,-9.568600,-2.478532,-3.884039
1003.191406,-7.728134,-11.820721,-12.958102,-1.672094
1003.195312,-3.558240,-10.052165,-3.717916,-6.027571
1003.199219,1.886201,-9.451286,-3.117143,0.076140
1003.203125,5.932097,-2.308566,2.084728,3.889637
1003.207031,7.491600,-5.433178,4.542977,0.765109
1003.210938,4.406399,10.592977,4.264115,4.808615
1003.214844,8.442871,8.556131,0.152150,6.331006
1003.218750,13.881736,12.113542,17.101907,8.960954
1003.222656,9.049563,8.723372,11.776563,13.980701
1003.226562,6.464575,11.147258,6.706491,10.209420
1003.230469,13.592882,11.556408,7.414179,11.040373
1003.234375,13.221006,12.409076,6.632602,5.207044
1003.238281,3.077944,3.376563,12.636703,14.050971
1003.242188,2.836656,5.696380,0.211720,6.998509
1003.246094,-1.559923,3.374073,0.904826,-0.227755
1003.250000,-4.001654,3.743388,4.208424,1.829316
1003.253906,-6.702657,5.906885,-1.820345,-2.383878
1003.257812,3.024938,-12.206099,2.045443,-8.454601
1003.261719,-10.241082,-7.073197,-3.134427,-9.255546
1003.265625,-8.567148,-11.134225,-8.164566,-18.622293
1003.269531,-10.319166,-8.920625,-5.970796,-7.482097
1003.273438,-11.417251,-14.088598,-4.072916,-0.136153
1003.277344,-8.744131,-5.029121,-17.292758,-12.947971
1003.281250,-11.032097,-9.215680,-8.686368,-14.476060
1003.285156,-7.771717,-15.436463,-12.370057,-4.922469
1003.289062,-7.996408,-4.524013,-0.658814,-9.304630
1003.292969,-1.487970,-8.594002,-7.893229,-4.483116
1003.296875,0.602387,-0.709838,2.692808,-1.699291
1003.300781,-5.267602,-2.006248,-2.394907,-2.869225
1003.304688,1.842274,2.962551,0.601419,7.399374
1003.308594,-3.708724,9.197045,2.056357,8.070767
1003.312500,5.996394,11.070422,8.241157,3.252288
1003.316406,5.838738,12.106576,6.508203,4.205509
1003.320312,14.353049,12.669247,4.565882,8.714100
1003.324219,15.333066,16.116213,5.528385,11.431518
1003.328125,10.384008,12.764365,8.794028,10.852870
1003.332031,13.753743,7.521669,14.303551,11.180929
1003.335938,3.260774,9.332040,14.223067,10.152445
1003.339844,-4.569516,2.280568,-2.991940,7.712698
1003.343750,-5.101653,8.201747,-3.324025,5.581953
1003.347656,1.945242,-5.604635,5.066453,1.883296
1003.351562,-6.176080,0.554608,-2.051307,-6.465474
1003.355469,0.379663,5.668315,-2.091845,-0.767200
1003.359375,-3.660396,-7.000770,-1.171820,-6.365898
1003.363281,-6.843896,1.277943,-10.467841,-6.998875
1003.367188,-12.415849,-7.162115,-3.654717,-4.312453
1003.371094,-8.867425,-10.556247,-2.394426,-15.432283
1003.375000,-6.684384,-11.734992,-4.862740,-7.533283
1003.378906,-10.785328,-8.642946,-9.329045,-6.976981
1003.382812,-8.962961,-5.219970,-4.264941,-16.444947
1003.386719,-11.755386,-15.829746,-9.793213,-3.238028
1003.390625,-2.760744,-8.284729,-8.398154,-2.157784
1003.394531,-7.343768,0.446938,0.506491,-7.972953
1003.398438,-4.308297,5.730206,1.671872,5.301168
1003.402344,-1.284345,6.728271,4.570402,0.101093
1003.406250,2.834587,2.032467,5.702484,-0.814993
1003.410156,4.000249,6.843011,-0.996076,13.444644
1003.414062,3.344809,8.074006,10.639588,9.165340
1003.417969,6.261341,3.762719,10.837960,9.365987
1003.421875,4.087338,13.622573,3.100757,11.873418
1003.425781,7.307248,15.053021,10.701927,10.607380
1003.429688,13.577548,10.261571,11.169082,10.476173
1003.433594,8.924214,7.857358,4.218196,4.538362
1003.437500,14.025693,9.031346,9.526488,10.091927
1003.441406,-0.112693,3.029375,11.090496,6.865055
1003.445312,5.196145,1.040947,-5.236193,-0.709509
1003.449219,-0.974044,1.549582,-1.504382,-3.127469
1003.453125,-6.918405,-4.572484,5.029203,6.289902
1003.457031,-6.681593,-1.847573,-2.989143,-6.709758
1003.460938,-6.417889,-8.863152,-11.194784,-8.050660
1003.464844,-12.913771,-6.764539,-6.047914,-5.781541
1003.468750,-3.353658,-9.635047,-2.208914,-10.615079
1003.472656,-5.434000,-11.336578,-13.353662,-5.116733
1003.476562,-9.836816,-8.844545,-11.157481,-11.761060
1003.480469,-5.061341,-3.522053,-8.611887,-3.958386
1003.484375,-8.911234,-13.431156,-9.382142,-15.176016
1003.488281,-2.667903,-3.230724,-2.309085,-6.336933
1003.492188,-2.974290,-4.454850,-3.558543,-2.832949
1003.496094,0.436350,-6.863847,0.668927,0.366093
1003.500000,4.893102,5.423520,-5.788376,4.806449
1003.503906,6.819514,-2.255326,5.684327,7.913974
1003.507812,8.339473,5.870128,6.396140,9.230557
1003.511719,1.242950,12.179692,7.999584,-1.917895
1003.515625,6.861748,8.314294,7.834045,5.935000
1003.519531,2.685666,8.419769,9.997753,13.292089
1003.523438,14.335948,7.949619,12.606961,5.844421
1003.527344,1.044326,4.205845,15.337070,15.171491
1003.531250,5.096226,13.639979,8.613513,7.058234
1003.535156,11.520291,8.420304,12.044107,7.980369
1003.539062,2.238949,4.457646,14.080837,10.559172
1003.542969,3.844220,3.580588,5.418268,2.390305
1003.546875,3.043467,7.768238,4.461802,9.091729
1003.550781,1.612175,-2.869357,0.698207,-4.322291
1003.554688,-0.192430,2.801492,-4.088464,-6.446783
1003.558594,-9.401376,-6.355200,-8.024099,-0.660701
1003.562500,-5.684901,-5.191483,-4.341852,3.107167
1003.566406,-10.393498,-4.572317,-11.452747,-16.412190
1003.570312,1.214128,-6.239401,-12.840868,-3.540753
1003.574219,-10.424019,-11.311262,-10.528165,-17.530382
1003.578125,0.753831,-8.981703,-15.015381,-17.910687
1003.582031,-11.935968,-11.768411,-13.528977,-15.531254
1003.585938,-11.581756,-9.156076,-12.563888,-6.711435
1003.589844,0.579648,-4.991936,-1.353370,-0.058218
1003.593750,-7.247412,-6.498968,-1.786216,-7.251758
1003.597656,-8.435554,0.729371,-2.093750,-2.377808
1003.601562,5.173178,6.211730,0.889143,-10.096342
1003.605469,-0.896689,0.457341,2.924369,12.476557
1003.609375,5.377137,1.811864,10.201834,5.446290
1003.613281,20.314174,3.212648,13.010765,9.464158
1003.617188,6.486081,3.755943,9.968501,11.918491
1003.621094,9.321553,13.563802,7.161053,6.240081
1003.625000,3.756581,3.222190,4.915495,14.449008
1003.628906,10.257377,12.876645,10.974576,6.621055
1003.632812,16.128502,11.392230,7.898774,12.596819
1003.636719,0.146949,9.657774,5.836265,4.841664
1003.640625,5.748883,4.830433,12.808490,6.060097
1003.644531,2.753992,3.433600,0.539598,5.973070
1003.648438,2.559887,-1.847280,-2.748592,-2.541528
1003.652344,-1.633968,-0.954855,-4.223693,2.583127
1003.656250,-2.002835,-5.160213,-4.457980,-7.917723
1003.660156,-10.432606,-5.546968,-2.086405,-6.689195
1003.664062,-4.805998,-13.302459,-10.130851,-15.030051
1003.667969,-10.807938,-6.024050,-8.991183,-11.185543
1003.671875,-12.532689,-9.455165,-14.417048,-4.164519
1003.675781,-8.462676,-11.121642,-6.663065,-8.779058
1003.679688,-10.704004,-8.941974,-6.690649,-14.883550
1003.683594,-16.947983,-7.511621,-5.359157,-14.422930
1003.687500,-6.487852,-1.335935,-1.706249,-7.110602
1003.691406,-3.995270,-9.205899,-4.729374,-0.978437
1003.695312,-1.325930,-3.269311,-3.903337,2.038510
1003.699219,2.354881,-5.373400,6.899202,-3.961784
1003.703125,10.898111,6.695654,4.079033,-4.392266
1003.707031,14.576254,4.137457,2.374511,12.316852
1003.710938,10.911640,14.198077,14.174453,2.471011
1003.714844,10.793419,15.310591,11.957755,6.310904
1003.718750,11.652401,7.600688,15.133533,13.313107
1003.722656,15.205689,-0.073904,12.229083,12.735560
1003.726562,17.547156,16.560054,17.926415,7.944381
1003.730469,4.314660,5.872707,13.199880,16.506313
1003.734375,7.530055,16.468832,8.149692,7.152162
1003.738281,11.178867,7.882176,9.150867,7.270659
1003.742188,4.515628,7.325537,-0.760089,5.389144
1003.746094,-6.284134,4.875511,5.888690,0.550117
1003.750000,6.733528,-6.603328,6.184576,-9.241610
1003.753906,4.385929,-9.146917,-7.867124,-3.577611
1003.757812,-11.557776,3.290442,-5.859464,-2.805866
1003.761719,-1.463443,-10.376188,-5.456483,-2.896105
1003.765625,-3.809692,-10.625341,-7.459564,-5.119592
1003.769531,-12.812840,-9.027408,-13.172161,-13.751310
1003.773438,-13.344979,-11.539817,-13.642540,-3.280601
1003.777344,-12.920951,-6.891489,-11.666244,-15.301735
1003.781250,-10.622643,-15.312632,-8.432712,-9.810654
1003.785156,-7.554728,-10.706861,-14.112788,-14.941858
1003.789062,-5.138201,-6.953418,-1.282843,-9.380626
1003.792969,6.346919,-5.191313,-0.887215,-0.963436
1003.796875,0.722644,-8.712852,0.512821,-7.663285
1003.800781,-0.871872,-1.980963,2.297167,0.431614
1003.804688,13.298338,4.459772,7.669449,-2.907934
1003.808594,5.607362,3.426492,11.316950,5.671633
1003.812500,4.258162,9.499371,7.667064,13.386386
1003.816406,10.061720,6.502100,9.332012,18.052696
1003.820312,6.094220,14.249453,15.394433,11.144544
1003.824219,15.805254,5.033009,9.714361,10.094052
1003.828125,7.896099,12.722487,10.349247,13.865015
1003.832031,13.096300,12.779092,13.485578,15.037977
1003.835938,4.630597,10.297786,8.105846,6.632519
1003.839844,0.489110,1.402733,4.681143,14.848024
1003.843750,-1.347556,-2.921810,3.233499,4.444228
1003.847656,-9.529981,2.189359,7.370019,-1.054059
1003.851562,-1.760411,2.867137,0.911227,0.906840
1003.855469,3.027469,-15.122944,-1.697870,-2.613962
1003.859375,-6.630008,1.178706,-10.118859,-4.344157
1003.863281,-9.782564,-15.516415,-10.488960,1.001800
1003.867188,-11.425282,-5.122436,-11.261976,-11.671018
1003.871094,-11.944658,-8.609679,-11.424934,-11.336336
1003.875000,-12.345916,-11.017725,-1.720411,-9.612527
1003.878906,-6.814969,-2.771768,-10.986466,-14.793562
1003.882812,-12.041132,-9.269164,-8.516795,-15.799923
1003.886719,-4.720734,-8.318100,-5.012235,-11.542375
1003.890625,-1.452896,-9.342521,-5.995044,-4.601477
1003.894531,-5.433419,-6.402337,-13.371009,-2.578627
1003.898438,4.581214,4.957271,1.170006,9.360555
1003.902344,0.803146,2.106827,1.369038,5.822160
1003.906250,4.943676,6.921586,13.287294,7.999212
1003.910156,1.574014,5.433303,14.311238,1.803759
1003.914062,5.173422,12.057126,5.330870,8.586007
1003.917969,14.998006,6.048676,4.213566,8.345855
1003.921875,16.364295,5.097370,12.762299,16.456228
1003.925781,6.792008,7.287108,10.465305,9.835461
1003.929688,9.529005,4.122677,15.378426,9.396064
1003.933594,8.887854,5.227937,7.111785,8.773593
1003.937500,8.565147,6.953137,9.879285,1.089761
1003.941406,4.140022,2.023137,6.611502,4.487616
1003.945312,0.613805,8.786068,4.182478,2.907200
1003.949219,9.572406,0.179714,0.980880,2.597484
1003.953125,-3.591712,-4.961349,-2.362103,-6.460554
1003.957031,-8.359751,-8.574219,-5.008891,1.181278
1003.960938,-2.499665,-17.000963,-4.010534,0.955863
1003.964844,-9.123530,-4.052350,-4.917529,-11.583507
1003.968750,-7.454721,-14.033831,-14.183574,-14.356031
1003.972656,-11.821435,-8.281763,-12.123943,-13.328019
1003.976562,-11.106951,-6.480032,-8.797346,-12.636201
1003.980469,-3.536824,-10.356029,-5.489178,0.058158
1003.984375,-0.758544,-3.632033,-7.790060,-4.191953
1003.988281,-9.110188,-14.129622,-9.593904,-14.339357
1003.992188,-3.939307,-5.481653,-1.291185,-5.192787
1003.996094,0.625782,-5.826653,-7.069693,-1.083622
1004.000000,-1.124729,10.464314,-3.478654,3.630433
1004.003906,-7.419558,-1.715568,-0.921471,4.002460
1004.007812,6.241899,5.058810,-1.460145,5.098090
1004.011719,5.230031,3.072182,-0.895161,11.276022
1004.015625,15.222628,11.781595,11.651599,5.946665
1004.019531,13.190442,11.296872,7.974885,9.980177
1004.023438,7.910143,9.918668,11.088681,10.494872
1004.027344,10.584745,2.104065,16.483944,8.420140
1004.031250,8.544198,11.772839,6.391184,14.958731
1004.035156,5.131366,10.398304,3.570930,7.570534
1004.039062,1.784858,0.244541,9.450606,-0.222306
1004.042969,2.087789,-2.536250,5.979307,9.415712
1004.046875,1.604225,2.755938,-2.675734,1.954621
1004.050781,-0.323345,-0.685823,0.515568,-1.205612
1004.054688,-10.137452,4.362350,-6.003961,1.667089
1004.058594,-4.583811,-7.770874,-7.341513,-6.675926
1004.062500,-7.281908,-8.372576,-1.738930,-9.717696
1004.066406,-2.245604,-7.577228,-10.432788,-13.662995
1004.070312,-15.723900,-14.205712,-7.955011,-11.670436
1004.074219,-7.032505,-11.871519,-5.808192,-3.598455
1004.078125,-5.325790,-10.045251,-0.248955,-12.461572
1004.082031,-9.138694,-10.984309,-17.228457,-10.219148
1004.085938,-5.067664,-3.540715,-7.582411,-6.574851
1004.089844,-8.727473,-4.025626,-3.197836,-0.034677
1004.093750,-1.969322,0.309613,-11.821883,-6.377018
1004.097656,-0.100176,-4.199278,-1.111540,-7.778864
1004.101562,-0.535292,6.565764,-0.295474,4.913029
1004.105469,6.267906,5.059618,2.176969,10.560401
1004.109375,1.714604,5.339722,3.066150,5.841472
1004.113281,5.335272,4.108776,12.468450,3.764606
1004.117188,7.274859,7.833375,13.036035,5.268398
1004.121094,7.643388,3.967372,4.191275,3.186851
1004.125000,14.006221,10.513402,2.030028,7.598366
1004.128906,18.021519,7.043343,16.506972,11.283548
1004.132812,12.184115,7.527738,8.979020,5.867780
1004.136719,5.227964,-1.296410,4.466598,6.326542
1004.140625,2.206515,-4.581732,10.516803,4.075280
1004.144531,-5.152472,4.718631,5.530848,-1.856940
1004.148438,-6.326065,-2.559735,9.796728,2.499931
1004.152344,-5.005071,-9.102532,1.600876,5.020329
1004.156250,1.230460,-5.569989,-3.196105,-1.480415
1004.160156,-6.716380,-7.243846,-11.191761,-6.064775
1004.164062,-8.115840,-9.342515,-12.198840,-7.136595
1004.167969,-12.714624,-20.324220,-10.277817,-13.958325
1004.171875,-9.477069,-14.537651,-10.267098,-13.819620
1004.175781,-3.463577,-11.646129,-15.334485,-14.379839
1004.179688,-11.456440,-9.687851,-10.280261,-5.775117
1004.183594,-14.774925,-12.098657,-9.915905,-7.400969
1004.187500,-8.524534,-6.511486,-9.183943,-2.796425
1004.191406,-3.942990,-0.092443,-7.919311,-7.381086
1004.195312,3.321579,-8.443871,6.590166,-6.601577
1004.199219,-3.823427,-1.131802,-3.386547,4.882388
1004.203125,9.512658,6.848894,-4.810317,0.735746
1004.207031,7.605996,-1.552260,0.507067,0.070967
1004.210938,2.643471,5.224341,4.394064,8.017572
1004.214844,11.855293,8.985105,7.057337,10.020039
1004.218750,4.741929,8.981892,8.219988,6.991055
1004.222656,10.259856,11.275006,7.068622,7.005334
1004.226562,10.832450,5.122293,6.309638,4.508317
1004.230469,10.053913,11.898339,5.875721,12.387768
1004.234375,10.344476,4.866895,10.101338,13.403737
1004.238281,18.268468,8.057577,-3.487596,11.408765
1004.242188,5.895293,5.873976,7.714011,9.229131
1004.246094,-0.057834,4.907081,-3.155238,2.624661
1004.250000,-5.792149,-4.746849,1.251079,-5.466130
1004.253906,-0.607163,0.368753,-3.264512,-5.980774
1004.257812,-5.617135,-6.309019,-5.646037,-7.587081
1004.261719,-10.602631,-2.642897,-9.183338,-5.847099
1004.265625,-10.019804,-5.734876,-9.759991,-8.527883
1004.269531,-5.453696,-1.906310,-6.874264,-9.962634
1004.273438,-6.530534,-1.964941,-2.509855,-6.045119
1004.277344,-11.341694,-10.245315,-5.520759,-16.471772
1004.281250,-4.276729,-11.332655,-10.598194,-5.335502
1004.285156,-7.885677,-3.223086,0.614802,-10.119945
1004.289062,-5.038948,-2.717783,-1.167909,-12.104877
1004.292969,2.242929,1.848814,-7.654696,-12.521914
1004.296875,4.917068,-7.434569,2.192494,2.096912
1004.300781,-0.855345,-10.100546,7.723763,-4.412400
1004.304688,1.844583,-3.262057,-0.657131,1.615699
1004.308594,7.314857,4.346158,8.036257,7.435795
1004.312500,4.814805,8.861171,4.861673,9.706380
1004.316406,9.079159,3.436289,1.218645,8.178339
1004.320312,16.646462,9.740381,9.014172,13.086975
1004.324219,12.267407,8.239315,8.191780,12.318419
1004.328125,15.007262,7.926956,9.487102,9.484226
1004.332031,9.465461,2.883615,5.391563,6.984420
1004.335938,0.476453,12.614990,6.825433,12.041437
1004.339844,6.165898,7.901122,5.011385,2.928673
1004.343750,1.424150,8.104719,7.411862,3.449674
1004.347656,-3.293346,10.983272,2.621770,-3.063349
1004.351562,-0.213585,-8.511130,-4.632995,2.067248
1004.355469,-8.356917,-3.005025,-8.298776,-4.794824
1004.359375,-8.010096,-3.315648,-3.690920,-3.117382
1004.363281,-10.317346,-2.222422,-5.817513,-1.249263
1004.367188,-8.063614,-10.933017,-14.786810,-13.600863
1004.371094,-11.885051,-8.790169,-9.375623,-9.819426
1004.375000,1.502165,-12.927620,-11.771466,-10.026534
1004.378906,-18.042185,-7.901727,-10.363419,-5.814142
1004.382812,-0.849370,-8.105656,-10.880264,-12.231692
1004.386719,-4.092488,-2.107385,-10.162081,-11.340731
1004.390625,-5.789229,-6.297351,-1.897311,-2.193119
1004.394531,-5.506498,-4.943495,-2.771302,-3.053153
1004.398438,3.070847,5.327838,1.842247,1.908607
1004.402344,5.184920,5.428449,-0.480910,-1.407736
1004.406250,9.944483,4.292798,10.012008,9.417238
1004.410156,5.433087,-5.887971,10.090264,11.106886
1004.414062,5.528749,9.525630,8.169448,10.171663
1004.417969,8.881056,1.811315,6.651550,7.805153
1004.421875,11.125830,3.711462,4.574607,3.048501
1004.425781,10.521539,11.666061,14.981429,-2.335570
1004.429688,12.709185,11.008841,5.377267,8.835390
1004.433594,7.531879,15.106879,9.859811,9.550198
1004.437500,6.138290,12.629903,14.969239,2.103089
1004.441406,0.649800,4.003656,3.470014,5.251030
1004.445312,2.475668,6.046124,-1.258088,-1.670087
1004.449219,-8.598881,8.400203,-1.233409,8.095533
1004.453125,-1.409197,-2.397639,4.818753,0.682391
1004.457031,-6.078316,-12.489626,-4.842680,3.840155
1004.460938,-9.569249,-6.406342,-8.688027,-8.262137
1004.464844,-13.652127,-8.288562,-13.704115,-6.739986
1004.468750,-11.711153,-14.390820,-11.917176,-6.591686
1004.472656,-15.052062,-18.273391,-14.402408,-10.669009
1004.476562,-13.860075,-2.845151,-10.797164,-12.200111
1004.480469,-7.816829,-6.821123,-6.625244,-8.497067
1004.484375,-9.742257,-13.981538,-8.501434,-9.481021
1004.488281,-10.285533,-1.737544,-7.160788,-9.014868
1004.492188,-12.076657,-7.100927,-6.062266,-7.028652
1004.496094,0.694089,4.860691,-0.885535,-4.466814
1004.500000,-1.048770,3.014804,-5.004537,0.125817
1004.503906,2.576030,2.146404,3.307069,-0.830667
1004.507812,5.631178,8.162768,8.301152,10.330957
1004.511719,8.765106,9.455875,11.495005,1.758932
1004.515625,11.165856,4.461923,12.119857,8.129365
1004.519531,17.226596,6.553142,6.698047,5.253660
1004.523438,9.232236,7.673329,12.462946,8.852194
1004.527344,8.539423,13.895891,11.808948,6.916930
1004.531250,12.334734,4.402351,21.240038,11.912377
1004.535156,9.745470,7.691340,12.029729,6.835009
1004.539062,8.236133,7.933291,10.271511,8.639078
1004.542969,-0.294530,9.065011,3.779095,2.210334
1004.546875,0.964647,2.107394,-1.211593,-2.541864
1004.550781,4.838907,-1.848359,1.313954,-5.394413
1004.554688,-3.212256,-2.045763,-3.821546,-5.764203
1004.558594,-5.277150,-9.844941,-11.824267,-3.180063
1004.562500,-8.730566,-7.852679,-8.202430,-4.372816
1004.566406,-10.688116,-9.982186,-10.604725,-14.330941
1004.570312,-11.477121,-5.577306,-5.169823,-12.439345
1004.574219,-8.132550,-8.747062,-4.218796,-9.539703
1004.578125,-11.443735,-10.324810,-14.126705,-2.420174
1004.582031,-9.107875,-12.254996,-12.924605,-7.466879
1004.585938,-13.019137,-9.862002,-14.708362,-2.907980
1004.589844,-4.002953,-6.264869,-9.937502,-7.031501
1004.593750,-3.997299,-3.012837,-0.071399,-4.739704
1004.597656,-5.443283,-6.116601,-6.093603,-1.484594
1004.601562,10.996479,3.559951,3.863492,-1.202384
1004.605469,4.520450,5.872918,9.834689,5.941763
1004.609375,8.688542,7.384532,6.845293,7.213568
1004.613281,11.620310,10.000704,10.996118,6.413981
1004.617188,13.353312,0.375421,7.224806,15.259400
1004.621094,8.734121,11.431881,13.738794,8.904895
1004.625000,8.113204,13.980907,12.200043,6.845148
1004.628906,11.242220,13.514260,17.527966,15.815379
1004.632812,3.265054,3.007950,5.616150,10.303544
1004.636719,10.449466,9.056830,7.988883,11.193712
1004.640625,0.435374,-0.393179,5.165122,2.673092
1004.644531,-0.230917,9.783982,2.985028,5.169020
1004.648438,-1.711666,-0.660820,7.685001,-4.591382
1004.652344,-6.336543,-5.492468,-4.958337,-8.421126
1004.656250,-10.988784,-3.399860,-1.660734,-5.070148
1004.660156,-7.863418,-10.180881,-5.343645,-8.810910
1004.664062,-0.972095,-5.000196,-15.760446,-14.487589
1004.667969,-10.803180,-9.914980,-7.605533,-12.953063
1004.671875,-10.494955,-8.751191,-6.066300,-10.881668
1004.675781,-11.595105,-11.509371,-10.126883,-15.726467
1004.679688,-9.706926,-14.477110,-7.706389,-16.676613
1004.683594,-10.168850,-11.739877,-7.047735,-10.291632
1004.687500,-6.362376,-8.622865,-2.442234,-5.989683
1004.691406,-3.869320,-5.098479,-9.610206,-2.475825
1004.695312,-4.556003,-5.891182,-3.142032,-6.224208
1004.699219,8.398061,-4.802323,1.501781,-7.512464
1004.703125,1.782555,3.547459,5.079182,-1.815159
1004.707031,0.669634,-2.797918,-0.497601,-1.697006
1004.710938,11.672225,3.153412,4.378573,8.519270
1004.714844,10.315409,13.513041,3.725909,5.249329
1004.718750,8.992427,3.456358,14.481903,11.941210
1004.722656,8.394931,8.834374,5.640307,10.872920
1004.726562,14.593050,14.316047,6.461889,7.543206
1004.730469,14.683175,7.251057,10.273195,16.303235
1004.734375,6.601379,10.123015,0.015608,7.054280
1004.738281,4.447327,11.518661,4.089451,11.055386
1004.742188,-3.574643,4.723873,-2.979782,6.088530
1004.746094,0.202570,7.215764,0.482470,4.240436
1004.750000,-3.915701,-1.656747,-0.726700,-1.996335
1004.753906,-3.819128,-4.009389,4.482432,-3.800836
1004.757812,-7.992644,-4.621381,-6.930702,-4.876407
1004.761719,-8.754766,-12.333493,-10.039274,-4.671300
1004.765625,-4.220728,-21.953706,-2.102273,-10.977442
1004.769531,-1.347013,-14.728013,-13.533197,-13.231721
1004.773438,-11.096095,-9.181815,-6.667765,-11.258924
1004.777344,-9.007356,-12.179368,-8.566660,-8.656640
1004.781250,-15.248108,-6.320034,-16.122159,-3.296768
1004.785156,-11.967141,-7.622597,-6.769120,-7.067457
1004.789062,-6.575306,-0.287312,-8.946701,-1.859095
1004.792969,-3.881001,-6.877520,-3.742171,2.099081
1004.796875,-4.894289,-1.435718,-1.422772,0.117741
1004.800781,-0.015542,-2.602568,-1.000389,3.299991
1004.804688,1.989324,8.638451,6.054235,7.771762
1004.808594,4.826002,8.185630,4.176792,9.525013
1004.812500,2.432539,4.555415,12.086954,4.052899
1004.816406,13.165773,8.745119,10.969703,10.425725
1004.820312,2.552117,9.564087,5.316911,1.427883
1004.824219,19.463685,9.133854,8.814132,10.563349
1004.828125,3.170861,8.262276,10.525433,2.270032
1004.832031,5.300318,12.847826,14.572585,6.006948
1004.835938,11.937603,7.012876,3.800153,5.662308
1004.839844,9.732490,5.136283,5.899137,5.118950
1004.843750,2.272743,6.964408,7.502578,2.664425
1004.847656,0.303497,-0.777207,-9.465750,7.977484
1004.851562,2.098073,-2.940540,2.279928,-1.434978
1004.855469,-1.926986,-7.207498,-6.248861,-5.377267
1004.859375,-5.009985,-8.014282,-3.080056,-9.204881
1004.863281,-5.955263,-1.614983,-9.004560,-7.197786
1004.867188,-11.466516,-11.724622,-9.875618,-5.811719
1004.871094,-7.246333,-6.705550,-8.902766,-6.807067
1004.875000,-10.031257,-10.810116,-7.391981,-7.629017
1004.878906,-4.579519,-12.817304,-8.115143,-6.372936
1004.882812,-8.351470,-7.259095,-12.784623,-11.996726
1004.886719,0.937912,-9.881917,-10.832783,-5.180306
1004.890625,-7.061486,-2.862006,-11.431960,1.507424
1004.894531,-3.846405,-5.028717,-3.581687,-1.979528
1004.898438,-2.850869,-6.872636,-1.383137,-9.183330
1004.902344,0.213610,-1.554237,5.183782,-1.832981
1004.906250,1.478428,6.657661,-1.704968,4.524325
1004.910156,4.356718,9.597633,2.932113,3.155915
1004.914062,7.288262,10.261409,9.879109,10.599610
1004.917969,7.258942,13.698366,9.981115,9.665325
1004.921875,9.651103,16.536884,5.104591,5.461318
1004.925781,11.758226,7.868834,16.640888,6.543464
1004.929688,6.312224,7.397100,8.064184,7.967206
1004.933594,7.185889,11.391560,-1.903013,10.573802
1004.937500,9.365064,4.260550,5.219146,6.037242
1004.941406,-0.882224,2.808664,8.751049,1.650982
1004.945312,-1.046545,10.233284,6.721922,4.256542
1004.949219,-5.468796,0.758248,-1.260987,4.481794
1004.953125,-1.102422,-3.493055,3.391044,-4.233019
1004.957031,-6.818292,3.850060,-3.576059,-2.041822
1004.960938,-1.605955,-6.258822,-5.440553,-9.547076
1004.964844,-0.125251,-7.824667,2.627955,-9.638431
1004.968750,-7.192563,-8.778848,-6.427549,-6.784645
1004.972656,-11.690696,-12.314098,-13.330572,-11.935581
1004.976562,-10.824696,-12.119433,-10.957461,-15.271293
1004.980469,-15.739658,-8.088958,-14.887472,-12.316502
1004.984375,-7.013130,-2.661143,-4.493060,-11.735906
1004.988281,-5.085332,-13.872900,-6.643594,-18.393612
1004.992188,2.636242,-7.485143,-8.012742,-3.018074
1004.996094,-4.311264,0.724982,-2.867438,2.490142
1005.000000,4.042194,4.196281,-4.233363,6.578937
1005.003906,1.663956,1.169532,4.006670,3.951527
1005.007812,0.885812,3.644697,-0.176056,11.688375
1005.011719,7.854329,8.075002,11.394453,7.018964
1005.015625,8.916725,9.713691,14.305878,2.536959
1005.019531,9.273002,12.383487,0.498789,1.047972
1005.023438,18.689809,7.868552,8.609947,3.166332
1005.027344,8.373971,23.090677,3.583614,14.050220
1005.031250,11.341760,4.420024,4.771512,12.650853
1005.035156,16.185583,2.863313,10.565103,6.481796
1005.039062,9.269688,6.713363,11.171662,4.429525
1005.042969,5.295318,3.997098,9.965325,5.727365
1005.046875,3.132719,1.196849,-1.107079,1.861520
1005.050781,1.878343,-1.373719,3.184681,0.387627
1005.054688,-1.197083,-1.054179,-3.115114,-2.684780
1005.058594,0.780477,-11.694654,-2.704511,-4.490890
1005.062500,-3.219160,-4.068117,-13.960588,-4.287624
1005.066406,-11.407233,-9.070422,-8.230336,-13.637682
1005.070312,-12.435562,-7.389123,-4.007714,-11.634031
1005.074219,-7.174638,-2.983850,-18.199095,-8.426640
1005.078125,-10.621658,-17.971688,-16.474783,-17.057003
1005.082031,-9.666467,-8.827316,-8.484873,-12.412120
1005.085938,-4.204641,-4.582800,-10.432418,-13.286355
1005.089844,-2.863896,-0.501096,-9.514660,2.208248
1005.093750,1.043296,-0.796166,-1.459080,-3.594052
1005.097656,3.860135,-3.421905,0.320640,-7.059702
1005.101562,-0.226744,1.771791,2.825240,11.177298
1005.105469,4.929040,0.978864,5.232993,2.060282
1005.109375,3.074227,5.380706,6.920284,-0.395338
1005.113281,10.025930,8.602211,6.114493,8.670355
1005.117188,9.318748,17.351522,15.014495,13.676924
1005.121094,4.810722,4.927021,8.558017,11.967474
1005.125000,9.415722,9.866897,8.915912,9.366899
1005.128906,-1.297214,11.681219,8.168877,7.794821
1005.132812,8.945256,6.703731,7.796295,11.072817
1005.136719,10.656081,2.139983,2.354679,11.107687
1005.140625,3.900065,9.581932,6.885569,-2.500645
1005.144531,4.269169,3.335832,5.088908,1.288389
1005.148438,-1.298653,-3.882171,2.598670,-0.493534
1005.152344,-9.584249,-3.608755,-6.877200,-3.503709
1005.156250,-3.358396,-0.518460,-0.384085,-8.389788
1005.160156,-5.675982,-5.217559,-8.827759,-4.592174
1005.164062,-14.724475,-4.549489,-13.518574,-13.021258
1005.167969,-8.141877,-4.615197,-12.160949,-5.906526
1005.171875,-7.610597,-10.424393,-9.034205,-7.334761
1005.175781,-4.671062,-4.864524,-12.609964,-4.223630
1005.179688,-12.783304,-4.277055,-8.288543,-5.118259
1005.183594,-8.214819,-13.441315,-8.213679,-11.068506
1005.187500,-3.209974,-9.647102,-12.933317,-10.582368
1005.191406,-9.330380,-8.241521,-2.188526,-5.904277
1005.195312,-5.756129,3.263855,-5.863477,1.502237
1005.199219,-2.099586,-2.834441,1.471568,4.479092
1005.203125,-2.489895,-0.424437,4.166471,0.792171
1005.207031,6.054683,7.600909,-4.218979,8.348060
1005.210938,9.094158,-7.108052,7.130785,5.975373
1005.214844,9.021690,10.281489,3.892834,7.200499
1005.218750,8.878791,3.974209,4.933221,15.080390
1005.222656,12.327841,9.710995,11.254385,-3.396800
1005.226562,11.787147,8.418765,13.130988,8.909390
1005.230469,15.442006,8.427608,10.998710,11.760238
1005.234375,6.585872,4.576951,8.542459,5.389355
1005.238281,9.155243,12.507625,13.312944,8.300546
1005.242188,1.811922,12.402347,8.937662,10.759049
1005.246094,2.453052,11.396282,-1.199670,-1.796082
1005.250000,7.288318,-1.293990,-4.461637,3.517440
1005.253906,-2.145245,7.027180,-6.945517,-2.541419
1005.257812,-4.062628,-6.300046,4.415922,-4.123170
1005.261719,-5.884926,-11.755679,-6.944216,-11.236301
1005.265625,-4.548261,1.905733,-5.279900,-6.301883
1005.269531,-9.726374,-7.580793,-8.233133,-13.724554
1005.273438,-6.156564,-2.246970,-8.557333,-15.553727
1005.277344,-7.561741,-5.223619,-8.024549,-12.257892
1005.281250,-13.770818,-6.447826,-16.117703,-8.492038
1005.285156,-12.261164,-8.551027,-8.625395,0.769622
1005.289062,-14.562284,-11.981904,-0.059753,-10.538203
1005.292969,-5.677639,-10.274261,-9.109875,-8.022794
1005.296875,-5.654678,-1.645417,2.481755,8.028243
1005.300781,0.572851,1.405865,3.318008,-1.363595
1005.304688,6.615872,-0.525824,6.243556,4.318502
1005.308594,8.609006,3.259502,4.933457,2.057867
1005.312500,10.685412,1.770901,11.543523,2.414414
1005.316406,1.981913,4.047811,8.165127,4.383902
1005.320312,16.093721,4.630779,6.594058,9.738866
1005.324219,13.667338,13.988870,18.313864,12.404270
1005.328125,8.602851,9.759764,12.485720,9.927366
1005.332031,10.267433,12.831836,8.759767,9.589819
1005.335938,7.189317,8.873279,9.590587,0.141187
1005.339844,5.172131,-0.954809,3.550007,11.821993
1005.343750,-0.757923,6.793985,1.986113,7.467414
1005.347656,3.975096,-4.734702,5.507611,1.122799
1005.351562,-6.294285,2.403445,-2.239543,0.666639
1005.355469,-9.117248,0.518059,-4.068610,1.789558
1005.359375,-3.605731,-3.062344,-2.544264,-6.745527
1005.363281,-5.982855,1.173712,-8.981279,-8.485756
1005.367188,-4.759639,-9.528261,-1.329970,-10.848885
1005.371094,-10.840258,-4.542603,-7.953526,-5.369265
1005.375000,-10.464216,-10.207517,-17.478576,-11.558582
1005.378906,-11.342300,-5.442075,-16.221027,-7.495090
1005.382812,-14.708526,-7.761547,-6.671067,-11.905925
1005.386719,-5.596453,-11.017720,-5.258980,-6.812408
1005.390625,-6.687945,1.717080,-0.694693,-9.691781
1005.394531,-10.979510,-4.315486,-9.075942,-3.469971
1005.398438,-1.262470,0.625812,5.574824,-2.505218
1005.402344,5.862357,3.752343,2.492476,1.474003
1005.406250,2.103627,-2.531443,6.244356,0.804238
1005.410156,-2.537215,3.458732,12.035023,9.917015
1005.414062,2.366944,3.956115,7.520049,9.463317
1005.417969,8.387590,12.909135,15.431885,4.115587
1005.421875,12.102864,10.789846,9.084711,8.329270
1005.425781,11.197832,14.688801,14.575879,15.383548
1005.429688,16.743264,15.866389,16.367759,4.425999
1005.433594,11.219318,2.859849,4.636262,14.129892
1005.437500,6.666687,6.721905,10.920544,8.221117
1005.441406,8.535136,0.650521,2.668963,0.705520
1005.445312,1.784005,6.328999,-2.030204,3.872434
1005.449219,-2.066594,5.743445,-5.062784,5.520032
1005.453125,-3.089846,-2.232068,-3.406023,1.533906
1005.457031,1.136725,-7.696133,-1.594974,4.782468
1005.460938,-1.528215,-3.074268,-6.899726,-8.219446
1005.464844,-4.420040,-8.955485,-12.052997,-5.192376
1005.468750,-8.824193,-9.359513,-7.941195,-10.100214
1005.472656,-14.330743,-11.826367,-15.392493,-9.667415
1005.476562,-5.858064,-6.456547,-3.267339,-8.284938
1005.480469,-5.387641,-15.567407,-9.102078,-9.910108
1005.484375,-7.527583,-5.659802,0.745208,-9.535117
1005.488281,2.528419,-5.085697,-2.175373,-8.297394
1005.492188,-4.603572,-4.245507,-1.336241,-4.245229
1005.496094,0.071932,0.901887,-0.319936,0.861743
1005.500000,-6.978991,-0.805610,1.767683,6.178924
1005.503906,8.259495,-1.260573,-0.087802,-0.685274
1005.507812,5.991113,-1.033759,7.646836,7.763559
1005.511719,5.545447,5.848929,7.047149,8.189758
1005.515625,10.795787,4.536992,16.427403,11.476277
1005.519531,9.509848,4.744665,11.874390,5.098948
1005.523438,10.609663,8.557584,11.690664,10.137664
1005.527344,12.351870,8.712501,10.422600,13.585395
1005.531250,4.338611,6.929803,19.360310,5.570367
1005.535156,8.448662,6.572381,6.076385,12.043731
1005.539062,8.654422,8.390442,7.005600,7.146427
1005.542969,10.901159,0.834153,4.950352,3.743541
1005.546875,1.860317,5.895433,2.515946,0.212850
1005.550781,-2.823164,0.577080,1.292957,-5.601958
1005.554688,-4.387686,-1.718757,3.123383,1.491916
1005.558594,-7.667570,-5.702511,-5.515672,-2.639376
1005.562500,-6.381761,-6.988686,-7.507550,-6.405500
1005.566406,-10.655843,-9.535396,-8.645362,-1.192245
1005.570312,-8.234992,-10.793221,-2.518724,-8.236601
1005.574219,-8.065078,-14.326479,-3.633983,-7.275175
1005.578125,-12.717519,-0.940686,-2.146028,-12.742989
1005.582031,-12.497535,-5.307402,-5.723931,-12.436491
1005.585938,-13.657477,-13.808987,-6.805101,-8.270095
1005.589844,-7.327928,-11.367493,-2.048335,1.150994
1005.593750,2.182946,-2.342275,-0.952362,2.558628
1005.597656,3.635881,4.207467,-5.699676,2.941504
1005.601562,1.164286,-0.209881,-1.755414,-2.096906
1005.605469,4.010341,1.225064,1.708309,7.109530
1005.609375,-0.407318,2.313138,2.981793,6.006345
1005.613281,4.469734,14.437797,12.612843,6.236231
1005.617188,4.046502,9.167577,4.373727,5.491722
1005.621094,10.907892,13.217466,10.241293,14.976020
1005.625000,13.340239,8.806619,9.681262,6.598125
1005.628906,8.548104,12.154470,8.823053,8.563244
1005.632812,6.608849,4.335159,13.642218,15.118698
1005.636719,13.272680,3.187806,7.672239,12.081149
1005.640625,-3.087566,-0.772216,4.794751,1.425606
1005.644531,5.093733,6.516061,6.866305,0.232840
1005.648438,0.290667,-5.501247,-0.318943,-2.116739
1005.652344,-1.272456,7.459661,-2.044680,-2.049141
1005.656250,-5.153612,-2.664361,-6.588367,0.210887
1005.660156,-8.981139,-7.830871,-2.885136,-3.000750
1005.664062,-5.748309,-11.901073,-9.122340,-5.125377
1005.667969,-3.387770,-11.412994,-6.403341,-10.288343
1005.671875,-8.642651,-11.070813,-5.864482,-7.964626
1005.675781,-8.473917,-8.187804,-5.402049,-11.463702
1005.679688,-10.238858,-9.250566,-10.995036,-3.239518
1005.683594,-6.674421,-13.140804,-4.605848,-7.878443
1005.687500,-4.320486,-13.566970,-7.624328,-6.655985
1005.691406,-14.824171,-6.962747,-1.799615,-4.886613
1005.695312,1.905963,-8.509833,-8.060497,4.883007
1005.699219,-7.200088,-2.760405,0.246875,-3.813641
1005.703125,10.518981,1.156411,3.357680,-0.876992
1005.707031,-3.466922,0.082733,5.691125,7.154869
1005.710938,3.035384,10.336727,6.871708,9.792414
1005.714844,5.781621,11.622997,7.839204,10.399186
1005.718750,9.242735,16.220262,14.445666,4.969014
1005.722656,9.745850,7.872524,13.087369,8.603059
1005.726562,1.412498,9.541165,7.715645,12.115233
1005.730469,10.355408,11.445376,10.162793,3.527408
1005.734375,11.894849,4.761091,7.589108,11.257332
1005.738281,8.938202,4.210365,-1.470554,2.687603
1005.742188,2.860759,9.787349,6.088559,6.993075
1005.746094,6.248758,1.527462,1.518481,4.383280
1005.750000,-4.141281,5.748035,2.254950,-5.472082
1005.753906,-2.126580,1.871516,-0.618769,0.228730
1005.757812,-2.771900,-8.157662,0.558612,-4.877163
1005.761719,-5.028653,-7.912987,0.343223,-13.071313
1005.765625,-8.733163,-5.116669,-7.639413,-7.063269
1005.769531,-8.581825,-7.839585,-10.106432,-9.966882
1005.773438,-11.547214,-4.111872,-11.056440,-7.429148
1005.777344,-12.567163,-18.859598,-12.071889,-9.043171
1005.781250,-6.498582,0.320787,-11.016895,-8.088066
1005.785156,-11.991291,-11.131470,-3.251965,-4.909800
1005.789062,-14.173878,-13.533096,-7.167506,-5.394281
1005.792969,-7.830107,-6.864032,-3.045972,-5.290496
1005.796875,-2.491064,-1.721054,-0.451442,-7.944877
1005.800781,1.785576,3.805263,3.887800,1.082671
1005.804688,5.588685,1.651787,0.713063,-3.467267
1005.808594,-1.301427,6.563257,7.311518,9.126423
1005.812500,1.082825,9.091315,9.927532,7.858635
1005.816406,13.387769,5.976933,8.086207,6.109266
1005.820312,14.929462,9.977202,6.835272,6.362135
1005.824219,8.412848,2.349220,6.160515,1.782098
1005.828125,7.472427,10.954369,8.458504,12.546834
1005.832031,4.699203,5.947345,-1.341441,8.302402
1005.835938,2.549850,7.240451,10.695568,10.219083
1005.839844,13.795025,8.217257,7.897127,8.633377
1005.843750,0.145519,-1.535139,1.086003,9.741211
1005.847656,-1.280371,-1.683118,0.399671,2.961392
1005.851562,4.808391,-4.904707,-1.478388,3.451163
1005.855469,5.468587,-1.711897,-3.427449,-3.375224
1005.859375,-2.139209,-11.588450,-8.185190,-3.244481
1005.863281,-3.938674,-5.724430,-8.240586,-1.874174
1005.867188,-16.139879,-10.857002,-7.149036,-10.882318
1005.871094,-10.446673,-13.441524,-12.353959,-15.775265
1005.875000,-6.621329,-7.887999,-9.938976,-8.724586
1005.878906,-7.271636,-11.549965,-11.630411,-13.041513
1005.882812,-8.451837,-10.879678,-5.832425,-1.981602
1005.886719,-2.015709,-6.799149,-0.162879,-11.807889
1005.890625,-3.537547,-8.870607,-6.046744,-10.311212
1005.894531,-2.482477,-7.894471,-2.896424,-0.350979
1005.898438,-2.272223,0.377221,-0.776621,1.641882
1005.902344,5.199317,7.950203,4.017871,-1.304878
1005.906250,1.430870,9.954647,6.716996,2.744341
1005.910156,6.699133,-0.034428,4.502946,5.889422
1005.914062,4.918961,10.385045,11.600833,15.260903
1005.917969,8.354250,5.784943,15.138592,17.122132
1005.921875,17.119738,13.571659,14.203024,12.981931
1005.925781,13.585382,3.736455,8.085883,10.407358
1005.929688,14.258976,13.892386,8.743665,11.579081
1005.933594,9.965844,5.984422,8.729557,6.219230
1005.937500,1.622780,10.163446,3.755885,2.800146
1005.941406,13.010811,12.581629,-0.315002,7.184578
1005.945312,-0.984685,-0.602454,-4.017757,-5.824246
1005.949219,-4.585764,-2.427426,1.468023,7.485763
1005.953125,-0.386371,-3.945766,-4.606539,-7.034031
1005.957031,-6.611306,-1.452986,-4.310973,0.485602
1005.960938,-6.250281,-0.878984,-2.092780,-6.684965
1005.964844,-0.438477,-7.293987,-4.089987,-4.430133
1005.968750,-9.878569,-10.828680,-5.451081,-12.850446
1005.972656,-14.571038,-9.443566,-17.083382,-2.101491
1005.976562,-12.186123,-8.146641,-14.351114,1.122443
1005.980469,-11.929083,-9.135826,-11.504848,3.074564
1005.984375,-7.818891,-11.223759,-6.367398,-6.205867
1005.988281,-2.980569,-8.646352,-2.097230,-10.488467
1005.992188,-0.319404,-7.591769,1.454470,-5.618154
1005.996094,-12.679309,-7.760625,-6.343554,-4.393409
1006.000000,-1.761532,-3.011168,-4.511560,3.688975
1006.003906,2.143265,3.926750,4.820695,3.915630
1006.007812,4.088710,5.176515,9.471998,7.272278
1006.011719,6.836154,1.625821,8.544014,14.330533
1006.015625,8.982173,8.429007,10.342913,9.346714
1006.019531,4.624668,3.741402,5.888816,12.187452
1006.023438,8.712760,16.157786,8.647926,13.065671
1006.027344,21.199359,9.907715,9.365546,12.454064
1006.031250,12.023765,12.787728,5.348912,8.088518
1006.035156,7.841464,13.107817,5.528194,16.091020
1006.039062,10.602178,2.992700,7.407456,5.098894
1006.042969,3.608220,4.353455,-2.950264,6.016849
1006.046875,4.298101,-1.653576,1.447811,4.202393
1006.050781,-3.303121,3.319450,2.766098,6.411627
1006.054688,-11.023886,-4.751198,-11.633711,-3.412011
1006.058594,-6.680777,-7.942920,-0.966589,-8.172319
1006.062500,-12.669606,-1.432413,-4.832154,-4.897644
1006.066406,-17.696259,-5.924207,-13.377006,-16.529514
1006.070312,-2.010690,-12.257919,-11.130732,-12.973745
1006.074219,-6.787865,-11.816919,-17.777507,-14.303538
1006.078125,-11.872266,-6.309953,-5.604608,-11.647384
1006.082031,-8.180381,-8.590793,-12.615395,-13.607681
1006.085938,-0.382417,-6.569303,-11.845273,-6.902750
1006.089844,-9.802366,-8.053364,-6.077656,-1.407784
1006.093750,-0.366565,1.286446,-6.420090,1.170311
1006.097656,-1.998289,-2.031784,7.883012,-3.705211
1006.101562,0.330010,8.267337,0.938184,2.620616
1006.105469,-1.099924,-3.182806,0.907735,3.295467
1006.109375,11.592352,9.168015,9.023049,-0.670076
1006.113281,11.515421,4.827307,10.098775,11.816112
1006.117188,13.123314,5.252426,15.317300,12.339675
1006.121094,13.779333,10.066425,10.554986,7.503110
1006.125000,11.524177,7.407828,1.559357,9.171943
1006.128906,10.293043,4.889740,5.900330,9.288015
1006.132812,8.407804,13.665964,5.967281,7.389833
1006.136719,9.202195,4.560829,10.168073,18.323334
1006.140625,1.204890,-0.802285,4.407717,12.014854
1006.144531,3.089129,2.198201,1.334710,2.870090
1006.148438,4.945444,-4.827663,9.152388,8.157404
1006.152344,-2.637925,-13.570674,0.148780,-4.204318
1006.156250,-5.763675,-4.736127,-1.117709,-9.775149
1006.160156,-9.301916,-6.262379,-4.668468,-5.798860
1006.164062,-7.969850,-13.245295,-6.414354,-0.869144
1006.167969,-11.749686,-11.396782,-7.860561,-12.533420
1006.171875,-8.047732,-9.840822,-12.725678,-6.076037
1006.175781,-3.844918,-12.727199,-11.327513,-10.962386
1006.179688,-12.291210,-8.751256,-10.658616,-15.252252
1006.183594,-12.586731,-12.846752,-6.622041,-4.581005
1006.187500,-11.419127,-9.431763,-6.530918,-1.104426
1006.191406,-9.119745,-7.947064,-2.805762,-3.896161
1006.195312,-5.398053,-0.410578,-2.097903,-8.167575
1006.199219,-4.303593,-9.754586,-0.798958,-1.465582
1006.203125,6.620763,5.731689,5.905540,-1.814268
1006.207031,-0.964593,-5.746937,5.033307,-3.500870
1006.210938,4.210033,-2.723802,11.025209,5.090203
1006.214844,12.415397,3.287728,14.704400,4.550600
1006.218750,12.202601,6.191683,4.353446,9.137034
1006.222656,9.878596,4.115406,9.667869,0.842047
1006.226562,11.328818,12.816064,14.840550,8.575983
1006.230469,7.774583,14.563870,4.445671,8.433438
1006.234375,10.090763,10.286929,2.951820,8.371702
1006.238281,3.034563,5.165600,8.284483,8.179887
1006.242188,-0.811928,5.431055,5.442288,9.428277
1006.246094,-1.300503,6.894558,1.113359,3.036797
1006.250000,-0.385048,0.235942,-3.508932,-4.818416
1006.253906,-4.788387,-1.635952,-7.691582,-0.704011
1006.257812,-0.593247,-9.494922,-5.568051,-2.642748
1006.261719,-4.911329,-9.243725,-10.222969,-2.899361
1006.265625,-8.561632,-0.068761,5.275598,-9.610564
1006.269531,-10.535987,-9.468648,-5.614246,-1.694379
1006.273438,-7.684320,-17.975014,-9.629802,-5.567213
1006.277344,-12.118464,-5.961733,-10.034296,-12.418128
1006.281250,-3.153729,-2.856503,-6.859512,-16.287805
1006.285156,-7.320439,-5.032847,-6.343548,-7.532860
1006.289062,-3.674311,-5.915529,-3.200786,0.635113
1006.292969,-4.611286,-8.292603,-5.976078,-7.504712
1006.296875,0.945642,-5.729240,-5.531988,-3.573922
1006.300781,-1.957451,2.387577,-2.165073,5.990802
1006.304688,1.102666,-6.875957,1.994241,0.419013
1006.308594,-1.773802,-0.948544,6.994847,11.898722
1006.312500,7.070124,7.683497,2.580204,6.135070
1006.316406,3.383923,14.104252,5.136278,13.538449
1006.320312,10.452607,16.009909,5.283781,11.040469
1006.324219,7.390519,9.865180,18.039128,10.325318
1006.328125,9.696890,16.145326,3.346633,8.960459
1006.332031,8.753781,-2.177901,9.165929,14.175289
1006.335938,7.397405,7.549869,7.394223,12.249907
1006.339844,9.678345,8.992389,8.164513,6.554356
1006.343750,1.499552,3.440737,8.242965,6.618540
1006.347656,1.456028,2.396479,-5.674820,3.529201
1006.351562,5.558092,-1.610371,8.717678,-2.624645
1006.355469,-1.801874,-9.222278,-6.869509,-0.083690
1006.359375,-4.743365,-3.592955,-5.384501,-4.528375
1006.363281,-3.723268,-11.382261,-5.321690,-10.152016
1006.367188,-9.368336,-7.032165,-7.164138,-13.940895
1006.371094,-8.910792,-14.331410,-11.343365,-13.373009
1006.375000,-2.660319,-9.249536,-8.653978,-12.527925
1006.378906,-13.858974,-12.904409,-14.728337,-8.201635
1006.382812,-13.619035,-2.616053,-8.722380,-9.484803
1006.386719,-11.253301,-8.896651,-4.456212,-1.943324
1006.390625,-0.704259,-6.090921,-8.369385,-3.045305
1006.394531,6.101823,-9.763652,-5.096646,2.260809
1006.398438,-2.607187,-7.404285,0.819513,0.430340
1006.402344,10.688074,-3.098788,9.412337,1.559970
1006.406250,0.250912,1.706462,2.349189,-1.218457
1006.410156,0.351244,8.636059,12.017147,8.082585
1006.414062,6.818297,10.354732,0.640188,14.624803
1006.417969,4.744604,13.297742,13.436366,6.513535
1006.421875,8.827056,4.535971,8.068552,7.637882
1006.425781,6.411725,8.744319,12.707210,1.492509
1006.429688,8.133594,13.869412,6.979425,7.805133
1006.433594,8.711295,5.862637,12.061712,7.260750
1006.437500,0.924115,7.844992,-0.450241,4.798669
1006.441406,9.199366,0.375659,1.616753,2.026717
1006.445312,3.595425,3.733622,1.774608,6.120282
1006.449219,-0.627126,-5.984435,3.393368,1.490744
1006.453125,1.601830,-2.507574,6.125996,-1.262094
1006.457031,-3.547853,-11.651592,2.481067,-5.263488
1006.460938,-12.604426,-5.097201,-0.214495,-6.190911
1006.464844,-4.325364,-6.283638,-17.371322,-7.186278
1006.468750,-9.259692,-17.078085,-6.042272,-4.402681
1006.472656,-8.415699,-11.937899,-7.716512,-11.479166
1006.476562,-15.695555,-7.350490,-11.501373,-11.775031
1006.480469,-6.075605,-5.485251,-9.838656,-12.402837
1006.484375,-0.358067,-11.029125,-9.969120,-5.901344
1006.488281,-3.372304,-9.246140,-6.896915,-6.586216
1006.492188,-5.604683,-1.159874,-2.596992,-1.499770
1006.496094,-12.231482,1.731714,-2.254418,-5.521194
1006.500000,-4.130198,-2.836280,-2.077008,1.705827
1006.503906,4.192785,1.338157,1.932270,-2.372226
1006.507812,5.864869,6.032613,3.294656,2.341692
1006.511719,9.390205,12.443723,7.632060,8.654147
1006.515625,4.327430,8.812926,9.363699,12.568027
1006.519531,10.301453,15.087492,5.619645,-1.269279
1006.523438,3.563151,10.406550,12.289752,8.734460
1006.527344,7.502418,6.461828,8.960686,13.327829
1006.531250,6.149046,11.596810,8.483904,3.469843
1006.535156,9.197798,11.942309,15.114218,7.675882
1006.539062,12.606251,13.269088,2.028616,4.491664
1006.542969,1.952583,4.377416,8.607795,8.966069
1006.546875,1.360892,2.369378,0.109428,2.094449
1006.550781,4.472975,-6.753062,1.516242,-1.665817
1006.554688,1.210928,-4.094303,1.789018,4.091847
1006.558594,-4.651361,1.513847,-8.144771,-10.529594
1006.562500,-12.580289,-6.796508,-7.369310,-3.255300
1006.566406,-6.292019,-14.450290,-11.443423,-7.728219
1006.570312,-13.539207,-7.211121,-16.072750,-6.390834
1006.574219,-13.890165,-12.962069,-14.018165,-8.029508
1006.578125,-8.245570,-4.798728,-4.744302,-8.263234
1006.582031,-12.729255,-9.547231,-4.891179,-8.340862
1006.585938,-4.937924,-7.271249,-11.634694,-11.470135
1006.589844,-3.253731,-10.436137,-3.865538,-6.323358
1006.593750,-5.998053,-1.140244,-6.250552,-2.141394
1006.597656,1.721905,-7.491471,8.124354,0.674033
1006.601562,5.021588,-5.484802,-1.325447,0.307581
1006.605469,2.567004,5.730308,-2.062752,8.811412
1006.609375,5.227938,20.529129,7.200715,-2.327486
1006.613281,5.097345,3.745153,9.264513,12.883631
1006.617188,8.401028,7.824658,10.043377,14.344245
1006.621094,12.358750,6.455989,11.132296,4.286132
1006.625000,2.024494,12.654924,13.120265,14.218973
1006.628906,15.614405,6.340932,8.337860,10.430559
1006.632812,11.647242,10.019842,8.700542,6.995497
1006.636719,12.983806,10.745933,7.167249,10.681602
1006.640625,3.410920,0.521647,-1.116483,1.592751
1006.644531,1.427531,6.891110,2.138517,-2.916114
1006.648438,-2.290805,-2.541641,-2.243003,-6.533438
1006.652344,1.104110,3.795827,-0.473554,-1.414391
1006.656250,-6.387150,-4.548047,-5.344823,-1.176803
1006.660156,-3.846895,-7.149120,-10.601814,-2.783691
1006.664062,-8.640304,-2.618316,-4.576447,-10.620903
1006.667969,-6.642875,-7.701051,-3.444966,-12.566824
1006.671875,-8.319070,-10.690037,-16.058395,-7.889975
1006.675781,-13.342154,-12.157677,-10.697575,-7.389378
1006.679688,-4.721302,-12.182237,-8.781011,-8.435123
1006.683594,-5.979598,-8.763095,-8.968868,-13.182483
1006.687500,-7.997055,-5.657653,-4.917192,-10.384738
1006.691406,-4.010153,-1.051716,-6.431970,-11.139081
1006.695312,1.405609,2.183597,2.682785,-5.968288
1006.699219,-7.648643,-1.928566,-1.825032,-2.730278
1006.703125,-5.693513,-1.294558,-0.602673,1.695557
1006.707031,6.881544,9.725969,1.576402,10.044939
1006.710938,4.614346,2.281881,3.432424,1.490644
1006.714844,11.700426,2.303892,4.231721,7.116773
1006.718750,4.175365,11.947834,15.914812,6.073625
1006.722656,10.114732,12.794546,12.174282,-1.156319
1006.726562,1.703862,17.426155,9.550996,7.908716
1006.730469,10.712920,10.173991,12.422780,12.585544
1006.734375,9.020872,7.277180,12.961391,12.664878
1006.738281,6.842263,8.882128,9.986668,2.612150
1006.742188,2.223324,5.600166,9.781081,3.918868
1006.746094,-2.998372,2.616210,-2.322607,5.584627
1006.750000,4.906209,-1.822248,-0.550211,-0.450178
1006.753906,0.450584,2.163581,-10.004965,-1.199267
1006.757812,-3.097068,-3.216713,-0.407470,-9.285128
1006.761719,-5.520579,-4.864027,3.787012,-11.575819
1006.765625,-5.230882,-12.715406,-6.882294,-5.499181
1006.769531,-5.376212,-15.311793,-12.101071,-16.120003
1006.773438,-3.554343,-2.530781,-8.543652,-11.036516
1006.777344,-7.717807,-11.750005,-17.802423,-5.970541
1006.781250,-6.269408,-9.800164,-13.618726,-5.235552
1006.785156,-7.222877,-6.887631,-11.917769,-7.411188
1006.789062,-3.271143,-12.989804,-5.057291,-6.908935
1006.792969,-3.800110,-8.536781,-4.973140,-7.715921
1006.796875,2.720486,0.136014,-6.281556,4.630617
1006.800781,-4.190046,5.904636,-0.653156,1.306395
1006.804688,4.048744,7.177419,7.671376,6.141710
1006.808594,-1.165935,1.858236,9.286652,-1.866866
1006.812500,-0.669269,2.530802,5.067240,1.808142
1006.816406,5.310023,12.638012,11.498691,13.192545
1006.820312,7.056582,9.498435,9.176722,7.770851
1006.824219,13.575945,9.427175,5.693237,9.968859
1006.828125,9.611270,6.003752,11.079025,10.362768
1006.832031,12.218738,8.234467,8.050294,8.987104
1006.835938,8.854259,14.782131,10.744449,12.799918
1006.839844,8.881681,6.090865,11.860923,4.657869
1006.843750,5.976217,7.993792,3.769010,-3.692258
1006.847656,-1.051603,3.818123,5.251665,-0.120501
1006.851562,-3.686660,0.695527,-3.763959,-6.800116
1006.855469,-11.304938,-5.412635,-3.962344,-2.361309
1006.859375,-3.159658,-4.662598,-7.566880,-4.782693
1006.863281,-6.738356,-4.590849,-7.182837,-7.687023
1006.867188,-11.032833,-4.156917,-1.336799,-14.486575
1006.871094,-8.062563,-7.117088,-12.509039,-17.291404
1006.875000,-6.601815,-8.795938,-12.994874,-5.885496
1006.878906,-12.693256,-15.783995,-12.446325,-11.169830
1006.882812,-11.663707,-12.209435,-14.443294,-7.607260
1006.886719,-3.497293,-7.375677,-3.863087,-6.878134
1006.890625,-4.899916,-10.359088,-5.776025,-8.256172
1006.894531,-2.017500,-9.364253,-6.267788,-2.785524
1006.898438,0.971896,0.653430,-10.333036,-0.238287
1006.902344,3.111358,-4.080354,1.862517,-5.138561
1006.906250,4.081789,4.950652,8.207625,4.619572
1006.910156,13.825958,8.454475,8.262793,8.551472
1006.914062,14.834415,14.391694,7.472150,13.870109
1006.917969,7.914674,7.339503,7.531360,14.337914
1006.921875,12.010613,11.765718,13.493756,8.865673
1006.925781,6.785191,18.992830,7.291991,4.127359
1006.929688,6.811423,8.872628,12.792460,9.058554
1006.933594,2.469565,5.456923,8.665331,7.391667
1006.937500,3.860477,8.844058,5.969541,4.668714
1006.941406,7.400834,-6.272069,10.172939,6.004681
1006.945312,6.025289,5.026269,2.287786,-4.079795
1006.949219,4.199819,-1.263473,7.096155,4.366149
1006.953125,0.791797,1.829183,2.911943,-1.527850
1006.957031,-2.052745,-7.936848,-2.889627,-1.751984
1006.960938,-13.447395,-7.010899,-7.726120,-11.794414
1006.964844,-9.537885,-4.010281,-10.697208,-15.021276
1006.968750,-7.301509,-10.701016,-12.480748,-11.080283
1006.972656,-9.210145,-8.842343,-17.051860,-9.647577
1006.976562,-11.276920,-7.569850,-23.026484,-12.012194
1006.980469,-13.955853,-3.965717,2.509601,-10.630567
1006.984375,-12.903219,-8.627164,-6.380751,-4.842993
1006.988281,-9.078431,-4.127715,-9.643680,-11.199144
1006.992188,-2.453351,-11.100331,3.149125,-6.726724
1006.996094,-2.468341,-3.740966,-1.039675,-4.110060
1007.000000,0.006521,6.903867,3.617116,0.525932
1007.003906,4.834568,2.140075,11.919927,-0.404631
1007.007812,7.031358,6.964910,2.153602,2.310394
1007.011719,7.719432,15.403720,8.784178,8.044560
1007.015625,7.433440,8.032622,7.381176,4.657671
1007.019531,10.903845,11.030830,10.033138,10.087275
1007.023438,8.677646,15.449084,-0.436101,11.804677
1007.027344,10.312616,6.176674,8.411903,10.997914
1007.031250,5.756305,12.156211,8.674211,7.948880
1007.035156,9.761688,7.880737,2.004911,9.323071
1007.039062,6.197349,1.052297,11.250380,6.439327
1007.042969,2.897382,4.724493,10.516817,6.330167
1007.046875,8.086802,-3.605013,0.609794,0.729498
1007.050781,0.785420,5.613327,-1.859243,1.568800
1007.054688,4.499219,-8.824033,-12.210140,-10.421457
1007.058594,0.136667,-0.639020,-7.847194,-6.852259
1007.062500,-9.136252,-5.149956,-1.781203,-5.740698
1007.066406,-13.941417,-6.958809,-4.166645,-8.987823
1007.070312,-4.786178,-5.249459,-8.078043,-8.943856
1007.074219,-14.979472,-10.516461,-7.965678,-9.724525
1007.078125,-5.935996,-7.681654,-13.774886,-13.339954
1007.082031,-11.211661,-9.010138,-16.923645,-11.428188
1007.085938,-5.365990,-4.040335,-8.089754,-14.327057
1007.089844,-7.644227,1.704104,-0.343990,-0.899755
1007.093750,-8.924096,-0.986299,-0.998650,-1.225098
1007.097656,7.718052,-3.463601,-2.126932,5.932802
1007.101562,2.415796,3.182592,-0.761296,4.316504
1007.105469,0.398903,2.020806,-0.960520,3.521615
1007.109375,3.651045,8.692632,3.759350,9.980191
1007.113281,9.753245,8.977283,0.948987,6.657871
1007.117188,1.992158,6.137186,12.999522,8.525874
1007.121094,6.424238,10.833506,8.882839,5.894029
1007.125000,11.919596,8.447394,14.800639,10.218329
1007.128906,4.044322,7.658558,8.172139,9.728512
1007.132812,8.423839,10.403494,7.608171,-0.726373
1007.136719,8.052381,-1.350969,2.899729,8.486641
1007.140625,0.299244,8.546419,13.387984,1.001709
1007.144531,5.849098,2.149362,3.240171,-0.161633
1007.148438,-2.371095,-0.982112,0.528449,5.160938
1007.152344,-4.506751,1.255531,0.845125,-5.558346
1007.156250,-4.624510,-5.896190,1.275719,-12.839063
1007.160156,-4.816653,-2.521934,-9.462260,-5.887270
1007.164062,-5.635245,-8.564491,-4.295356,-6.155369
1007.167969,-8.764907,-4.487686,-6.987800,-4.329193
1007.171875,-6.747272,-11.694154,-4.579511,-10.555429
1007.175781,-10.349186,-4.894339,-9.917203,-1.894005
1007.179688,-7.659231,-2.920374,-10.494368,-4.506894
1007.183594,-14.616389,1.274267,-3.358324,-10.334777
1007.187500,-0.306974,-5.179030,-11.038793,-9.702535
1007.191406,-12.336790,-9.443194,3.109588,-6.462604
1007.195312,-3.241142,-9.878605,-0.588723,0.682931
1007.199219,1.882800,-0.217923,-1.411721,-1.218475
1007.203125,-5.414540,7.659894,-3.838257,8.084688
1007.207031,-1.753706,7.340328,6.318956,7.626804
1007.210938,11.748952,4.441378,5.306244,2.570081
1007.214844,10.621559,4.009573,12.829091,11.965887
1007.218750,4.875333,7.842513,9.389745,0.828974
1007.222656,5.668662,10.422865,5.000563,11.492760
1007.226562,10.422285,12.046087,12.492189,14.559967
1007.230469,-0.104210,6.345152,7.504742,6.477860
1007.234375,4.420658,10.622003,10.862424,0.652077
1007.238281,7.157193,5.135134,3.339635,5.179659
1007.242188,5.811232,2.311228,0.537469,2.164212
1007.246094,6.863996,-4.916525,3.442759,3.982664
1007.250000,1.514307,-6.889677,1.171595,-4.498269
1007.253906,-7.645457,-5.805592,-9.318325,-4.127040
1007.257812,-7.090999,1.876828,-7.325482,-2.826086
1007.261719,-9.826276,-3.524134,-6.444650,-12.804509
1007.265625,-6.795938,-3.367878,-7.587497,-8.364070
1007.269531,-8.098967,-9.458805,-16.118058,-9.166488
1007.273438,-12.032022,-5.667434,-14.025152,-10.320016
1007.277344,-5.800316,-9.541448,-5.786570,-13.264801
1007.281250,-0.353285,-8.422613,-18.778378,-12.526353
1007.285156,-8.663626,-5.935684,-12.880688,-10.487448
1007.289062,-11.466257,-9.637774,-2.707335,-0.230649
1007.292969,6.688528,-5.044493,-7.599368,-8.456942
1007.296875,2.308853,-6.260904,-0.216517,5.992657
1007.300781,2.177862,4.196513,5.115641,9.268222
1007.304688,2.782049,8.743227,1.202625,7.743662
1007.308594,8.290544,2.237534,7.279592,5.576883
1007.312500,14.365448,3.432486,4.188453,13.670424
1007.316406,15.726066,13.517595,11.019028,11.712364
1007.320312,5.834652,6.969468,10.730466,7.933768
1007.324219,11.140620,7.292695,10.785997,7.062011
1007.328125,7.862139,17.930610,13.018283,5.191666
1007.332031,6.582617,1.427195,4.750553,9.359992
1007.335938,16.439415,6.557981,12.370192,9.312247
1007.339844,10.436384,4.304892,1.202022,0.419091
1007.343750,7.282108,1.979914,2.036391,8.658841
1007.347656,6.658063,2.161359,-0.340480,1.739587
1007.351562,-6.770606,-6.450388,0.474530,2.214485
1007.355469,1.604191,-5.753279,-10.940696,1.925414
1007.359375,-6.788858,-5.411538,-2.188077,-5.996877
1007.363281,-0.029433,-11.247107,-5.933018,-3.554993
1007.367188,-3.506907,-4.654361,-9.339286,-4.580531
1007.371094,0.410427,-9.131161,-9.877800,-4.048799
1007.375000,-14.813798,-12.163485,-11.517601,-14.335449
1007.378906,-8.808060,-8.418259,-10.923737,-7.260310
1007.382812,-5.096119,-13.038522,-5.443945,-15.371382
1007.386719,-1.653597,-9.744018,-13.719194,-3.216231
1007.390625,-8.320570,-6.872769,-2.796824,-1.799413
1007.394531,-3.186773,7.369246,-8.054044,-1.640232
1007.398438,-4.745790,4.824567,1.383957,-0.018390
1007.402344,-0.748209,2.588841,5.298906,-6.000429
1007.406250,-1.854920,6.764627,-5.021697,6.392898
1007.410156,3.199803,5.365545,10.419902,5.442022
1007.414062,5.313475,9.965178,1.711237,7.976898
1007.417969,6.063563,17.301513,6.584134,5.987606
1007.421875,6.050901,13.117220,10.634187,14.211434
1007.425781,11.797689,7.341266,7.630060,5.558339
1007.429688,3.992694,1.792225,17.302200,3.298774
1007.433594,2.504924,8.118990,10.246672,9.745610
1007.437500,7.761757,7.544285,9.467358,16.154829
1007.441406,8.506366,-3.241693,7.170694,7.475314
1007.445312,2.354925,5.177244,-4.872255,0.292460
1007.449219,2.611167,-0.249951,7.186678,3.364336
1007.453125,-4.519492,-3.932696,0.049277,-4.312227
1007.457031,-8.888809,-9.616901,2.077896,-4.492385
1007.460938,-2.613924,-3.066873,-10.821648,-7.574389
1007.464844,-7.983337,-8.188888,-8.910323,-9.529460
1007.468750,-9.717675,-7.983288,-10.398466,-5.349827
1007.472656,-12.780153,-11.414203,-20.509718,-18.774236
1007.476562,-12.199253,-10.239584,-8.105142,-14.935676
1007.480469,-15.943812,-13.297347,-8.495185,-3.033026
1007.484375,-6.373495,-11.595644,-3.952538,-12.936095
1007.488281,-5.759706,-2.436118,-4.279340,-3.736239
1007.492188,-4.930171,-5.195995,-3.647142,-6.738830
1007.496094,-0.684856,-8.926742,4.448802,-5.714798
1007.500000,-2.214749,-2.948288,1.818490,-2.329484
1007.503906,5.071643,-1.460016,-0.262611,-0.836421
1007.507812,12.051585,8.562463,5.994738,8.820660
1007.511719,3.225684,5.193296,7.397817,5.465432
1007.515625,2.233486,12.054994,10.256919,12.295567
1007.519531,-0.718077,8.480789,10.945375,4.961290
1007.523438,7.866470,14.372704,12.696581,15.280071
1007.527344,9.384518,10.183118,4.171539,8.357279
1007.531250,3.615148,4.492684,11.026354,9.744130
1007.535156,10.218135,10.386844,13.506548,12.905735
1007.539062,11.769883,12.484285,4.406763,7.031452
1007.542969,4.863136,3.055026,4.688165,9.156451
1007.546875,0.572785,-1.037496,-0.968741,-2.769506
1007.550781,-3.485904,0.773812,-8.398131,0.559631
1007.554688,1.844201,-12.171364,-1.736752,-10.401009
1007.558594,-5.072404,-5.366355,-6.966311,2.518501
1007.562500,-3.612591,-8.442034,-15.175672,-10.674426
1007.566406,-14.719525,-3.980308,-3.825273,-10.322129
1007.570312,-9.142423,-8.184296,-9.362698,-10.137070
1007.574219,-10.088857,-16.330899,-13.274154,-9.909972
1007.578125,-12.587111,-7.164785,-11.137047,-6.937034
1007.582031,-7.616658,-0.678545,-11.584485,-10.433708
1007.585938,-7.174169,-5.796955,-10.820237,-9.215141
1007.589844,-3.412602,-5.580469,-0.505670,-5.941574
1007.593750,-4.099300,-6.573276,0.380175,2.990834
1007.597656,-2.163820,-5.854590,-1.751726,-2.938171
1007.601562,-0.623400,2.971333,-2.927776,0.688883
1007.605469,0.942516,6.157904,-4.393827,6.678469
1007.609375,8.554056,-5.365762,4.178963,6.847118
1007.613281,2.736400,3.910247,7.506965,10.048110
1007.617188,12.677473,11.666694,2.737118,8.717916
1007.621094,2.079944,12.405477,9.107845,3.168380
1007.625000,9.425266,11.564110,10.499088,6.738323
1007.628906,11.026554,9.751297,14.065535,6.609654
1007.632812,3.526253,13.147531,4.461675,9.126826
1007.636719,3.137706,6.544105,7.036498,3.796714
1007.640625,1.412207,6.990604,9.616454,3.952538
1007.644531,-1.467409,-0.218302,4.110851,-2.519755
1007.648438,3.990764,5.362836,5.318094,-2.950063
1007.652344,-5.922769,-1.044861,3.974614,2.497047
1007.656250,-1.828941,-7.325413,-0.016755,-10.023524
1007.660156,-9.827387,-3.023485,-2.248187,-8.328240
1007.664062,-11.601866,-14.512205,-9.439887,-4.681552
1007.667969,-16.768743,-8.536056,-14.592136,-8.704357
1007.671875,-9.594633,-11.339142,-11.181472,-11.002924
1007.675781,-8.711101,-10.619394,1.014012,-7.379202
1007.679688,-11.624964,-8.639409,-10.023949,-8.185654
1007.683594,-14.480428,-13.224284,-3.674620,-11.044704
1007.687500,-4.713130,-5.797107,-3.483167,-7.241248
1007.691406,-7.372702,-4.083334,-6.173722,-7.954239
1007.695312,-5.179573,-4.800936,-9.091656,-1.974407
1007.699219,0.800202,-3.200723,-1.186647,-5.658751
1007.703125,0.550143,2.144551,-3.586127,6.003361
1007.707031,12.488854,4.155488,2.342216,9.499434
1007.710938,6.217265,11.134728,6.318168,6.835228
1007.714844,9.974071,6.082357,13.899657,11.498894
1007.718750,2.920303,16.317288,3.453430,10.432663
1007.722656,9.757571,14.019449,10.549642,7.038343
1007.726562,6.381644,9.947100,10.952022,8.374771
1007.730469,5.908322,10.525475,11.281701,7.293001
1007.734375,9.629113,7.182500,4.793707,5.429711
1007.738281,7.148134,6.404945,6.087488,9.313663
1007.742188,7.512486,-0.629629,2.653646,-0.433557
1007.746094,6.583446,-4.761418,1.537932,0.220667
1007.750000,0.983199,-2.548865,-0.470806,-1.953267
1007.753906,-3.870333,-3.422213,1.246222,-3.270249
1007.757812,-3.687254,-6.387447,-2.992624,-4.501159
1007.761719,-4.928387,-4.408824,-6.992312,-9.599434
1007.765625,-8.153750,-4.617884,-10.979854,-11.417769
1007.769531,-9.652850,-6.809595,-7.456685,-7.364770
1007.773438,-4.815848,-8.821207,-5.702889,-14.120524
1007.777344,-12.166514,-12.040144,-21.777341,-17.018401
1007.781250,-6.297091,-7.083649,-7.768698,-3.336789
1007.785156,-8.861318,-9.988674,-8.692258,-8.776262
1007.789062,0.150989,-14.694368,2.643637,-4.895591
1007.792969,-4.692383,-6.729505,-13.317426,-1.688136
1007.796875,-14.654032,5.341189,-7.226078,6.267359
1007.800781,1.532088,-5.112477,-0.693987,0.073518
1007.804688,0.850351,3.856404,5.731163,3.453981
1007.808594,8.129010,7.086530,3.182680,9.442562
1007.812500,4.344722,4.611032,5.032969,13.092488
1007.816406,7.628759,0.447994,3.595451,7.119721
1007.820312,11.480832,17.852938,6.239027,3.789964
1007.824219,8.335974,16.470444,15.913096,9.015644
1007.828125,7.903082,14.695888,7.475763,7.013147
1007.832031,6.097800,17.467648,16.555604,7.013919
1007.835938,3.606567,3.327044,11.065095,1.954685
1007.839844,4.087018,18.492915,2.495158,7.771106
1007.843750,8.185603,9.028050,1.338083,5.262709
1007.847656,-1.500981,-0.062269,4.440155,2.711029
1007.851562,-6.892758,-5.430650,-8.553783,3.826698
1007.855469,-1.346465,-8.915044,-12.070649,-8.403370
1007.859375,-2.640352,0.882870,-0.819164,-7.242316
1007.863281,-6.126815,-4.272730,-11.393017,-7.392273
1007.867188,-12.000581,-5.546239,-7.353326,-10.089690
1007.871094,-9.351555,-3.583772,-10.326607,-12.079156
1007.875000,-8.385174,-6.552318,-11.727815,-10.615237
1007.878906,-2.550916,-8.605862,-7.321639,-6.693189
1007.882812,-7.760804,-7.513325,-13.109268,-11.842722
1007.886719,-5.782777,-7.051729,-2.176705,-9.802284
1007.890625,-8.513575,1.896346,-3.393249,-7.479634
1007.894531,-11.815258,-4.584769,-0.813200,0.740967
1007.898438,-3.751263,-0.543340,3.737100,-1.267690
1007.902344,3.554613,4.767751,-4.072334,3.986668
1007.906250,-2.174343,6.321029,6.309759,3.097797
1007.910156,6.861525,9.839337,0.499098,0.983134
1007.914062,7.355615,7.544457,10.013692,13.629678
1007.917969,13.858588,21.044695,3.531179,7.824778
1007.921875,11.088846,15.082679,8.063627,10.030782
1007.925781,0.285684,-1.621343,10.089042,6.707602
1007.929688,10.925133,8.899847,12.028786,9.359559
1007.933594,12.268134,2.953327,12.438604,5.785145
1007.937500,2.977174,13.079719,9.977616,4.826722
1007.941406,11.886478,4.745679,8.494081,5.740353
1007.945312,-4.541611,4.199810,-1.447712,-0.836569
1007.949219,0.146394,0.015022,11.578107,2.099507
1007.953125,-6.361746,-2.364495,2.394437,-7.907137
1007.957031,-2.469965,-11.093906,-4.328388,-10.424348
1007.960938,-7.485514,-8.342057,-4.878118,-5.363849
1007.964844,-11.350109,-10.313746,-4.078735,-13.481181
1007.968750,-11.001210,-5.083029,-14.832221,-9.692749
1007.972656,-10.661670,-7.903466,-10.471576,-4.628903
1007.976562,-12.550868,-7.196327,-7.087688,-21.512019
1007.980469,-6.675284,-10.083329,-8.016307,-6.207738
1007.984375,-0.512507,0.068655,-4.182979,-1.667456
1007.988281,-7.113511,-5.753569,-8.359732,-5.303590
1007.992188,-2.683644,-5.709648,-4.350297,-10.136490
1007.996094,-5.352337,1.794330,-6.776786,-1.979638
1008.000000,3.636354,-0.708863,7.154646,1.501419
1008.003906,-1.396096,4.293722,3.493073,-3.853173
1008.007812,2.946470,-4.161390,7.491996,-0.160932
1008.011719,1.201594,2.486641,1.153331,7.854322
1008.015625,6.082753,8.684352,10.519734,10.230163
1008.019531,3.585044,17.664960,6.437650,6.826053
1008.023438,7.762604,9.480126,3.398393,11.510229
1008.027344,10.126810,8.048172,12.886407,11.969160
1008.031250,4.910194,8.900071,7.705888,5.513144
1008.035156,2.252274,14.058821,2.742616,12.062218
1008.039062,12.760673,2.036900,6.676657,5.152970
1008.042969,2.693842,8.060482,-7.454924,8.751668
1008.046875,7.356535,4.557858,-2.041963,-0.685558
1008.050781,-2.896640,1.115723,0.326761,-4.313748
1008.054688,3.351181,-2.475335,-0.621719,-5.579342
1008.058594,-7.610342,-5.938518,-2.893977,-5.940688
1008.062500,-10.755767,-6.699442,-4.386279,-4.103905
1008.066406,-10.772489,-6.251347,-8.493665,-13.503270
1008.070312,-5.448960,-16.673064,-9.658181,-6.371761
1008.074219,-15.539852,-13.228558,-6.561176,-12.598324
1008.078125,-15.516615,-5.739682,-13.816767,-4.593715
1008.082031,-13.786065,-14.468143,-9.447118,-7.576760
1008.085938,-4.917717,-7.585322,-5.239299,-7.487165
1008.089844,1.164591,-6.508026,-8.039169,-7.842267
1008.093750,-13.049870,-5.765476,-4.371080,-1.717794
1008.097656,2.363572,2.073457,-5.669456,-6.188016
1008.101562,6.578414,-3.864572,4.982440,5.267551
1008.105469,0.289258,2.138581,8.338804,-1.218902
1008.109375,-3.186860,4.282577,3.747610,6.486580
1008.113281,11.949155,3.669038,10.800186,5.719608
1008.117188,4.350493,7.656361,3.686150,9.109574
1008.121094,10.571146,13.263127,5.355492,12.067039
1008.125000,9.339955,13.789237,6.984511,8.135937
1008.128906,6.800461,11.871050,8.497834,11.179052
1008.132812,12.270690,12.196523,1.898905,10.449770
1008.136719,8.519821,17.383045,3.557787,6.282835
1008.140625,-2.428130,6.462904,2.788036,2.460701
1008.144531,1.296194,1.995243,0.542496,9.042899
1008.148438,2.606348,3.106450,3.813679,5.103559
1008.152344,-6.329506,2.441546,-4.467822,-3.722166
1008.156250,-4.374272,-2.826115,1.733963,-8.421104
1008.160156,1.333890,-3.762515,-10.588700,-10.373239
1008.164062,-2.731656,-7.954844,-5.188850,-8.165200
1008.167969,-6.723209,-11.322547,-13.456238,-12.835431
1008.171875,-9.547345,-11.344427,-11.482684,-9.595530
1008.175781,-2.890246,-15.502336,-12.724551,-10.429902
1008.179688,-20.323053,-8.985347,-6.424015,-20.140856
1008.183594,-10.963698,-5.850968,-7.406981,-10.961899
1008.187500,-10.336782,-3.891612,-3.031213,-9.725772
1008.191406,-6.587133,-6.823753,1.312629,-9.073075
1008.195312,0.259743,-1.923169,4.842800,-5.136512
1008.199219,4.983739,-2.937553,-0.311756,-2.979468
1008.203125,3.100498,0.421667,4.848403,0.567351
1008.207031,4.119083,4.255606,5.110092,3.850366
1008.210938,-0.387564,4.548023,15.441923,10.012891
1008.214844,2.464529,0.157072,13.576406,0.872747
1008.218750,7.810422,7.651089,11.784958,11.085833
1008.222656,9.210374,7.397936,13.640762,14.909465
1008.226562,4.148750,12.179216,16.097859,5.033567
1008.230469,13.439862,9.452591,-0.591192,9.122936
1008.234375,12.510018,8.248249,12.067028,12.506280
1008.238281,-0.670975,7.803828,5.848972,1.404561
1008.242188,5.089769,11.921830,0.825611,11.531413
1008.246094,-7.775133,7.593565,-1.981877,-1.062678
1008.250000,-2.284244,1.612632,-3.340569,1.935749
1008.253906,-4.654354,1.054014,-13.283844,2.072632
1008.257812,-10.298716,2.737790,1.539630,-4.639350
1008.261719,-8.926591,-10.427913,-1.801024,-15.255027
1008.265625,-8.323740,-13.294779,-7.339996,-0.600021
1008.269531,-7.473248,-12.929626,-5.119775,-12.103236
1008.273438,-10.125379,-6.098305,-7.720092,-9.733928
1008.277344,-13.251225,-8.288678,-13.116003,-7.394318
1008.281250,1.196467,-6.717661,-9.761484,-6.435709
1008.285156,-7.231416,-10.172101,-12.303901,-5.348441
1008.289062,-7.621782,-12.662053,-8.765724,-11.455433
1008.292969,-0.334430,-4.701111,-5.596824,-0.831033
1008.296875,-11.822714,-1.545648,-4.063657,-9.274358
1008.300781,3.705662,2.798651,-2.035190,6.609251
1008.304688,1.871861,0.895927,7.492315,11.261232
1008.308594,8.921486,0.156130,9.467334,0.885496
1008.312500,9.982357,7.195353,3.915750,3.183728
1008.316406,1.607425,3.907703,4.628600,8.737595
1008.320312,10.092488,13.849549,11.510647,5.312853
1008.324219,4.304421,8.664875,7.727695,5.872730
1008.328125,16.937482,11.643657,6.662190,5.299156
1008.332031,6.507894,14.875075,12.413300,3.335833
1008.335938,15.994984,4.189942,7.223242,12.632081
1008.339844,7.255648,4.856131,1.336285,3.505008
1008.343750,8.655998,3.206383,9.174186,4.752927
1008.347656,0.349788,2.696924,3.534970,-0.580710
1008.351562,-4.579089,-3.185000,-0.902370,0.504060
1008.355469,-8.792833,-2.158304,-2.730979,-2.672110
1008.359375,-6.804772,-8.276163,5.654700,-7.774700
1008.363281,-8.318352,-12.539095,-6.738807,-4.353068
1008.367188,-11.322875,-8.460534,-13.404000,-7.619248
1008.371094,-10.554900,-6.812122,-7.181578,-11.171622
1008.375000,-5.742727,-14.095403,-13.941436,-10.137720
1008.378906,-12.921502,-12.246768,-12.686616,-9.319078
1008.382812,-6.308164,-13.187846,-10.305503,-10.721918
1008.386719,-4.028974,-7.215724,-5.429747,-12.828920
1008.390625,-9.341637,-0.650230,-3.014204,-10.018245
1008.394531,-2.303222,-7.473514,5.084045,-4.148100
1008.398438,-0.279626,1.227238,1.126782,-2.409799
1008.402344,6.435599,0.325551,2.101038,6.466026
1008.406250,8.958490,11.733740,4.659936,14.008479
1008.410156,3.763228,0.743302,4.655675,7.646553
1008.414062,-0.603094,6.129469,1.965910,-2.524009
1008.417969,8.945608,13.562510,8.066188,12.307894
1008.421875,17.016287,8.320875,10.455681,10.677007
1008.425781,12.377987,7.193439,13.290486,16.290524
1008.429688,9.161332,7.391340,7.338810,10.517833
1008.433594,11.496714,3.735055,9.749989,5.663764
1008.437500,7.390929,4.210808,7.387979,12.942036
1008.441406,10.372498,6.665776,5.005293,4.972822
1008.445312,6.292471,-1.020230,3.536147,5.828508
1008.449219,-2.249859,-2.249425,0.158957,8.318586
1008.453125,-4.591491,2.809501,9.439006,-1.619270
1008.457031,2.714243,2.706761,-6.422107,1.557289
1008.460938,-3.627601,-7.247974,-6.786915,-9.192417
1008.464844,-8.597421,-8.434131,-7.088285,-15.313083
1008.468750,-9.254534,-13.858057,-4.183007,-7.279843
1008.472656,-5.904764,-15.917078,-3.257569,-3.860560
1008.476562,-13.423897,-14.244608,-12.061210,-18.746372
1008.480469,-18.957191,-12.289144,-9.837352,-2.938440
1008.484375,-4.461516,-10.242358,-4.220830,-10.220472
1008.488281,-4.224934,-7.604120,-6.789203,-7.273945
1008.492188,-9.738186,-1.304239,-5.293524,-5.408887
1008.496094,8.401312,-3.228925,-9.498096,3.355290
1008.500000,-8.681289,-1.678841,0.492901,-1.132188
1008.503906,13.853893,-5.070062,5.506107,0.476321
1008.507812,-1.651669,5.350798,8.936894,2.360033
1008.511719,2.079167,10.282979,9.882173,5.062020
1008.515625,8.662100,7.021238,11.632620,10.668630
1008.519531,7.068022,7.029573,6.533414,8.302909
1008.523438,11.444819,8.278075,13.876873,9.645874
1008.527344,11.343410,4.786390,7.438642,4.991940
1008.531250,15.543690,10.956362,14.211456,5.665645
1008.535156,3.688210,12.778365,9.312757,7.701356
1008.539062,8.583506,3.329090,7.710578,1.255463
1008.542969,3.796500,10.100601,4.283535,3.051712
1008.546875,4.567222,-5.687447,4.586239,4.759370
1008.550781,-2.074555,3.799677,-1.623581,2.268996
1008.554688,-7.931050,-6.863532,-5.068471,-1.847942
1008.558594,-2.543396,-3.379310,0.390041,-4.103680
1008.562500,-10.320262,-12.698537,-9.234914,-10.724514
1008.566406,-14.135199,-13.258873,-9.783877,-13.593017
1008.570312,-13.114263,-14.041038,-7.349671,-5.053007
1008.574219,-11.564257,-12.143140,-13.253239,-1.222527
1008.578125,2.468232,-12.373975,-8.412725,-12.622470
1008.582031,-9.359193,-6.522584,-15.972854,-8.214183
1008.585938,-13.544478,-5.819361,-8.928063,-1.617913
1008.589844,-9.481206,-4.195290,-5.945283,-6.050658
1008.593750,-3.804076,-2.262969,-8.584933,-3.681816
1008.597656,-4.133918,-0.984675,-6.975215,-5.382337
1008.601562,1.985146,5.189260,-2.193816,9.831967
1008.605469,4.613989,4.580366,0.017688,7.136586
1008.609375,9.702010,14.225036,-1.463371,6.405917
1008.613281,9.398707,5.135188,3.756944,13.510169
1008.617188,17.801531,12.269828,6.791796,4.888510
1008.621094,16.900678,4.909569,13.503992,8.559203
1008.625000,12.305847,11.249053,14.952638,13.824369
1008.628906,9.043632,8.499545,15.471787,9.060318
1008.632812,9.994686,6.948060,7.005901,5.025925
1008.636719,8.164779,2.110047,10.706653,4.218799
1008.640625,5.063297,6.814944,2.832486,0.807416
1008.644531,1.302673,4.038992,2.393883,12.022155
1008.648438,-4.019396,7.648312,5.475357,-5.109821
1008.652344,4.719647,7.125908,0.410641,-5.639242
1008.656250,-0.945710,-7.817639,-4.042620,-3.591371
1008.660156,-5.622019,-9.057390,0.020682,1.095523
1008.664062,-12.401679,-5.279256,-5.520829,-5.424771
1008.667969,-3.672358,-14.554201,-6.612352,-7.713422
1008.671875,-18.312979,-12.708942,-12.935075,-12.795015
1008.675781,-5.705230,-10.790514,-11.132347,-10.722532
1008.679688,-12.292236,-7.203083,-13.419427,-6.521096
1008.683594,-13.771708,-3.442543,-14.610760,-6.032484
1008.687500,-1.536580,-6.954244,-5.341457,-4.817558
1008.691406,-9.169112,-1.316170,-2.920989,-1.061035
1008.695312,-3.118192,-4.077083,-5.175579,-4.759541
1008.699219,-5.058205,0.594821,-1.170613,-2.903795
1008.703125,2.124645,-6.293957,0.342490,-6.991936
1008.707031,4.657131,9.359776,2.343609,4.089603
1008.710938,3.190211,3.977056,7.173377,11.821960
1008.714844,9.798300,12.626681,10.104833,5.636246
1008.718750,5.458294,11.055128,12.429886,2.352238
1008.722656,11.931282,10.120502,6.986895,9.878083
1008.726562,9.910472,5.636448,13.892289,5.555756
1008.730469,9.388206,6.701707,8.100491,6.452273
1008.734375,3.531738,6.479269,12.078602,4.956116
1008.738281,3.218071,7.062665,4.634267,7.558946
1008.742188,4.281173,1.139448,-2.388592,-3.752140
1008.746094,4.282917,10.065620,0.023899,-1.459191
1008.750000,5.981027,-0.661742,-1.679889,6.291530
1008.753906,0.594908,-2.630119,-6.308050,-6.496584
1008.757812,1.015698,-8.985318,-9.822443,-9.334691
1008.761719,-7.734261,-3.618611,-11.443789,-7.335756
1008.765625,-8.649986,-12.107335,-5.799883,-9.941075
1008.769531,-16.432993,-7.097468,-2.602292,-4.986453
1008.773438,-6.389218,-8.265756,-8.846726,-14.046534
1008.777344,-8.215948,-9.803710,-10.000167,-5.363138
1008.781250,-5.884096,-9.732147,-7.198693,-10.027101
1008.785156,-10.631434,-6.135826,-4.485436,-6.063223
1008.789062,-1.735850,-1.447004,-7.093019,-5.090756
1008.792969,-1.741090,-10.540466,-1.749965,-2.939394
1008.796875,1.692312,-1.932547,-2.234130,0.165717
1008.800781,0.884716,1.041864,0.811224,3.728549
1008.804688,3.233261,-0.601579,3.810458,4.960275
1008.808594,2.866768,2.124494,1.054618,6.556344
1008.812500,7.503594,4.505604,12.356625,2.216620
1008.816406,11.561656,10.253756,6.347752,5.732969
1008.820312,9.530283,16.152273,8.852557,10.641569
1008.824219,7.446573,6.435092,10.539350,14.287900
1008.828125,13.577976,13.616357,9.188084,10.998513
1008.832031,4.457188,7.392046,13.011788,14.565859
1008.835938,6.290315,7.564512,10.447496,6.183232
1008.839844,3.463065,2.915662,4.550184,5.619961
1008.843750,-2.441933,3.863542,4.569762,4.904613
1008.847656,-5.264320,-2.977054,-0.843391,2.185710
1008.851562,-2.582875,-4.378095,-0.792491,-0.771968
1008.855469,-9.161549,-9.238555,-4.222719,-9.088708
1008.859375,-5.481990,-3.233297,-0.329544,-6.019334
1008.863281,-1.311398,-7.852319,-3.269254,-7.239633
1008.867188,-4.884623,-16.114906,-11.889598,-13.960267
1008.871094,-12.139053,-10.872028,-8.749868,-7.749500
1008.875000,-16.327864,-2.944409,-10.531978,-15.138098
1008.878906,-7.539385,-6.573012,-13.909485,-11.751475
1008.882812,-11.788134,2.539592,-8.363372,-10.699509
1008.886719,-12.348452,-7.965298,-9.132724,-10.534353
1008.890625,-3.919270,2.946670,-11.091153,-6.610521
1008.894531,0.927354,-6.666250,2.359995,-10.860452
1008.898438,10.367187,-3.541020,-0.023182,0.762113
1008.902344,5.901186,0.311677,-2.028708,2.078429
1008.906250,8.514446,-3.317061,4.137900,-1.396664
1008.910156,4.820978,6.715725,5.699344,10.332964
1008.914062,3.400402,5.096483,7.062655,5.249491
1008.917969,9.189879,9.770620,10.160938,12.183482
1008.921875,12.915526,12.900080,7.203357,9.193893
1008.925781,13.977206,11.618155,14.688052,13.043476
1008.929688,5.438493,12.155738,-2.213990,3.981663
1008.933594,11.809374,3.664836,12.628630,5.363399
1008.937500,2.950989,8.241875,8.389100,10.012403
1008.941406,2.434262,2.203917,-2.507327,7.712117
1008.945312,-0.962154,-4.800582,-5.440481,-1.726463
1008.949219,-6.001601,4.487140,-7.320471,4.104188
1008.953125,-2.729773,1.928338,1.533588,-1.011152
1008.957031,-1.743507,-1.656487,1.262478,-1.896968
1008.960938,-1.701034,-8.851579,-6.436017,-5.664800
1008.964844,-11.344741,-9.390400,-18.061494,-5.693877
1008.968750,-9.321591,-11.339890,-12.591805,-6.841517
1008.972656,-11.801296,-0.071124,-7.892032,-9.372672
1008.976562,-12.413879,-9.747098,-12.170971,-6.540517
1008.980469,-7.313478,2.345104,-13.998779,-11.361555
1008.984375,-8.064059,-5.657529,-19.493653,-4.277409
1008.988281,-10.450580,-3.188524,-4.870577,-2.832920
1008.992188,-4.962557,-4.570000,-4.679493,-4.963214
1008.996094,0.582318,-3.187144,-1.457472,4.274999
1009.000000,-1.805237,-2.219072,-5.452447,-2.818474
1009.003906,-1.549121,8.490927,4.647991,-1.696739
1009.007812,5.150594,8.036847,12.340306,4.113273
1009.011719,5.657423,4.888167,-4.841414,10.237489
1009.015625,7.846434,6.661873,10.524163,-1.555544
1009.019531,13.986901,9.276056,7.617367,5.324076
1009.023438,14.346170,6.175613,8.850397,10.639704
1009.027344,12.872708,6.648188,10.084360,15.516498
1009.031250,16.250181,6.805588,6.132712,7.856414
1009.035156,8.083056,10.260001,3.982717,3.346267
1009.039062,7.546692,12.069850,8.412511,3.906467
1009.042969,5.892498,3.887050,10.285771,5.305760
1009.046875,4.165892,-0.266511,5.677347,8.849037
1009.050781,-0.734467,1.022111,2.733265,3.657186
1009.054688,-1.687378,2.429028,0.173286,-4.039111
1009.058594,-7.582980,-6.216986,-2.092383,-8.487331
1009.062500,-7.732959,-1.320281,-14.493166,-3.614180
1009.066406,-10.023399,-5.337034,-15.196173,-10.723404
1009.070312,-9.132030,-13.521366,-7.954541,-4.300484
1009.074219,-7.463530,-14.237247,-14.539467,-4.433855
1009.078125,-9.878027,-3.796716,-8.448955,-6.712822
1009.082031,-11.910814,-9.866020,-0.721850,-13.468298
1009.085938,-3.313284,-6.317597,-7.697779,-16.013340
1009.089844,-4.365402,-10.549166,-9.720553,-1.669760
1009.093750,-10.755742,-3.378350,-6.494357,-1.264121
1009.097656,-8.103926,1.448746,-3.563871,4.581289
1009.101562,-4.489318,1.038744,3.065368,-7.508230
1009.105469,2.343427,-0.584634,2.963797,11.026339
1009.109375,0.516364,2.851125,1.905305,2.370615
1009.113281,4.485798,11.935606,6.490209,7.695110
1009.117188,5.112426,13.425748,10.834782,11.861210
1009.121094,6.427604,6.276154,13.766137,8.791241
1009.125000,10.116092,5.564395,10.854247,12.833747
1009.128906,3.511905,6.443951,10.195605,5.950752
1009.132812,8.521592,12.843663,7.339109,3.809169
1009.136719,4.713267,11.134100,10.671361,10.080227
1009.140625,2.475200,3.557795,8.759289,7.684036
1009.144531,-1.489856,12.172283,1.262869,2.367681
1009.148438,-7.759349,1.326438,8.101320,-4.137753
1009.152344,7.459416,-5.011277,-3.243082,-6.631196
1009.156250,-4.781480,-8.770061,-11.311801,-0.692530
1009.160156,-13.479213,-5.666713,-7.707729,1.854177
1009.164062,-11.939445,-6.351562,-11.942309,-10.380413
1009.167969,-10.435843,-5.585088,-3.303544,-10.682020
1009.171875,-14.099876,-16.758460,-8.026528,-10.728403
1009.175781,-5.341002,-11.145803,-10.736797,-13.181646
1009.179688,-9.236573,-10.018098,-7.499639,-9.240503
1009.183594,-8.936145,-10.001948,-9.995398,-10.953841
1009.187500,-5.490918,-8.859625,-8.835300,-4.523341
