timestamp,TP9,AF7,AF8,TP10
1000.000000,-3.109733,2.843802,-0.590855,-3.354737
1000.003906,0.220734,12.232810,5.392943,9.014997
1000.007812,7.770628,0.135373,1.034723,7.472897
1000.011719,11.333408,7.451593,8.577461,0.431022
1000.015625,3.925347,7.930697,3.455132,7.784182
1000.019531,10.887394,8.213309,16.858599,6.810676
1000.023438,11.593687,5.761080,13.075250,14.940933
1000.027344,15.528774,6.570082,11.468790,6.562012
1000.031250,11.921367,16.928821,15.826313,12.607526
1000.035156,9.443185,15.669350,16.426909,5.320838
1000.039062,8.064930,7.438055,9.520493,6.926496
1000.042969,-2.068727,11.507709,1.257598,10.804486
1000.046875,3.309898,-2.420960,0.818143,3.195238
1000.050781,-1.546523,-3.245053,1.704489,-3.763571
1000.054688,-1.871376,-1.315252,-8.324540,-0.601424
1000.058594,-1.991071,-4.763856,-7.056293,-7.484650
1000.062500,-12.904899,-13.450990,-3.156051,-3.870196
1000.066406,-4.067623,-9.529886,-13.832064,-9.191251
1000.070312,-11.568438,-14.744589,-9.462231,-12.215546
1000.074219,-11.850582,-5.893090,-13.245925,-10.592004
1000.078125,-4.701879,-16.678961,-5.689568,-6.675251
1000.082031,-6.793472,-4.040371,-7.916144,-2.329141
1000.085938,-1.161095,-9.568087,-1.853584,-6.018592
1000.089844,-2.189423,-5.919103,-7.588796,-6.045216
1000.093750,-5.000097,-2.077342,-3.988477,-2.292167
1000.097656,1.805730,-4.786565,2.814806,-2.225117
1000.101562,-4.944325,1.564079,-1.337288,-2.571250
1000.105469,2.955719,2.094191,1.120003,4.620658
1000.109375,4.185337,5.988735,3.996308,5.840848
1000.113281,2.920350,6.161660,-1.032350,5.878579
1000.117188,7.632436,6.732491,6.490747,11.505890
1000.121094,9.064493,12.986545,11.155537,16.630238
1000.125000,6.884022,10.127933,11.256239,7.084241
1000.128906,6.093340,10.611453,3.322572,9.203701
1000.132812,2.911067,0.511512,11.767156,7.321773
1000.136719,6.281326,9.529047,10.211929,7.908990
1000.140625,5.918354,1.301863,-1.006400,2.954848
1000.144531,5.289223,0.206586,4.331384,2.545665
1000.148438,-0.963449,-0.328769,-5.836666,-1.071134
1000.152344,2.690711,1.257218,3.644613,-2.647478
1000.156250,-3.653492,-2.655211,-3.767628,-3.663724
1000.160156,-3.984670,-3.935189,-11.477855,-7.099462
1000.164062,-10.695721,-12.133408,-6.986517,-11.012994
1000.167969,-3.001685,-11.036168,-9.102517,-7.677748
1000.171875,-10.623838,-11.642937,-12.610284,-8.753317
1000.175781,-10.241201,-4.405235,-5.437673,-5.841340
1000.179688,-12.043574,-7.812209,-5.924515,-10.147036
1000.183594,-7.714857,-6.240989,-12.976137,-6.529139
1000.187500,-7.975961,-10.317946,-13.931256,-11.279807
1000.191406,-4.535472,-10.026553,-7.853819,-5.628660
1000.195312,-0.210399,0.245568,-9.821938,-0.082689
1000.199219,1.478166,1.271441,-4.020301,-0.316366
1000.203125,-2.801027,6.636057,3.470953,0.745175
1000.207031,6.602641,1.749492,3.258431,8.925682
1000.210938,6.422356,9.748722,8.084508,7.698448
1000.214844,6.448932,1.579484,4.728274,4.856849
1000.218750,10.473573,4.892632,16.999069,9.038252
1000.222656,13.828039,13.403201,16.994960,11.033615
1000.226562,16.906567,5.425277,6.355226,11.349558
1000.230469,9.884233,8.950166,16.911497,5.354474
1000.234375,11.132476,13.081652,3.165955,5.407294
1000.238281,12.378581,6.826169,12.732986,7.643675
1000.242188,4.312383,8.050353,5.766260,3.708535
1000.246094,6.192041,3.810984,4.678192,6.435910
1000.250000,0.498252,2.154667,-1.405560,-1.355868
1000.253906,0.388332,-4.676813,0.985367,-5.821276
1000.257812,0.730610,-7.092247,-6.934727,-2.269822
1000.261719,-6.805197,-9.348267,-10.663815,-17.286070
1000.265625,-6.182701,-11.632279,-11.005361,-4.939556
1000.269531,-9.742235,-10.913305,-9.483203,-14.621111
1000.273438,-9.197872,-6.646636,-11.844934,-6.419137
1000.277344,-1.697106,-5.119459,-8.674835,-11.372956
1000.281250,-7.926089,-11.778393,-8.596049,-7.615150
1000.285156,-5.957410,-12.716015,-5.100944,-3.730526
1000.289062,-8.124646,-4.068958,-6.313351,-6.068874
1000.292969,-9.821028,-6.340036,3.020713,-9.277575
1000.296875,-3.035533,2.045786,-9.857168,-1.761530
1000.300781,-5.517375,6.893580,2.088608,-3.395596
1000.304688,1.241560,-0.684794,7.893267,-2.686083
1000.308594,-1.120574,8.115406,5.000663,8.890925
1000.312500,18.096683,5.274688,1.802027,6.433060
1000.316406,7.065540,11.027201,7.842182,2.885378
1000.320312,11.799340,3.738285,12.500532,9.342003
1000.324219,3.033433,6.858307,14.762550,17.773004
1000.328125,0.039005,12.857052,5.521909,12.556737
1000.332031,9.435116,7.481294,19.154466,9.898541
1000.335938,8.538625,11.320632,11.026618,14.272108
1000.339844,-2.158798,3.514345,5.801499,4.134268
1000.343750,3.183971,2.401633,-0.914444,-2.236002
1000.347656,-3.338141,7.428154,9.679011,2.020740
1000.351562,-4.180733,4.734738,1.973339,4.074506
1000.355469,-2.337397,-3.720613,-8.945404,-7.302458
1000.359375,-12.330715,0.050939,-3.677192,-13.163804
1000.363281,-14.788720,-5.089220,-8.048043,-15.555728
1000.367188,-9.505053,-5.097788,-11.405489,-4.887590
1000.371094,-18.047793,-10.715980,-11.123538,-10.316369
1000.375000,-10.062206,-9.764406,-3.252496,-16.525863
1000.378906,-11.120759,-12.666103,-14.150419,-13.952495
1000.382812,-13.149323,-8.924586,-5.885968,-11.571246
1000.386719,-5.570690,-9.366201,-0.201800,-10.481773
1000.390625,-5.698395,-8.052925,-3.693656,-7.619376
1000.394531,-6.962778,0.286130,2.571064,-0.775736
1000.398438,0.749308,3.858116,-6.978982,-1.613369
1000.402344,-0.161442,0.793825,8.992797,1.190570
1000.406250,4.821494,0.603108,9.082473,6.709984
1000.410156,3.411750,0.932553,3.983247,10.077083
1000.414062,7.024751,4.767428,12.450148,4.591604
1000.417969,10.964009,3.826484,9.566986,10.383893
1000.421875,4.015606,14.088623,4.766236,6.889862
1000.425781,6.155909,11.745676,15.188167,9.575045
1000.429688,14.875840,7.214540,7.482650,16.249607
1000.433594,10.520666,12.268417,17.124507,3.479450
1000.437500,8.571987,7.113792,7.670823,5.969372
1000.441406,6.283112,9.840599,8.525937,2.417403
1000.445312,1.565644,3.415946,3.042668,7.143522
1000.449219,-0.085116,5.587974,-5.905605,5.706623
1000.453125,-4.001358,4.863874,-5.002397,-1.552355
1000.457031,-4.367502,-5.389620,4.630616,-3.270989
1000.460938,-9.531310,-7.997356,-7.105787,-8.921976
1000.464844,-8.856585,-11.914054,-14.783508,-13.922011
1000.468750,-12.219670,-5.460720,-1.787707,-16.525531
1000.472656,-5.272148,-11.771845,-14.367049,-3.266904
1000.476562,-10.191983,-8.204062,-7.616740,-9.543799
1000.480469,-6.577508,-8.948605,-6.662050,0.117167
1000.484375,-10.029377,-11.417914,-8.913114,-8.841423
1000.488281,-14.649593,-9.651903,-6.620286,-13.520156
1000.492188,-4.384827,-1.424761,-7.661473,-0.691810
1000.496094,2.181526,-2.425820,-5.835208,-7.421766
1000.500000,0.313600,7.017555,-4.395486,2.604602
1000.503906,-1.837750,-0.306657,3.435337,-1.918250
1000.507812,6.187943,-5.137341,4.109664,5.101960
1000.511719,6.020829,6.029062,7.017743,3.655959
1000.515625,10.220474,8.302333,12.056427,6.864652
1000.519531,11.117078,14.427069,7.394685,14.877115
1000.523438,9.195634,18.594448,10.448199,7.980086
1000.527344,12.329229,4.233975,5.519283,15.162938
1000.531250,11.578142,7.299279,7.317182,13.798342
1000.535156,3.813976,5.208590,10.683175,4.668414
1000.539062,-3.207492,4.692090,9.638997,7.725004
1000.542969,5.200542,3.921608,-0.702365,0.667166
1000.546875,3.136823,6.649964,2.153540,-1.504584
1000.550781,1.133225,-6.150176,3.045993,6.455899
1000.554688,-4.592799,-8.977253,-5.308518,-2.165586
1000.558594,-9.696680,-4.627841,-3.960460,-1.562290
1000.562500,-6.083849,-9.864165,-1.189892,-10.210878
1000.566406,0.140708,-8.889934,-2.052303,-10.195198
1000.570312,-8.723124,-15.745776,-7.333148,-9.786159
1000.574219,-18.129883,-12.083368,-11.302053,-8.394375
1000.578125,-9.334262,-16.472519,-12.924577,-5.860522
1000.582031,-11.262275,-11.010060,-6.837150,-9.420462
1000.585938,-6.435814,-7.533371,-7.819213,-11.143704
1000.589844,-10.187955,1.255655,-2.118704,-1.418312
1000.593750,-4.818378,-5.856674,-2.167175,-1.654450
1000.597656,-3.084050,-4.445534,-3.960219,1.385239
1000.601562,3.527375,-2.280421,6.434007,-0.353490
1000.605469,3.218070,7.516448,-2.553364,7.612125
1000.609375,15.455613,5.999120,-4.317770,9.996917
1000.613281,3.591014,10.586265,5.875784,12.772451
1000.617188,0.147047,6.622713,13.208777,9.344890
1000.621094,18.163166,12.115437,3.301559,9.400019
1000.625000,14.377532,10.371435,9.106922,10.535247
1000.628906,11.707115,10.342374,6.065946,12.158467
1000.632812,10.318247,12.624827,6.477827,4.886604
1000.636719,9.186756,1.560012,3.125398,8.990497
1000.640625,5.614104,-0.163535,9.814747,0.454926
1000.644531,8.308992,11.558517,-2.361725,2.729095
1000.648438,0.957072,-1.504702,0.177035,-1.364773
1000.652344,-5.239958,-2.894062,-2.395131,-7.798501
1000.656250,-3.206330,-1.879036,-7.282403,-1.587438
1000.660156,-8.809043,-0.606060,-4.501110,-5.354780
1000.664062,-11.972245,-10.983587,-3.233229,-9.076714
1000.667969,-10.379773,-10.589900,-13.658220,-8.937148
1000.671875,-12.620722,-6.030750,-6.019471,-8.257429
1000.675781,-8.437372,-7.694016,-6.387413,-12.986217
1000.679688,-17.365013,-4.736117,-8.824448,-11.085392
1000.683594,-7.435868,-11.585774,-11.354773,-4.850104
1000.687500,0.195007,-4.694963,-11.205201,-12.030944
1000.691406,-7.788431,1.708449,-6.327688,-8.118979
1000.695312,-8.958715,-1.234048,-0.442298,-2.912802
1000.699219,-4.176598,4.283114,-4.010493,-1.309865
1000.703125,2.775334,4.102646,7.065770,0.481500
1000.707031,0.926371,1.520318,0.169565,13.631213
1000.710938,1.249715,5.890631,4.294337,5.185338
1000.714844,1.027558,7.499452,12.124851,6.819385
1000.718750,10.002467,10.588451,3.576232,10.465562
1000.722656,4.217997,6.403522,7.783971,6.334862
1000.726562,11.044412,8.382342,5.788042,13.047746
1000.730469,5.113903,8.294597,15.590101,14.719109
1000.734375,8.214336,1.878661,13.748030,12.862691
1000.738281,7.830207,10.767429,7.492107,3.607843
1000.742188,-4.536576,3.126018,7.246011,6.576519
1000.746094,1.072745,6.736742,2.330337,8.704013
1000.750000,-4.900384,-3.854510,-1.577279,1.636833
1000.753906,6.449609,-6.106683,-2.338664,-3.997782
1000.757812,1.346907,5.306757,-2.477569,-8.855513
1000.761719,-4.152168,-8.399369,-6.356261,-3.033807
1000.765625,-7.253719,-7.062833,-6.774119,-8.805942
1000.769531,-6.743570,-10.623610,-6.302581,-11.200388
1000.773438,-13.192892,-11.803344,-9.013562,-6.718130
1000.777344,-5.400354,-15.476006,-9.321799,-11.695728
1000.781250,-18.045454,-13.589781,-4.483790,-4.396897
1000.785156,-10.216407,-7.367352,-4.701574,-10.166687
1000.789062,-3.892463,-9.499121,-8.441386,1.625403
1000.792969,-0.768950,-5.752110,-1.045530,-2.542643
1000.796875,0.764477,-1.341580,-1.797698,-2.376843
1000.800781,0.389170,0.330764,7.592197,3.533572
1000.804688,-2.795505,-5.088601,-1.342485,4.895037
1000.808594,6.007663,0.219075,5.473479,0.799830
1000.812500,18.396291,12.166007,7.332570,5.215865
1000.816406,10.566378,4.897669,4.301572,0.973977
1000.820312,10.067573,16.315561,16.475550,16.621447
1000.824219,7.032088,17.013304,9.937470,4.162249
1000.828125,7.298638,6.099168,5.605491,5.902195
1000.832031,6.387218,7.786382,6.714528,11.573097
1000.835938,0.011618,8.720242,10.444912,15.383759
1000.839844,6.159609,3.944227,-0.160474,-2.014824
1000.843750,0.459995,3.565066,2.497990,2.190504
1000.847656,4.003258,-2.534764,-2.506086,2.512564
1000.851562,-1.529942,4.064361,-6.043170,3.341087
1000.855469,-3.756125,-6.112101,8.825396,-3.956530
1000.859375,-5.923357,3.208621,-1.205286,-2.702719
1000.863281,-10.955096,-7.829100,-14.544114,-7.400642
1000.867188,-22.430055,-12.314692,-7.548539,-3.873645
1000.871094,-6.510052,-9.676874,-15.417120,-14.051129
1000.875000,-3.501006,-14.491617,-7.197952,-11.444039
1000.878906,-15.755136,-13.643994,-6.768701,-6.647379
1000.882812,-6.639948,-17.911856,-4.492302,-7.437449
1000.886719,-7.548716,-8.500045,-3.317243,-13.916633
1000.890625,-7.601168,-4.094295,-0.438104,-9.101583
1000.894531,1.284905,-5.140131,0.812047,5.373059
1000.898438,5.284521,4.260567,0.290502,-5.695231
1000.902344,0.278028,8.437890,-3.630306,1.770680
1000.906250,8.395570,-1.455771,-3.088689,0.560958
1000.910156,11.109495,7.135841,5.492904,9.261071
1000.914062,5.413415,6.421948,9.102169,6.587648
1000.917969,4.396148,9.642067,0.838644,10.893683
1000.921875,8.804777,12.582811,10.977114,6.950211
1000.925781,0.913729,11.441964,7.923691,5.051982
1000.929688,10.834118,11.559086,5.867184,8.814155
1000.933594,16.032221,14.054224,1.966197,10.478599
1000.937500,3.048379,0.211800,3.598301,11.541948
1000.941406,4.029357,-6.777598,-0.535889,0.256564
1000.945312,5.785438,8.405214,0.523492,2.489116
1000.949219,-2.973563,-2.329209,4.523625,6.846729
1000.953125,-7.921062,-7.039124,1.113579,-5.671706
1000.957031,-6.260637,-2.071515,-1.296240,-4.183755
1000.960938,-6.124414,-7.145927,0.800406,-7.566497
1000.964844,-6.860647,-2.347890,-12.488261,-9.825411
1000.968750,-14.480532,-8.974563,-21.406258,-9.495018
1000.972656,-21.023348,-11.063724,-10.700116,-8.165267
1000.976562,-8.775464,-1.646371,-6.952026,-7.583141
1000.980469,-3.089773,-7.210419,-12.026076,-8.948785
1000.984375,-15.568550,-12.382364,-10.051466,-0.594629
1000.988281,-10.343471,-12.287333,-2.717900,-7.077691
1000.992188,-3.088010,-4.969372,-4.890826,1.906579
1000.996094,-2.692837,-4.462536,-2.898621,0.409850
1001.000000,9.902150,-0.472107,-0.930664,-4.027021
1001.003906,4.513552,-5.634501,3.381489,7.321763
1001.007812,2.752727,-0.753751,0.037733,4.240981
1001.011719,0.244608,3.820166,5.293726,11.957457
1001.015625,7.603914,7.110812,4.199470,11.715771
1001.019531,15.695354,7.529716,14.288283,9.577230
1001.023438,13.453376,6.883717,14.966904,6.076803
1001.027344,9.680840,16.057664,8.390796,14.969939
1001.031250,11.085557,4.611113,9.155650,8.812906
1001.035156,1.766631,4.583079,6.314073,3.719140
1001.039062,0.782589,9.053157,4.602576,9.980773
1001.042969,9.413256,-0.795292,-2.356290,5.169292
1001.046875,-1.564933,3.899399,-0.519312,8.988442
1001.050781,-1.177108,1.252877,-3.942923,-4.705414
1001.054688,-5.100626,-3.647508,-6.106999,0.692648
1001.058594,-7.780769,-10.880033,-6.924668,1.821609
1001.062500,-6.520242,-8.929124,-4.685452,-4.393465
1001.066406,-13.928196,-8.891862,-12.172376,-2.370403
1001.070312,-4.875770,2.259956,-6.181635,-5.062298
1001.074219,-4.143899,-9.961785,-6.963935,-12.311877
1001.078125,-0.352784,-10.403444,-16.123371,-4.643618
1001.082031,-13.350659,-6.599638,-7.648734,-10.765374
1001.085938,-9.698292,-16.349228,-7.602286,-0.323361
1001.089844,-13.057871,-5.850426,-1.012603,-5.905514
1001.093750,-6.649730,-2.871429,-0.934800,2.836404
1001.097656,-1.603570,-5.577271,-3.639451,-4.225684
1001.101562,5.159941,-6.511594,1.320490,7.113047
1001.105469,4.633350,2.125094,-1.189508,5.923372
1001.109375,6.486883,9.980486,5.409296,8.813354
1001.113281,11.109852,10.103365,8.232472,2.075068
1001.117188,7.580497,14.440001,5.510841,8.795616
1001.121094,12.466545,10.491166,14.279121,16.309162
1001.125000,4.037320,6.835963,9.601925,2.497509
1001.128906,13.983391,10.469202,11.160078,6.471700
1001.132812,4.607273,11.452985,8.861036,7.476565
1001.136719,9.657762,9.294805,4.741822,7.057476
1001.140625,3.046132,-8.145467,12.656603,6.792164
1001.144531,-1.237926,-0.046459,-2.974834,-4.769518
1001.148438,0.683140,-2.630564,1.982087,5.824980
1001.152344,3.762267,-6.234938,-1.962011,-2.983817
1001.156250,-5.348666,-4.144105,3.862731,-6.944856
1001.160156,-5.711782,-6.417874,-11.801563,-8.192100
1001.164062,-3.868750,-14.563650,-9.598149,-6.461665
1001.167969,-0.967675,-6.602502,-7.725683,-2.936953
1001.171875,-8.264235,-10.414659,-5.788998,-6.343553
1001.175781,-8.126104,-11.656321,-8.365745,-9.470991
1001.179688,-7.887524,-8.567527,0.794385,-18.964310
1001.183594,-9.657107,-8.142219,-7.465659,0.004240
1001.187500,-6.283515,-14.161387,-6.174712,-1.919890
1001.191406,2.312896,-6.528329,-8.306105,-3.811705
1001.195312,-3.919134,0.987824,-4.349773,1.483080
1001.199219,-10.963945,-1.857066,-1.639107,-3.566143
1001.203125,-3.507300,2.301105,-2.824997,6.024730
1001.207031,-2.691685,2.381341,2.617989,5.363056
1001.210938,1.728800,6.867136,5.591643,9.090278
1001.214844,-1.837375,5.036556,6.496930,8.795494
1001.218750,11.322601,13.989456,1.606264,7.481002
1001.222656,19.287282,11.172933,9.020297,8.823716
1001.226562,10.887565,8.070806,10.950976,13.932106
1001.230469,9.404054,12.068937,10.014117,7.474392
1001.234375,10.689372,12.777957,13.158908,11.209575
1001.238281,10.776625,6.005949,10.123016,11.530224
1001.242188,9.825145,2.738241,4.436270,10.666854
1001.246094,1.678849,3.766673,2.246181,8.514609
1001.250000,-2.766435,2.237696,9.509454,-8.682500
1001.253906,-0.455705,-6.013220,9.448343,-4.103498
1001.257812,-11.724899,-0.809176,-4.603210,-2.270188
1001.261719,-4.605653,-8.160284,-8.002805,-12.297424
1001.265625,-7.043809,-9.003220,-5.547370,-17.458705
1001.269531,-10.853656,-7.793984,-8.132348,-11.498781
1001.273438,-12.597262,-11.827105,-11.892347,-13.147052
1001.277344,-5.913028,-13.088245,-9.329406,-6.672452
1001.281250,-1.534290,-3.984149,-14.902389,-11.242602
1001.285156,-14.181871,1.385430,-4.200896,-8.376759
1001.289062,-4.216104,-15.448393,-6.580947,-0.446497
1001.292969,-5.248464,-7.440876,-4.642673,-5.808746
1001.296875,-4.827213,0.706379,-3.921347,-7.981011
1001.300781,-2.298670,0.405001,-1.680623,-2.261548
1001.304688,0.082447,1.182772,-1.263261,0.710230
1001.308594,3.442862,2.882535,9.165485,4.108667
1001.312500,8.533596,6.994196,15.206823,-0.735798
1001.316406,8.420416,7.253542,7.929013,4.986796
1001.320312,7.278389,11.107499,14.551405,9.475075
1001.324219,15.538742,1.099541,8.878819,13.413041
1001.328125,9.904508,1.597731,12.005546,11.868515
1001.332031,8.876390,11.582114,4.129347,14.503205
1001.335938,4.355076,7.292356,9.307013,2.338060
1001.339844,2.130851,8.845946,1.890640,1.127610
1001.343750,0.946088,-1.524270,0.724760,12.241582
1001.347656,3.643238,2.274208,4.862958,0.983327
1001.351562,-4.699552,-0.250512,-3.805266,3.557773
1001.355469,-5.450517,-4.536406,-4.994383,-3.812958
1001.359375,-13.387276,-4.295240,-5.708013,-5.786362
1001.363281,-3.364931,-6.050820,-8.341876,-8.581628
1001.367188,-9.638466,-10.288909,-7.404276,-12.359074
1001.371094,-12.386127,-12.757756,-9.115084,-5.705267
1001.375000,-9.734040,-10.180007,-7.629982,-12.611554
1001.378906,-8.184243,-8.203323,-2.810216,-3.968848
1001.382812,-4.342463,-10.524197,-9.811232,-10.852405
1001.386719,-7.653880,-11.202961,-11.192936,-2.449106
1001.390625,-6.736877,-6.781256,-4.430370,-4.733553
1001.394531,-0.763470,-0.213804,-5.931942,-5.042855
1001.398438,-1.105893,-8.469734,-2.755445,0.029903
1001.402344,-0.845906,-3.168789,4.805133,0.041193
1001.406250,1.451924,2.539837,0.958526,2.645044
1001.410156,9.618935,3.969389,1.529654,4.811711
1001.414062,8.340960,9.715413,1.556346,12.113656
1001.417969,12.883866,11.427110,7.300561,15.180647
1001.421875,10.737559,12.197426,11.861221,13.999896
1001.425781,16.298647,5.706613,12.916491,4.586620
1001.429688,7.335669,9.296675,5.308979,13.880935
1001.433594,1.864734,12.344303,10.861056,10.672500
1001.437500,6.986221,3.891613,13.359471,8.029718
1001.441406,1.357470,6.249788,5.949645,4.648330
1001.445312,2.405948,-2.876767,-2.900046,10.379188
1001.449219,5.900953,2.504049,3.506540,3.804191
1001.453125,-0.491190,-6.980658,-1.359641,-5.138420
1001.457031,-6.536319,-5.192978,-5.274884,-6.288923
1001.460938,-3.644064,-6.530356,-5.871513,-5.853893
1001.464844,-9.952148,-6.220945,-15.273442,-9.483248
1001.468750,-4.049550,-9.099034,-0.615334,-10.930960
1001.472656,-10.987399,-10.373697,1.139821,-12.068826
1001.476562,-8.263117,-12.787501,-7.936815,-18.408200
1001.480469,-11.776431,-12.951947,-4.631119,-14.068809
1001.484375,-5.792361,-5.251615,-14.857828,-9.116094
1001.488281,-8.010591,-18.718166,-7.017757,-9.214290
1001.492188,-6.109538,-1.884244,1.018010,-7.300730
1001.496094,-2.722763,2.654864,-0.818026,-2.466298
1001.500000,-0.123178,8.207350,-4.250198,0.384013
1001.503906,2.828800,3.930592,0.143221,1.356202
1001.507812,8.416090,7.790442,10.052014,12.641547
1001.511719,6.082304,9.938303,11.901036,0.046456
1001.515625,10.409605,5.600769,7.524088,13.377320
1001.519531,12.753550,6.545177,5.308055,7.913345
1001.523438,7.030693,11.071055,9.477013,7.058282
1001.527344,9.585596,10.469191,18.896148,10.223759
1001.531250,17.369123,10.446692,7.224183,5.060924
1001.535156,8.044819,4.267127,7.713506,1.088197
1001.539062,15.459206,5.259302,6.251028,2.793420
1001.542969,-2.336369,10.191921,-1.997271,2.781722
1001.546875,2.198010,1.782018,2.439412,2.466982
1001.550781,-1.270485,-4.033385,7.661322,-3.150910
1001.554688,-9.042060,-2.034133,-1.285608,-5.175959
1001.558594,-4.099323,-4.407202,-8.181011,-6.770881
1001.562500,-2.476658,-4.753057,-10.299022,-8.478096
1001.566406,-13.177968,-5.874912,-6.109157,0.063592
1001.570312,-6.508407,-11.354083,-8.892255,-18.467937
1001.574219,-12.634624,-6.983722,-15.227445,-9.564248
1001.578125,-22.734434,-15.890167,-15.694250,-6.052364
1001.582031,-13.456521,-21.180330,-10.015902,-13.090053
1001.585938,-10.320875,-16.143953,0.040927,-3.184032
1001.589844,-0.617168,-3.667460,-7.877485,0.582307
1001.593750,1.579727,-1.416072,-12.851703,-0.365418
1001.597656,-0.472602,-0.181323,-8.856025,1.343957
1001.601562,2.827489,4.132773,3.418684,0.936010
1001.605469,5.063918,-0.915286,4.552775,6.052621
1001.609375,3.267752,5.193039,4.246228,6.480116
1001.613281,3.951571,8.810716,6.176502,9.915153
1001.617188,7.851062,1.911187,3.176675,10.605630
1001.621094,16.361505,17.246566,14.219500,9.564112
1001.625000,16.245545,15.494560,9.509544,6.976367
1001.628906,11.683638,7.298165,13.596387,11.380647
1001.632812,9.355667,12.907380,10.716727,16.018042
1001.636719,8.163877,3.617916,7.535699,3.860438
1001.640625,13.986009,10.043917,1.834983,6.007873
1001.644531,-2.450683,9.365489,13.077208,-1.117973
1001.648438,2.655093,3.020925,2.163554,-4.144941
1001.652344,0.864973,-2.272836,0.855416,-3.053872
1001.656250,-2.015460,-8.506571,-9.883121,-3.884929
1001.660156,-8.106925,-8.595801,-4.226716,-3.567156
1001.664062,-5.002564,-8.796618,-7.304949,-6.409120
1001.667969,-3.736452,-7.569768,-7.293939,-10.650852
1001.671875,-10.976536,-12.736127,-20.508488,-6.277694
1001.675781,-8.427729,-19.878408,-11.785909,-8.567419
1001.679688,-12.259029,-6.763918,-11.762315,-7.638106
1001.683594,-15.159063,-9.533445,-4.184669,-9.863749
1001.687500,-9.123757,-9.338740,-3.389500,-5.351647
1001.691406,-11.454480,-3.986543,-13.353092,-7.495821
1001.695312,-0.819804,1.685017,-8.638579,-6.084711
1001.699219,-3.997072,-0.219704,3.033268,2.573554
1001.703125,2.389088,-0.438877,3.957357,6.530728
1001.707031,2.932850,6.525046,9.515459,5.711405
1001.710938,6.873235,7.212690,10.480833,11.258771
1001.714844,3.228502,13.429132,13.291137,0.679979
1001.718750,9.986249,4.442149,8.551318,8.906156
1001.722656,6.491134,17.062739,9.297381,8.139654
1001.726562,12.110680,5.829945,8.929894,7.264724
1001.730469,11.437238,-2.278363,7.655405,5.045685
1001.734375,16.133749,11.176812,5.723557,8.665601
1001.738281,7.690578,4.042661,10.329386,5.518222
1001.742188,2.720671,2.707169,-0.753562,7.158385
1001.746094,-0.197601,3.723825,0.736809,8.072891
1001.750000,-0.382378,-4.660563,-1.276526,4.058870
1001.753906,-5.078541,-0.425279,-5.599644,3.577516
1001.757812,-1.139462,-6.714283,-4.562030,-8.017173
1001.761719,-13.425655,-4.086653,-5.096154,-4.844147
1001.765625,-11.922076,-18.257187,-14.080212,-8.719055
1001.769531,-13.575675,-20.294824,-9.759602,-7.026463
1001.773438,-11.965816,-10.928451,-3.027057,-13.061678
1001.777344,-15.714296,-4.475593,-13.721737,-5.797830
1001.781250,-4.586951,-10.588014,-7.792613,-11.601974
1001.785156,-7.529507,-10.191865,-7.175991,-16.466201
1001.789062,-10.218078,0.322157,-6.309268,-7.106689
1001.792969,-4.330053,2.510096,-2.894261,4.754571
1001.796875,-5.642058,-9.656004,-1.218581,-6.414411
1001.800781,-4.331775,1.209205,-1.279708,-0.861835
1001.804688,3.259754,3.143169,-7.632438,7.615139
1001.808594,16.767934,3.409427,11.650967,-4.743456
1001.812500,5.766017,11.899427,0.671573,8.467001
1001.816406,5.666150,13.826561,10.093290,9.689060
1001.820312,8.809101,4.511823,10.515397,8.524227
1001.824219,3.049620,11.696868,11.300925,14.947337
1001.828125,16.990508,14.841496,16.682351,12.450789
1001.832031,4.172245,16.075399,7.060062,5.364324
1001.835938,7.428924,7.559475,13.329907,6.404241
1001.839844,7.005613,5.546075,6.331059,3.646232
1001.843750,2.587380,3.778024,8.970632,5.812544
1001.847656,3.991511,2.470377,1.587781,4.855525
1001.851562,-4.139647,-1.397578,1.005822,-5.274615
1001.855469,-7.984636,-3.159230,-3.073913,2.140103
1001.859375,-7.809825,-0.664479,-8.216230,-2.639840
1001.863281,-6.994598,-10.838617,-6.560510,-6.348942
1001.867188,-6.834045,-11.544807,-4.627049,-7.644276
1001.871094,-8.414522,-8.573747,-14.208061,-13.639488
1001.875000,-17.537791,-4.899915,-7.940130,-15.797506
1001.878906,-13.892223,-9.788545,-13.328748,-13.061691
1001.882812,-6.549436,-6.424037,-3.169177,-3.800884
1001.886719,-1.363665,-6.298760,-8.987257,-9.197247
1001.890625,-4.429600,-10.646927,-7.353754,-6.185062
1001.894531,-4.636197,-3.010376,-3.801374,-3.759587
1001.898438,-0.241139,1.086340,-3.059186,-0.824009
1001.902344,-7.102614,2.623419,1.812205,6.283578
1001.906250,0.350891,10.067726,12.896717,8.136507
1001.910156,5.282624,8.640384,10.850887,6.506040
1001.914062,10.305958,11.413692,7.743120,6.027599
1001.917969,16.142480,11.463542,18.121338,9.183307
1001.921875,12.911829,10.909370,13.494651,8.613510
1001.925781,11.555114,3.935372,6.298086,10.913455
1001.929688,5.064729,12.494075,17.031699,15.313703
1001.933594,9.683009,6.433935,3.917190,6.051067
1001.937500,7.430149,5.145949,6.046271,9.878904
1001.941406,1.773599,4.137402,7.754811,12.945349
1001.945312,-4.621931,1.449530,4.150109,3.509412
1001.949219,4.087889,-2.884387,-1.203727,-4.291131
1001.953125,6.574756,-4.920900,5.016394,3.185317
1001.957031,-10.251000,-9.092739,-5.602488,-2.056714
1001.960938,-6.507668,-10.441393,-2.179046,-5.828522
1001.964844,-11.904620,-9.064880,-4.800239,-4.386242
1001.968750,-8.981897,-15.203085,-10.926477,-5.438029
1001.972656,-11.320053,-9.305174,-9.984950,-2.609758
1001.976562,-9.808677,-15.877048,-15.040955,-7.335116
1001.980469,-10.403364,-4.163548,-13.699027,-9.286559
1001.984375,-2.987357,-4.647416,-6.111219,-9.720971
1001.988281,-11.280088,1.660471,-7.047606,-2.081782
1001.992188,-4.809882,-16.416101,-0.735043,-7.294928
1001.996094,-7.231931,3.158130,-5.091342,-3.414573
1002.000000,0.151895,2.398229,-4.257466,0.446194
1002.003906,-2.127824,9.066088,4.327590,0.311538
1002.007812,1.899525,2.253390,15.531015,-2.338730
1002.011719,0.820682,-2.175431,0.713011,7.280490
1002.015625,6.781450,6.675107,6.066175,5.810154
1002.019531,12.163008,9.662989,8.562392,6.975117
1002.023438,7.709884,10.258251,2.867293,6.784005
1002.027344,9.908301,8.622372,9.265647,10.705531
1002.031250,13.772133,8.352323,6.154861,6.893268
1002.035156,2.504445,12.338576,4.390779,11.128362
1002.039062,3.680596,13.983243,3.221102,0.202085
1002.042969,2.900032,-1.712607,11.168055,5.375216
1002.046875,0.882735,1.224262,-0.268622,3.208891
1002.050781,-2.134138,5.508981,5.712743,-4.037021
1002.054688,-11.243268,-4.779582,-8.092209,0.233690
1002.058594,-2.855641,-4.479967,-2.127119,0.846789
1002.062500,-7.461068,-5.847391,-11.340257,1.125621
1002.066406,-2.532476,-6.120314,-10.349825,-9.827578
1002.070312,-11.139031,-10.905785,-7.348281,-11.240332
1002.074219,-13.838639,-12.051572,-12.860344,-12.986425
1002.078125,-15.303310,-7.947822,-12.156916,-5.991437
1002.082031,-5.125640,1.221527,-12.434291,-4.752738
1002.085938,-0.589569,-8.626698,-12.142896,-10.766172
1002.089844,-4.274627,2.617722,-10.859052,-8.966266
1002.093750,-4.021436,0.286323,1.053076,-4.544446
1002.097656,3.665941,5.110498,-1.689221,-2.864967
1002.101562,0.837618,7.358719,0.614990,0.935578
1002.105469,6.642053,2.604783,0.339385,-1.022163
1002.109375,5.238666,0.090145,8.332775,5.900221
1002.113281,3.058231,-0.355571,5.315516,7.609109
1002.117188,3.153551,-0.453217,13.124559,3.497813
1002.121094,10.333353,0.922255,8.609708,13.281371
1002.125000,6.396294,11.422971,8.329446,12.022759
1002.128906,14.756821,12.651269,10.678146,5.474706
1002.132812,7.497901,8.886476,10.185215,9.069633
1002.136719,14.131517,15.429134,1.480240,1.417374
1002.140625,4.328608,1.628713,10.707200,0.954258
1002.144531,4.814641,3.468212,5.581815,-2.811328
1002.148438,-3.856108,0.778167,-0.334828,1.203534
1002.152344,-7.838506,-2.343784,-5.818125,-7.106402
1002.156250,-2.337895,-3.700858,-6.334462,-7.141338
1002.160156,-4.251024,-10.246490,-4.215733,-5.491938
1002.164062,-2.942832,-6.984565,-8.628448,-4.931165
1002.167969,-5.036543,-10.444647,-14.940614,-13.098135
1002.171875,-9.938992,-3.873579,-13.835866,-11.638350
1002.175781,-12.401183,-7.885077,-9.253155,-9.436673
1002.179688,-3.856743,-12.517690,-14.279535,-9.826821
1002.183594,-13.924337,-15.573229,-9.490555,-4.609328
1002.187500,-8.724961,-2.984094,-8.243269,-10.921580
1002.191406,-1.311245,-11.546153,-1.346760,-2.910713
1002.195312,-3.473472,-0.822623,4.423845,-8.416949
1002.199219,-1.090309,4.922579,-14.346930,-3.483966
1002.203125,-0.665647,-0.790522,-8.136004,-5.528884
1002.207031,4.264304,1.592040,6.165465,4.825637
1002.210938,5.540584,10.974934,4.440718,3.779651
1002.214844,8.690462,7.310217,8.074152,7.437599
1002.218750,14.129919,10.947450,12.340824,11.243654
1002.222656,9.490792,13.883124,10.537411,14.482572
1002.226562,12.194392,13.395439,3.106885,9.860748
1002.230469,4.720728,10.031822,13.153473,9.268365
1002.234375,5.661862,6.792847,4.141762,8.905853
1002.238281,5.093833,4.127194,11.071926,2.489061
1002.242188,5.952485,3.682186,6.327991,-5.124850
1002.246094,-1.447128,7.617370,-3.995969,0.277176
1002.250000,1.437507,-2.105017,-0.498024,-0.573004
1002.253906,0.958758,3.267031,-4.864883,-0.286537
1002.257812,-4.260547,-2.524848,-2.491650,-3.733441
1002.261719,-3.841535,-4.197380,-1.656776,-10.623790
1002.265625,-15.890475,-6.896971,-13.179635,-11.231506
1002.269531,-11.422598,-14.892675,-10.093571,-15.437190
1002.273438,-9.107999,-5.816246,-11.566198,-21.062322
1002.277344,-7.423830,-11.660491,-9.031602,-4.823237
1002.281250,-7.967695,-3.900548,-6.286853,-5.021961
1002.285156,-3.578976,-7.193651,-7.169348,-12.741300
1002.289062,-10.484831,-10.147317,-6.893950,-13.072215
1002.292969,-0.302545,-0.709798,-2.443218,-8.514273
1002.296875,-3.378250,-1.064823,3.930930,-6.823885
1002.300781,-5.133848,-2.134336,-0.274143,4.017549
1002.304688,-2.846491,3.743639,-3.777343,0.600602
1002.308594,14.789339,7.757935,8.130564,0.766094
1002.312500,0.918945,3.695666,6.252128,8.792460
1002.316406,10.950414,13.280629,11.923700,3.773342
1002.320312,7.699422,3.575788,13.072099,11.685723
1002.324219,13.311143,8.909197,3.908161,8.566207
1002.328125,6.668905,5.266205,16.423496,9.456053
1002.332031,6.074788,9.429067,5.975094,13.986014
1002.335938,6.935007,2.476518,9.696748,2.815631
1002.339844,-1.453410,5.852335,8.176161,4.988089
1002.343750,8.712660,3.959467,-0.555458,20.094685
1002.347656,1.828101,-1.039277,-2.264739,6.575044
1002.351562,-5.416628,0.958176,-4.902827,1.496734
1002.355469,-8.720074,-2.135269,-5.744936,-9.020173
1002.359375,-4.062859,-1.353945,-8.807075,-6.461089
1002.363281,-6.774980,-4.375775,-6.576665,-15.957532
1002.367188,-10.493236,-9.496285,-10.896294,-8.467350
1002.371094,-7.991654,-14.678622,-5.454121,-14.265753
1002.375000,-6.500842,-5.109722,-7.477300,-12.947275
1002.378906,-4.119233,-11.640241,-12.870495,-8.930214
1002.382812,-14.272540,-13.471900,-10.845250,-5.602497
1002.386719,-6.443803,-12.370633,-8.678593,-9.819288
1002.390625,-2.641590,-1.099585,-0.501302,-3.112357
1002.394531,-3.383588,-3.359553,-4.359554,-4.610736
1002.398438,2.604274,-11.530544,-6.319192,-1.810233
1002.402344,-3.614301,2.136402,-0.182644,-1.385549
1002.406250,2.089712,3.772540,3.211241,8.710266
1002.410156,4.379169,10.463429,9.428275,6.616187
1002.414062,-1.734422,11.914827,7.826632,5.075581
1002.417969,10.905406,8.242491,14.526098,10.807262
1002.421875,14.323842,4.976851,13.587125,4.638700
1002.425781,9.095291,11.896141,15.944858,6.977937
1002.429688,4.637923,10.614783,13.382558,4.032287
1002.433594,8.885836,7.228118,4.067086,-2.552541
1002.437500,6.810536,1.692069,10.969616,4.910071
1002.441406,9.911847,7.010942,4.123612,8.981989
1002.445312,9.311615,11.566640,5.327789,3.321317
1002.449219,2.377716,5.766994,-1.621827,1.568300
1002.453125,-0.917684,-3.833328,0.882628,-1.769011
1002.457031,-7.359105,0.370635,2.496979,-5.759247
1002.460938,-0.239598,-6.547860,-4.675223,0.064039
1002.464844,-10.932273,-11.353146,-11.596997,-9.787556
1002.468750,-3.086839,-13.709124,-11.316028,-13.937090
1002.472656,-11.068796,-11.156101,-8.497695,1.529643
1002.476562,-15.061950,-15.475017,-12.704473,-12.585717
1002.480469,-8.189397,-7.615705,-0.811526,-6.333396
1002.484375,-7.144413,-2.050846,-3.195348,-2.569136
1002.488281,-2.552956,-3.726917,-2.893159,-7.451325
1002.492188,-5.115835,-5.968568,-2.396047,-0.827970
1002.496094,-5.732152,0.594298,-4.025412,-3.567749
1002.500000,3.338137,-6.346423,-5.943163,3.552981
1002.503906,2.812048,2.716164,-1.428342,0.457468
1002.507812,4.438885,1.884704,11.698109,6.013739
1002.511719,4.402849,5.743907,10.752481,5.022363
1002.515625,3.963742,11.679842,2.983061,7.434222
1002.519531,12.659341,7.623943,11.675606,5.223956
1002.523438,14.179837,14.540915,8.675612,12.273271
1002.527344,17.923304,6.096616,7.889026,5.482336
1002.531250,11.023092,5.718895,9.749953,4.273024
1002.535156,9.777860,6.197958,9.709649,8.178898
1002.539062,-0.593781,9.242356,7.918558,6.841882
1002.542969,5.493346,1.227078,9.357214,-0.525081
1002.546875,-0.588838,3.849344,5.492042,0.979744
1002.550781,0.506479,2.450445,3.460544,-0.400310
1002.554688,0.556816,-5.233792,1.290787,-4.314997
1002.558594,-3.546076,-4.427125,-2.503142,-11.906676
1002.562500,-0.209733,-10.267519,-3.527975,-11.993129
1002.566406,-10.708506,-3.612228,-9.533772,-4.857057
1002.570312,-11.715547,-9.478500,-11.864826,-8.475005
1002.574219,-12.179714,-6.840209,-8.243952,-9.025705
1002.578125,-3.314222,-10.319380,-12.348183,-4.155359
1002.582031,-13.448717,-14.115278,-20.200472,-15.211046
1002.585938,-6.757307,-9.089396,-2.155442,-10.356157
1002.589844,6.465627,-13.286508,-8.987704,-0.853918
1002.593750,0.837386,-5.073088,-3.793780,-3.911546
1002.597656,2.168761,-4.600288,7.503456,-5.376410
1002.601562,2.626698,0.585150,9.439168,-1.766747
1002.605469,0.507707,3.758539,-3.385506,0.368614
1002.609375,2.623029,4.314911,9.657545,1.701607
1002.613281,8.882151,13.746766,9.934373,2.681468
1002.617188,8.037760,6.014806,11.169604,7.609619
1002.621094,10.733922,12.527526,5.222232,8.514204
1002.625000,11.075805,5.926455,10.602174,18.597928
1002.628906,15.828993,10.821194,8.762071,11.291429
1002.632812,10.311091,10.011036,13.520646,3.167547
1002.636719,17.691237,4.988603,6.707943,11.931435
1002.640625,7.559150,14.538247,12.059999,6.032464
1002.644531,3.734192,-0.990366,-1.961475,1.802993
1002.648438,-2.123454,2.414307,-3.910434,-2.841265
1002.652344,2.421793,1.214568,1.906549,-4.498384
1002.656250,-1.652556,-3.398940,-7.025144,-5.527002
1002.660156,-8.013439,-7.255923,-7.162211,-2.225803
1002.664062,-7.724623,-6.013057,-8.960091,-6.198180
1002.667969,-13.506438,-15.574643,-4.675642,-5.500524
1002.671875,-13.349334,-4.776438,-10.001152,-2.243349
1002.675781,-10.575740,-10.828895,-13.851688,-18.346914
1002.679688,-19.239744,-6.346144,-12.137416,-11.574306
1002.683594,-9.434244,-6.548200,-16.854743,-17.701599
1002.687500,2.600733,-14.121019,-3.328341,-3.179573
1002.691406,-3.038470,-5.212827,-6.901961,4.899685
1002.695312,-4.948335,-0.468181,-3.186322,-5.267736
1002.699219,8.442166,0.145940,-3.053895,-1.110940
1002.703125,-0.430574,-2.385897,-0.335890,2.487046
1002.707031,1.667530,7.793650,2.327881,2.699576
1002.710938,5.287849,-2.781860,6.109222,5.326585
1002.714844,12.589469,7.588673,5.600180,21.304457
1002.718750,8.992394,11.202280,6.305236,7.909331
1002.722656,13.335822,14.758267,13.919683,6.393060
1002.726562,10.187153,7.853767,11.733467,12.115961
1002.730469,6.333406,6.729175,4.376153,12.239101
1002.734375,7.447857,7.022443,-0.306674,9.923242
1002.738281,9.583098,11.212374,10.153402,3.943191
1002.742188,5.841853,7.724670,0.163858,2.466030
1002.746094,4.991922,1.677517,3.251559,3.345165
1002.750000,1.144392,-1.101535,3.198468,2.077981
1002.753906,0.619578,-1.019943,2.166883,-3.946805
1002.757812,-3.575169,-5.940235,2.574414,-1.302875
1002.761719,-1.628006,-18.280325,-5.473768,-3.465189
1002.765625,-15.276155,-8.770520,-8.563669,-11.534498
1002.769531,-4.442306,-8.476353,-7.028671,-8.123701
1002.773438,-10.064320,-11.713921,-15.998031,-9.629268
1002.777344,-7.591539,-5.946877,-18.013167,-7.218151
1002.781250,-15.632468,-9.907339,-14.077544,-12.363906
1002.785156,-14.396825,-13.018006,-8.538016,-8.639568
1002.789062,-7.644544,-7.355206,0.889211,-17.894051
1002.792969,-5.683000,-2.528303,5.132400,-4.056801
1002.796875,-3.142239,-6.561523,4.158597,-5.191670
1002.800781,-0.750331,-0.497780,-4.160527,-8.707544
1002.804688,5.847090,-3.481040,-0.689399,0.105861
1002.808594,0.986419,7.106712,-0.790265,1.348650
1002.812500,8.959447,3.061282,14.202926,13.000457
1002.816406,14.038207,10.235339,11.543774,16.850403
1002.820312,4.218716,15.683989,9.592104,8.399652
1002.824219,13.206430,12.486540,11.416411,12.879073
1002.828125,7.209532,10.842973,11.816464,7.164439
1002.832031,2.664345,7.190063,7.121833,16.640810
1002.835938,9.689455,4.461228,8.214175,12.412437
1002.839844,1.037373,7.682575,2.221388,3.692852
1002.843750,5.593394,5.345600,2.913544,-0.796795
1002.847656,4.766001,1.088145,-4.456344,-1.420057
1002.851562,-2.146527,1.686769,1.201388,4.306244
1002.855469,-2.572834,-4.777656,-2.528966,-1.615984
1002.859375,-4.073290,-2.157891,-4.116108,-6.292480
1002.863281,-6.872383,-12.011301,-3.351699,-7.902440
1002.867188,-6.463643,-11.935652,-8.534144,-9.864572
1002.871094,-12.729823,-10.407366,-5.155513,-10.105385
1002.875000,-7.310638,-10.628930,-14.357000,-6.032753
1002.878906,-13.288949,-8.289820,-12.893626,-10.986231
1002.882812,-9.625694,-8.900799,-14.431426,-8.196856
1002.886719,-6.462465,-4.623812,-6.244884,-1.205327
1002.890625,-5.238671,-6.069479,-2.659308,-15.563873
1002.894531,-0.351831,-4.645040,-10.628756,-6.399678
1002.898438,-0.068464,1.261354,1.533363,-2.392748
1002.902344,4.919933,4.574370,-1.098815,2.454955
1002.906250,6.863461,0.297433,3.358375,4.401086
1002.910156,2.574126,2.695271,4.628453,6.020733
1002.914062,8.875328,8.187264,3.725986,2.174447
1002.917969,5.901257,4.188228,9.009622,4.961083
1002.921875,11.408769,10.107094,8.786727,6.503488
1002.925781,13.409330,4.733111,11.547581,19.063744
1002.929688,14.666307,12.385163,3.928227,9.840060
1002.933594,8.209503,5.324203,16.206853,9.756384
1002.937500,3.701615,11.349228,15.689503,7.240768
1002.941406,5.012649,6.598430,5.129384,7.346043
1002.945312,-1.365126,5.577622,5.854627,2.488085
1002.949219,1.652406,-5.424611,1.871501,4.916419
1002.953125,0.408111,-9.801846,-7.455247,-1.734553
1002.957031,-3.740841,-2.398755,-7.877341,-3.058755
1002.960938,-13.757432,-7.879528,-9.949704,-7.497246
1002.964844,-11.850487,-5.926911,-10.493583,2.516727
1002.968750,-11.204705,-3.812696,-6.135790,-6.193022
1002.972656,-9.927836,-15.704421,-8.773252,-7.058788
1002.976562,1.209701,-16.569011,-4.495008,-6.927722
1002.980469,-11.994296,-12.071135,-8.767012,-2.220240
1002.984375,-8.022536,-10.874425,2.226457,-6.388487
1002.988281,-6.893946,2.468122,-9.190924,-6.874596
1002.992188,1.328698,-7.744089,-10.490297,-3.309526
1002.996094,-6.641934,-2.076456,6.641256,-1.350824
1003.000000,0.004543,5.359852,-5.713819,0.826253
1003.003906,5.140331,2.149973,-8.384785,1.881448
1003.007812,-0.099527,2.378269,3.240079,6.248654
1003.011719,4.688570,7.450243,13.164526,-5.992293
1003.015625,7.541655,14.526122,10.097512,0.713280
1003.019531,11.495803,5.372999,6.478903,2.666759
1003.023438,14.905258,9.139021,18.225146,5.451465
1003.027344,17.389398,7.919184,16.384465,9.724772
1003.031250,16.367417,8.919324,5.623829,9.860932
1003.035156,3.028978,-0.717407,7.889411,2.326349
1003.039062,7.214405,2.109681,-1.053484,3.063184
1003.042969,1.891829,0.638763,2.925388,1.668032
1003.046875,0.196831,-0.699558,2.641471,6.169060
1003.050781,4.018723,-10.715441,-3.741041,0.274490
1003.054688,-4.549937,-4.806080,-3.528323,-1.659372
1003.058594,-7.111789,-3.186965,0.862316,-3.506137
1003.062500,-5.357724,-6.723775,-2.935016,-4.736407
1003.066406,-7.356663,-7.929306,-6.801274,-13.375515
1003.070312,-3.722641,-12.215286,-16.282321,-7.188562
1003.074219,-12.160802,-7.885178,-12.895017,-11.835780
1003.078125,-13.133895,-6.005032,-8.593381,-8.669524
1003.082031,-8.143275,-8.616653,-4.953010,-14.325625
1003.085938,-10.709888,-10.341530,-6.771811,-8.071326
1003.089844,-4.927360,-2.863121,-10.939127,-3.619954
1003.093750,-6.007289,-2.355479,3.185686,-4.820041
1003.097656,-3.104959,-6.652851,7.037701,-6.760405
1003.101562,4.562752,-5.784584,-2.204726,2.936805
1003.105469,5.306730,8.000122,11.803372,8.044665
1003.109375,3.287081,6.087670,5.763784,12.941770
1003.113281,7.321108,5.720029,2.273402,5.744592
1003.117188,11.262219,3.956291,11.959375,10.190410
1003.121094,13.996156,6.434803,14.724014,5.002805
1003.125000,7.805840,11.628902,14.496902,16.293676
1003.128906,10.367840,15.223422,8.784868,11.881393
1003.132812,6.511619,1.246466,0.748815,15.356128
1003.136719,5.631596,9.752855,4.297259,9.346061
1003.140625,6.938384,7.001929,5.655762,9.931104
1003.144531,2.652252,-2.690191,7.789804,2.116269
1003.148438,2.016061,4.455043,0.528508,3.014203
1003.152344,-2.029455,-8.730432,-1.579039,1.490818
1003.156250,-4.162790,-5.225524,-3.190970,-2.950736
1003.160156,-14.877959,-10.689539,-5.858269,-14.632535
1003.164062,3.139834,-6.111562,-11.398162,-7.042138
1003.167969,-20.856661,-8.403877,0.066849,-8.718858
1003.171875,-5.016897,-17.593385,-12.431161,-6.115927
1003.175781,-11.894691,-17.421479,-5.976171,-20.215738
1003.179688,-2.561880,-9.633315,-6.229758,-12.320848
1003.183594,-7.545938,-7.532929,-12.438475,-9.026285
1003.187500,-3.139552,-11.981822,-10.586309,-3.513796
1003.191406,-9.763297,-8.689833,-2.066345,-11.099131
1003.195312,4.583750,1.270243,0.473836,-2.792475
1003.199219,3.258121,5.420342,-3.881675,-1.729186
1003.203125,1.904080,-1.319225,-1.005060,6.689204
1003.207031,-3.427436,6.835526,-4.139284,12.126186
1003.210938,-3.266117,3.449354,-2.625804,8.178971
1003.214844,9.917088,11.712826,0.113942,7.648662
1003.218750,6.415661,5.489865,12.510382,9.534865
1003.222656,7.058311,5.182454,9.567505,9.965263
1003.226562,4.017674,10.041566,11.229049,9.859084
1003.230469,4.375073,13.514639,6.444528,10.763314
1003.234375,12.990562,10.303676,9.749121,5.789157
1003.238281,4.601756,10.527195,6.930736,7.528012
1003.242188,9.934452,9.781835,5.487449,1.202001
1003.246094,1.879968,3.782726,1.029568,0.651592
1003.250000,6.247220,-1.453069,4.968041,3.594941
1003.253906,1.197788,-5.163276,0.542044,0.175279
1003.257812,-7.121894,-7.409622,-2.136270,1.263141
1003.261719,-10.376166,-14.913172,-9.560445,-1.635306
1003.265625,-13.899413,-8.124424,-6.977572,-4.711062
1003.269531,-10.081814,-12.337649,-10.767567,-9.947746
1003.273438,-6.478278,-15.213959,-11.334175,-7.426472
1003.277344,-14.369490,-13.098332,-5.962846,-8.158224
1003.281250,-7.821291,-9.209063,-10.224489,-10.594472
1003.285156,-4.578578,-2.672622,-10.551729,-0.746965
1003.289062,-7.665097,-8.769863,-7.920935,-6.560933
1003.292969,-5.514091,-10.532296,-4.350552,-1.252466
1003.296875,-4.278016,-1.714814,0.554193,-5.253105
1003.300781,3.195734,6.003724,-3.323513,5.447166
1003.304688,4.089221,1.933846,-0.439467,2.282420
1003.308594,6.935649,1.023269,12.783163,-1.826161
1003.312500,5.590204,7.959907,2.185597,7.696033
1003.316406,7.406296,11.222526,-2.426782,10.208931
1003.320312,6.273155,13.011303,16.317799,20.984362
1003.324219,6.216715,7.613973,3.872969,8.246145
1003.328125,4.013163,9.527518,10.007955,9.124442
1003.332031,4.025690,4.669110,8.657250,7.063236
1003.335938,13.120445,10.040588,8.500201,4.278272
1003.339844,7.715472,4.704358,7.590451,5.178594
1003.343750,2.482300,3.374786,1.426944,6.889974
1003.347656,-4.684250,1.468084,2.735647,-6.715106
1003.351562,0.881116,-3.869914,-4.314166,1.160621
1003.355469,-6.054218,-5.395968,-1.664279,-4.257225
1003.359375,-6.277801,-7.855186,-6.438761,-1.778349
1003.363281,-8.890418,-5.644914,-2.953410,-10.685712
1003.367188,-11.273800,-7.560400,-11.407004,-11.890341
1003.371094,-6.832586,-15.628635,-7.151196,-11.653606
1003.375000,-11.246145,-4.815088,-13.056034,-14.786573
1003.378906,-2.600985,-8.684494,-5.847813,-8.906585
1003.382812,-5.013483,-5.331286,-6.068928,-12.644981
1003.386719,-10.776612,-9.124238,-5.060856,-10.611930
1003.390625,1.333905,-0.281278,-8.818886,-6.980248
1003.394531,-3.903556,-8.452623,-4.471441,-7.111707
1003.398438,-1.843276,-0.178076,0.537909,-0.741127
1003.402344,-2.398142,-0.718287,-3.536635,-1.064656
1003.406250,10.334394,1.817218,0.581757,3.579208
1003.410156,4.489278,3.913210,6.534991,3.073215
1003.414062,13.558503,12.078381,3.165863,5.051514
1003.417969,7.446089,17.527957,9.596762,10.330644
1003.421875,8.606807,14.806664,8.587620,11.660178
1003.425781,4.855794,10.475360,18.578367,9.564952
1003.429688,16.335378,14.323336,7.969160,0.298660
1003.433594,5.441949,4.302770,4.854337,19.642065
1003.437500,13.532349,9.727327,8.624189,5.055488
1003.441406,7.392445,5.909075,5.563567,1.765558
1003.445312,-1.688318,0.021462,12.159819,-1.217827
1003.449219,-1.000743,0.644207,1.262355,0.836089
1003.453125,-5.037404,-3.613445,-6.943170,-6.744851
1003.457031,-5.462806,6.250347,-4.925430,-5.213926
1003.460938,-10.411845,-0.475623,-5.204901,-8.037952
1003.464844,-6.783904,-6.721342,-4.513760,-10.765269
1003.468750,-9.609778,-9.819428,-7.066149,-10.217608
1003.472656,-14.241152,-16.011097,-13.334885,-6.401849
1003.476562,-8.780099,-11.813661,-7.700240,-8.205590
1003.480469,-7.801482,-10.698525,-11.436651,-15.897574
1003.484375,-4.492339,-6.472164,-6.025699,-10.804318
1003.488281,-8.865346,-9.480723,-5.675050,-6.309869
1003.492188,-8.424899,-7.365126,-4.571273,-4.773073
1003.496094,0.790432,1.886217,0.721623,3.325701
1003.500000,0.864235,-2.178395,1.300502,2.312903
1003.503906,-3.954350,4.535889,-0.949368,9.237897
1003.507812,2.118944,-1.849227,2.084718,-0.922656
1003.511719,6.771448,8.170220,2.253258,8.715306
1003.515625,15.372174,7.468114,-0.301429,7.174544
1003.519531,13.739039,12.262867,15.673839,4.962531
1003.523438,8.112036,5.574359,9.027155,3.274109
1003.527344,6.631996,14.894458,15.171111,12.147236
1003.531250,3.338455,9.741130,10.103473,6.370094
1003.535156,7.273652,12.886734,2.588069,3.521434
1003.539062,9.571707,12.756338,2.923682,5.454976
1003.542969,11.075396,5.410671,0.766666,6.577945
1003.546875,2.934039,0.873542,-5.569054,-1.401347
1003.550781,1.954050,-4.523910,5.005163,-0.410143
1003.554688,-9.210201,-7.866669,5.092152,-5.022446
1003.558594,-0.408110,-7.374847,-5.417636,-1.243459
1003.562500,0.996123,-8.347410,-16.669052,-4.336606
1003.566406,-12.289728,-15.620520,-14.204439,-8.261109
1003.570312,-8.708856,1.039752,-14.388483,-10.717156
1003.574219,-5.200333,-9.852336,-11.478742,-11.464430
1003.578125,-17.851470,-9.177661,-12.821111,-4.266382
1003.582031,-13.552219,-4.341913,-4.309037,-10.615838
1003.585938,-2.823083,-11.507620,-7.409034,-5.445727
1003.589844,-9.667430,-4.131685,-3.556109,-8.193055
1003.593750,-2.477263,-9.136459,-4.744023,-7.427869
1003.597656,0.625979,-0.895844,1.959194,-0.094336
1003.601562,5.982789,-1.775264,1.298044,2.576889
1003.605469,11.865531,-0.459227,4.196804,12.547602
1003.609375,9.543981,8.580436,12.741882,1.587825
1003.613281,6.261179,11.184735,11.667971,7.286177
1003.617188,9.990589,13.067395,5.814867,11.349160
1003.621094,8.206709,10.740837,5.922303,0.833643
1003.625000,14.110383,6.172086,9.063258,11.980900
1003.628906,7.972499,11.577611,8.446570,11.389816
1003.632812,13.549440,7.717983,6.591000,7.378224
1003.636719,11.073460,4.277451,11.383265,1.821821
1003.640625,6.890115,5.516209,1.996713,4.868315
1003.644531,3.454552,6.332395,9.004972,2.278577
1003.648438,-6.341931,1.927973,-1.564526,-5.763461
1003.652344,-3.040251,-3.456265,-3.215166,-11.337390
1003.656250,-5.599341,-3.015427,-1.944243,-4.746941
1003.660156,-7.840519,-10.165924,-5.476715,-5.751787
1003.664062,-2.052274,-11.034476,-1.647047,-13.114518
1003.667969,-7.046181,-15.790080,-6.085812,-2.732940
1003.671875,-14.934253,-11.824392,-9.026975,-11.064219
1003.675781,-7.660758,-9.118829,-11.422845,-6.243196
1003.679688,-11.527984,-15.529511,-8.428250,-15.911030
1003.683594,-7.865495,-10.940229,-8.565208,-11.147851
1003.687500,-1.516277,-8.746410,-9.557973,-3.185884
1003.691406,-5.522139,-7.933451,-8.787593,-9.861126
1003.695312,-0.174528,-3.986072,-1.918343,-6.815872
1003.699219,-0.664944,-3.045764,-4.899305,-3.231622
1003.703125,-3.588122,1.735107,5.188427,1.839293
1003.707031,10.633749,2.359369,5.292552,3.915183
1003.710938,9.134858,10.262001,0.073497,7.834487
1003.714844,4.001285,13.618396,5.267982,9.290713
1003.718750,6.083092,-0.758995,5.844506,5.388497
1003.722656,8.583273,14.623620,5.462376,13.155069
1003.726562,19.361980,12.084522,6.045011,15.098001
1003.730469,10.501306,10.642285,12.285619,16.573679
1003.734375,5.603623,3.275901,14.604940,17.009088
1003.738281,7.483140,1.243023,5.622110,6.391869
1003.742188,12.394803,12.175271,-1.805391,7.982090
1003.746094,4.779702,-2.165974,1.734128,-1.277811
1003.750000,-3.785297,3.027416,-2.048772,0.369731
1003.753906,0.005148,-0.397959,2.650487,-6.581416
1003.757812,-1.331668,-2.933930,-10.732340,-6.819420
1003.761719,-7.125856,-3.710343,-9.196198,-6.493878
1003.765625,-5.987980,-8.489567,-8.545763,-12.646432
1003.769531,-6.737886,-10.455343,-9.522858,-4.497442
1003.773438,-10.311514,-3.963818,-4.695594,-11.239466
1003.777344,-21.579385,-11.044026,-13.706135,-11.628681
1003.781250,-13.746014,-7.997697,-6.212132,-0.280040
1003.785156,-6.173479,-0.878140,-16.123372,-10.751145
1003.789062,-4.444071,-2.149960,-8.782970,-10.287731
1003.792969,-0.814660,-8.002545,1.826002,-8.526547
1003.796875,-4.285545,-1.838194,2.630558,-1.048925
1003.800781,-0.007883,4.824741,3.552912,-0.802771
1003.804688,2.236954,10.618162,3.726539,7.271884
1003.808594,3.247702,2.200067,0.375513,15.473332
1003.812500,5.331064,9.549050,15.481715,8.914597
1003.816406,8.690994,14.163499,17.612112,9.715453
1003.820312,11.840177,10.430987,3.543470,14.001252
1003.824219,13.746552,1.821662,4.005729,11.906298
1003.828125,14.251885,11.614813,9.079054,9.964293
1003.832031,8.634618,9.935930,9.278830,6.508249
1003.835938,9.113181,5.388743,6.701228,9.772876
1003.839844,7.317062,9.834644,5.627943,10.563052
1003.843750,3.500180,2.470485,4.958686,12.489647
1003.847656,3.067953,1.877284,1.075615,-3.790972
1003.851562,-1.446517,1.270199,-3.022575,2.066869
1003.855469,-0.556379,-3.143274,-5.735349,-0.273613
1003.859375,-4.181611,-5.548335,-13.943202,-12.655081
1003.863281,-2.314512,-7.576986,-11.015687,-8.994839
1003.867188,-5.372154,-5.900834,-10.155204,-7.083186
1003.871094,-8.478665,-9.353019,-10.557875,-9.178475
1003.875000,-12.519184,-13.811924,-7.221596,-9.252182
1003.878906,-11.894677,-10.675408,1.241247,-4.419787
1003.882812,-10.018356,-10.127981,-9.013022,-2.449377
1003.886719,-7.441557,-6.885342,-15.779887,-15.395714
1003.890625,-1.920415,-8.437004,0.148439,-1.989989
1003.894531,-4.120064,-4.336413,-0.057386,-3.324859
1003.898438,1.316874,-0.262752,3.755452,-1.579445
1003.902344,3.649624,1.478753,0.530695,0.853629
1003.906250,4.366928,5.260669,5.909881,6.484362
1003.910156,9.326368,6.052155,11.542530,-1.600792
1003.914062,7.982217,4.796004,2.585027,1.073258
1003.917969,11.730301,10.294531,10.182358,5.571951
1003.921875,18.509642,7.259861,19.213176,19.792720
1003.925781,11.573675,9.376620,5.156946,12.461582
1003.929688,14.553407,7.172871,9.533738,11.147388
1003.933594,12.536802,7.992379,6.539029,11.413172
1003.937500,6.304121,6.653347,5.760427,4.790153
1003.941406,8.438442,9.734221,2.777281,5.547269
1003.945312,5.462993,-1.048787,4.235978,3.770188
1003.949219,-2.426694,2.214343,-2.825964,0.865400
1003.953125,-0.649104,-2.827115,5.164230,1.814226
1003.957031,-2.260941,2.310881,-1.661046,-7.072096
1003.960938,-5.964900,-5.317564,-8.108771,-7.513198
1003.964844,-7.100595,-13.623065,-11.314803,-2.189920
1003.968750,-9.922104,-9.821963,-13.208121,-4.768297
1003.972656,-6.684804,-8.141108,-8.825057,-16.470195
1003.976562,-12.793255,-7.273425,-10.117201,-11.169751
1003.980469,-10.735657,-12.860087,-7.916519,-11.626671
1003.984375,-5.655852,-9.504528,-4.546405,-8.657027
1003.988281,-7.446368,-3.759769,-5.837823,-5.762520
1003.992188,0.334323,0.216540,-3.314350,-2.911687
1003.996094,-2.506524,-2.834316,-6.971601,-2.209201
1004.000000,-3.611345,-1.752087,-4.019224,-1.899872
1004.003906,1.875628,4.129628,2.520553,-0.735647
1004.007812,0.881481,-3.884921,5.846756,3.067521
1004.011719,5.005839,0.132408,5.198849,-0.801325
1004.015625,3.602462,10.630795,9.713412,7.001086
1004.019531,-2.152931,8.943364,10.297467,8.206406
1004.023438,10.604926,11.265123,3.701028,1.948620
1004.027344,8.335057,13.595378,15.355873,13.626218
1004.031250,11.806306,3.925717,8.338269,19.909562
1004.035156,6.008102,7.333268,6.973242,2.619937
1004.039062,5.804925,2.237471,4.308466,6.375052
1004.042969,13.184134,-1.902966,5.774791,1.864041
1004.046875,5.593031,0.377646,2.658138,0.986078
1004.050781,-4.725271,1.427836,3.811704,-1.467377
1004.054688,-6.267386,-8.691188,-2.355448,-9.540243
1004.058594,0.263453,-9.749731,-10.745781,-12.396028
1004.062500,-12.037359,-5.864398,-3.624216,-2.873945
1004.066406,-2.849276,-8.961042,-10.855573,-3.516839
1004.070312,-9.457422,-9.635226,-16.909758,-4.870158
1004.074219,-3.132842,-20.687668,-21.294898,-10.152644
1004.078125,-10.672159,1.577551,-11.134923,-4.696609
1004.082031,-10.724357,-5.687686,-5.756375,-14.824023
1004.085938,0.200850,-9.988480,-8.230978,-7.044242
1004.089844,-6.877922,-8.629135,-6.934989,-5.713165
1004.093750,-5.572516,-3.060753,-6.805154,-4.004467
1004.097656,-8.320979,2.898089,-4.969262,-5.387407
1004.101562,-3.137193,-0.024937,-1.299373,-0.349658
1004.105469,2.135706,-4.520208,1.286169,2.923122
1004.109375,11.685615,1.326400,4.696388,5.450688
1004.113281,7.515622,6.402288,7.651345,3.672081
1004.117188,6.865222,3.694107,12.797504,8.325675
1004.121094,9.659777,2.045525,14.051983,9.269456
1004.125000,8.966117,7.232644,5.788782,12.552479
1004.128906,5.320713,7.764632,5.528226,8.738656
1004.132812,8.087150,5.383412,7.546694,8.170968
1004.136719,4.253521,1.210251,-1.423494,13.906541
1004.140625,-1.556635,8.284940,11.763582,11.931785
1004.144531,-0.746000,0.044660,1.272385,9.748480
1004.148438,-6.397431,4.540285,-2.325955,2.085392
1004.152344,4.535611,-1.199898,-4.182583,4.986097
1004.156250,-7.466748,-4.423795,7.256324,-5.387380
1004.160156,-4.986723,-3.296239,-4.440178,-4.848357
1004.164062,-7.351214,-10.044367,-8.143696,-6.453858
1004.167969,-12.949899,-8.203763,-7.775469,-13.612288
1004.171875,-20.901515,-12.570866,-4.777747,-4.276136
1004.175781,-10.026000,-10.782183,-13.688883,-10.719012
1004.179688,-9.631000,-14.378433,-11.061445,-16.439961
1004.183594,-7.857909,-7.516457,-7.047256,-4.460477
1004.187500,-1.078604,-1.950987,-4.439132,-5.957203
1004.191406,-0.401807,-3.093904,-7.029118,-8.196387
1004.195312,-5.759145,-7.689401,-3.569040,-4.808792
1004.199219,0.115738,1.740889,0.218541,-0.238663
1004.203125,6.958103,1.129883,13.562006,-3.630833
1004.207031,10.069417,7.635119,2.338663,2.436304
1004.210938,7.047276,7.152005,4.133899,9.327605
1004.214844,9.896750,10.147681,10.513158,2.118402
1004.218750,5.429611,11.547772,5.948867,9.629586
1004.222656,7.306833,10.489439,6.726525,10.444684
1004.226562,6.815673,15.151765,13.392473,8.685753
1004.230469,14.123796,3.248407,20.591021,7.754080
1004.234375,11.032312,10.816302,3.543098,6.313871
1004.238281,8.166157,12.154233,3.406870,4.680648
1004.242188,9.529048,5.763575,2.186923,4.419656
1004.246094,12.500711,3.929687,-1.382588,4.207740
1004.250000,5.397632,-0.288706,-8.053454,-1.480703
1004.253906,-1.737719,-3.976041,-7.383793,-3.389546
1004.257812,-5.215142,-9.194586,-12.276895,4.366144
1004.261719,-2.185690,-0.494652,0.252160,-6.139520
1004.265625,-2.456734,-0.658824,-10.836302,-6.448755
1004.269531,-10.849945,-7.761971,-11.099898,-12.865202
1004.273438,-10.559039,-8.915435,-7.469489,-7.106290
1004.277344,-6.587470,-5.166701,-4.848732,-10.773961
1004.281250,-14.400990,-10.592309,-14.151385,-9.693348
1004.285156,-7.465821,-21.379845,-8.891780,-12.557919
1004.289062,-11.851230,-7.098328,-9.635800,-5.127211
1004.292969,-10.485844,-10.301499,-3.272736,-7.198167
1004.296875,-9.655802,-1.717878,0.545589,1.803188
1004.300781,-1.059790,-3.263182,0.073180,-3.299717
1004.304688,-1.935910,1.561859,1.804828,1.562684
1004.308594,3.564062,4.775712,10.759635,9.176148
1004.312500,9.828317,8.219554,1.329682,12.758785
1004.316406,13.069356,8.302778,12.902580,12.266642
1004.320312,20.281703,9.262484,13.774366,12.159241
1004.324219,15.126796,4.375432,16.972677,14.231797
1004.328125,10.431645,12.528986,10.909290,-0.248990
1004.332031,11.196158,10.291387,2.938040,14.454426
1004.335938,8.823374,10.685443,8.650585,11.000347
1004.339844,8.421895,-3.500948,10.865730,10.496434
1004.343750,-3.187387,6.731934,5.559240,1.322851
1004.347656,-9.269477,-0.798731,5.611754,0.741609
1004.351562,-1.122464,-11.795345,1.566742,-0.501098
1004.355469,-3.841963,1.380629,2.661388,-9.125438
1004.359375,-8.032646,-6.050073,-2.929800,-6.053736
1004.363281,-11.596095,-8.456436,-5.000286,-11.834134
1004.367188,-14.237192,-10.095770,-14.732687,-11.240151
1004.371094,-9.758886,-11.501909,-10.362414,-10.224670
1004.375000,-9.916066,-1.129494,-12.278798,-12.112463
1004.378906,-2.111428,-13.350774,-9.432430,-7.318289
1004.382812,-13.642432,-3.954051,-8.696371,-8.935187
1004.386719,0.753227,-7.253222,-11.287449,-10.892359
1004.390625,-4.478473,-5.209681,-8.428705,-3.165473
1004.394531,-5.466329,-7.661647,-10.711596,-4.661166
1004.398438,-3.162810,-4.438488,-4.845050,-0.847945
1004.402344,9.791737,3.584101,-2.629304,0.620468
1004.406250,-1.151273,6.314199,-0.563254,2.697966
1004.410156,2.751316,3.585431,10.777688,8.074702
1004.414062,0.965699,9.050022,7.191111,12.878992
1004.417969,0.381579,9.639499,4.984190,4.139075
1004.421875,8.100246,11.358490,12.515991,3.391510
1004.425781,17.769566,7.235813,6.195929,8.537988
1004.429688,9.832889,11.628234,3.721312,6.039082
1004.433594,8.544072,6.162807,15.848627,6.273312
1004.437500,0.933997,8.380720,9.631555,2.102841
1004.441406,3.064266,9.072756,3.174347,9.823042
1004.445312,2.964555,2.525792,1.454663,7.868096
1004.449219,2.766997,-7.302521,-1.540020,-4.712695
1004.453125,-6.389185,3.736441,4.944816,-2.530600
1004.457031,-4.771262,-4.224914,-0.128681,-4.335317
1004.460938,-8.455170,-9.132909,-1.939327,-11.257202
1004.464844,-7.452244,-10.328762,-5.578514,-10.066317
1004.468750,-5.857553,-9.914541,-10.429487,-11.422969
1004.472656,-17.784335,2.086367,-10.128535,-8.616440
1004.476562,-7.365825,-17.723402,-8.309786,-6.661672
1004.480469,-8.247032,-5.833120,-4.945530,-15.947070
1004.484375,-6.634962,-10.088126,-13.462259,-12.149414
1004.488281,-8.206768,-1.897832,-6.529710,-8.202238
1004.492188,-8.283437,-1.433247,-8.778585,-1.749957
1004.496094,-3.456093,1.397891,-7.761616,-1.519978
1004.500000,-2.163468,-3.588832,3.541373,-1.502418
1004.503906,1.911455,2.200622,-2.378815,-0.473059
1004.507812,5.820655,0.351870,5.858063,13.279762
1004.511719,9.054174,4.479198,2.882976,9.775407
1004.515625,5.643735,10.111709,9.133388,2.014917
1004.519531,17.375308,12.847835,14.925003,9.476824
1004.523438,15.046405,9.240529,13.704801,8.462382
1004.527344,12.574104,8.102938,11.541263,9.650702
1004.531250,8.546451,9.537264,6.385157,9.538386
1004.535156,16.596445,7.111682,9.865569,6.937073
1004.539062,11.230906,9.252427,14.206957,-1.878306
1004.542969,2.113750,6.001297,3.939397,2.371419
1004.546875,-2.787353,5.362889,2.187423,2.152463
1004.550781,6.884320,1.186497,-1.838813,-0.887535
1004.554688,-4.529968,-7.076356,-2.442758,-5.119811
1004.558594,-3.970575,-9.000556,-5.744032,-13.003908
1004.562500,-7.084952,-8.331007,-7.984583,-4.152769
1004.566406,-15.337838,-2.662500,-5.290951,-11.409179
1004.570312,-1.297879,-7.817306,-5.236033,-4.416707
1004.574219,-14.305100,-12.925808,-6.767005,1.222244
1004.578125,-4.163489,-14.634055,-6.362394,-6.588474
1004.582031,0.326848,-18.682249,-4.298276,-5.870502
1004.585938,-8.511652,-8.938593,-8.469073,-4.028427
1004.589844,-1.493911,-4.050475,-1.942212,-1.052013
1004.593750,-4.451264,4.046996,-1.617971,-2.654063
1004.597656,1.043201,-5.449681,5.279126,0.919183
1004.601562,1.531723,-2.752884,-0.892044,-2.327669
1004.605469,9.476205,-4.541519,6.132704,0.262297
1004.609375,8.462138,9.747320,2.800188,3.478555
1004.613281,4.051031,8.868038,6.934444,10.569802
1004.617188,9.105911,6.873116,12.425328,10.118369
1004.621094,7.729896,15.283851,5.218757,7.757220
1004.625000,17.195920,13.611376,11.748212,8.325809
1004.628906,10.874289,12.224604,13.116414,10.578621
1004.632812,8.574983,3.512006,19.402730,11.086016
1004.636719,7.834280,1.416544,6.242886,3.384228
1004.640625,1.675349,5.612648,4.073137,0.907361
1004.644531,9.528296,-1.227701,5.328623,-1.629984
1004.648438,2.738797,2.858385,4.261702,0.000314
1004.652344,-0.702023,-5.851623,-7.223440,-7.308101
1004.656250,-1.879844,-0.074438,-12.190437,-5.851513
1004.660156,3.897142,-5.309059,-0.355855,-4.943530
1004.664062,-12.235049,-4.448923,-8.628517,-12.598861
1004.667969,-10.886032,-6.203370,-10.898575,-8.203279
1004.671875,-15.239365,-7.092821,-16.910943,-9.466025
1004.675781,-7.782376,-4.812055,-10.367962,-15.263435
1004.679688,-7.288787,-13.936797,-9.718311,-4.582590
1004.683594,-7.380796,-8.856213,-10.513000,-7.083633
1004.687500,-7.928949,-7.857901,-13.604868,-15.665697
1004.691406,-0.941818,-6.480072,-8.580877,-6.581267
1004.695312,-16.548830,-4.487050,-3.977043,0.907312
1004.699219,-2.342649,0.205253,3.031734,-4.600590
1004.703125,7.939088,5.394899,6.127376,3.095758
1004.707031,-1.869259,8.189607,2.842531,8.864116
1004.710938,6.049910,3.874070,7.822767,0.998012
1004.714844,14.488217,10.142200,-0.164317,2.942550
1004.718750,8.413593,10.767502,6.326013,9.959838
1004.722656,14.045028,10.022729,6.167055,18.055865
1004.726562,12.492603,13.155734,10.361837,3.668944
1004.730469,7.556141,17.329150,21.043412,2.789226
1004.734375,3.942249,7.123426,8.943014,11.390352
1004.738281,4.995079,7.647224,13.724880,8.715023
1004.742188,0.758156,4.269449,1.598985,2.841976
1004.746094,5.525820,-8.899398,7.160507,3.876800
1004.750000,6.807306,-2.923983,-1.092761,-3.102155
1004.753906,-6.114447,-1.128703,2.065649,0.831355
1004.757812,-2.741157,-6.969653,-5.892268,-3.426898
1004.761719,-3.747988,-3.540330,-4.899608,-1.339021
1004.765625,-13.825938,-3.816564,-10.450320,-10.898885
1004.769531,-11.063004,1.071958,-6.523310,-14.104636
1004.773438,-3.159040,-12.294981,-11.755889,-7.031222
1004.777344,-6.899519,-10.008846,-9.495671,-13.651780
1004.781250,-11.437395,-12.915614,-8.994823,-14.059481
1004.785156,-14.851599,-8.129556,-4.770943,-8.575351
1004.789062,-9.442897,-9.136299,-5.813820,-2.042741
1004.792969,-0.303489,-4.580324,-7.619433,-7.147379
1004.796875,-3.322733,-3.639687,-2.256163,0.731661
1004.800781,3.542758,-1.665572,-1.117160,-3.181000
1004.804688,6.236448,7.002707,6.556804,3.079423
1004.808594,0.771024,6.208116,7.293795,3.935453
1004.812500,14.846177,5.641468,10.006123,5.458335
1004.816406,5.714019,12.682183,10.815783,8.092684
1004.820312,18.768598,10.075418,7.781951,6.676952
1004.824219,13.611544,4.300093,9.987985,8.064891
1004.828125,12.700296,12.853743,14.629496,14.228402
1004.832031,11.850688,9.645107,7.236221,9.587904
1004.835938,8.760886,6.364492,5.519725,3.795257
1004.839844,-4.690574,3.885325,4.076531,8.421814
1004.843750,1.071446,7.134900,-1.850654,0.959885
1004.847656,-0.948840,1.270127,-4.247393,0.912350
1004.851562,-1.774733,-1.192374,-2.749269,-2.254922
1004.855469,-2.255496,-2.904457,-8.163568,-6.851209
1004.859375,-6.119482,-6.236557,-7.377580,-4.107886
1004.863281,-6.653397,-7.746783,-5.411461,-5.946479
1004.867188,-7.303449,1.830520,-8.468113,-4.939324
1004.871094,-13.961902,-15.606100,-13.791671,-13.188475
1004.875000,-5.415680,-2.882853,-9.349960,-12.368984
1004.878906,-5.326005,-13.988593,-10.849193,-13.036375
1004.882812,-12.898286,-11.906681,-15.442501,-1.394913
1004.886719,-7.036425,-16.643459,-16.457595,-5.271876
1004.890625,-3.990730,-7.302159,-7.106740,-3.966547
1004.894531,-6.686736,-8.987347,-1.758789,-5.360887
1004.898438,-1.521026,-4.600402,5.385524,-10.192271
1004.902344,5.085890,-2.965796,-2.234236,1.601111
1004.906250,-0.151204,3.366877,-0.881046,5.135497
1004.910156,6.322100,5.764889,6.917480,5.239394
1004.914062,7.178490,9.311332,9.719652,6.168348
1004.917969,5.134441,7.730045,4.854999,1.140175
1004.921875,10.292333,10.695689,14.142992,6.315550
1004.925781,15.122311,14.794619,10.575793,10.537829
1004.929688,-1.328957,10.188266,10.125062,17.357827
1004.933594,12.803325,6.837410,9.782763,11.438890
1004.937500,14.164913,7.927347,17.416340,18.481514
1004.941406,3.568376,5.113517,-3.473860,10.994991
1004.945312,5.030398,-1.683454,1.567282,0.014705
1004.949219,-2.217080,7.092129,1.496909,3.270846
1004.953125,4.026428,-1.938652,-6.547582,2.547995
1004.957031,-1.624699,-7.767728,-3.821847,-1.011043
1004.960938,-4.252182,-9.811537,-9.787510,-11.751057
1004.964844,-8.076569,-4.849799,-6.520451,-11.441608
1004.968750,-4.582159,-11.755471,-10.647869,-15.573185
1004.972656,-7.710927,-12.301827,-13.650931,-10.141486
1004.976562,-8.340980,-7.447784,-16.429780,-8.150987
1004.980469,-13.826488,-13.222536,-9.215036,-6.681151
1004.984375,-8.522437,-12.927656,-7.045735,-0.326618
1004.988281,-8.779094,-13.654102,-6.724625,-2.430517
1004.992188,-0.118448,-13.594723,-1.325521,0.628723
1004.996094,-2.661696,-4.756322,-5.596856,-0.363141
1005.000000,-3.306639,-4.267399,-10.394519,7.608780
1005.003906,2.175751,1.958472,2.270697,1.818299
1005.007812,4.996923,5.413035,10.715531,8.123177
1005.011719,3.604407,14.073657,1.643757,2.573723
1005.015625,8.519388,10.535060,7.101883,9.992596
1005.019531,10.483686,13.812686,5.513680,13.237082
1005.023438,22.428411,16.665610,13.342887,11.459958
1005.027344,15.435021,6.621876,12.214326,5.675912
1005.031250,6.152600,13.623655,8.518064,14.754502
1005.035156,11.572424,4.400246,8.326551,12.145448
1005.039062,2.269845,8.163320,9.997912,4.094805
1005.042969,2.475867,2.029398,9.900167,7.225221
1005.046875,-0.764932,3.809216,-1.327663,3.839713
1005.050781,-5.383399,-9.097775,6.365054,5.802052
1005.054688,-4.014952,-4.114057,-1.006821,-1.243276
1005.058594,-4.960875,-4.276933,-2.383064,-10.417127
1005.062500,-9.988532,-13.517850,-7.657709,-16.028078
1005.066406,-4.548274,-15.885860,-1.613695,-9.973469
1005.070312,-7.317022,-16.215249,-7.471162,-11.004549
1005.074219,-5.974973,-8.262615,-12.077969,-11.696942
1005.078125,-12.634301,-4.427216,-5.546177,-9.618495
1005.082031,-9.318492,-11.092841,-6.339302,-1.301851
1005.085938,-5.348547,-4.377137,-5.024177,-6.338050
1005.089844,-8.618417,-2.225529,-8.882754,-9.783038
1005.093750,4.784061,1.326162,0.465297,-7.477285
1005.097656,1.613838,-3.339746,-0.704177,6.513352
1005.101562,4.555185,1.757126,0.080526,7.449657
1005.105469,4.854496,-7.782635,10.144078,4.356757
1005.109375,4.884674,1.076298,3.853296,2.959713
1005.113281,7.392439,10.259433,5.919816,10.921626
1005.117188,7.378765,10.626081,9.371038,10.987918
1005.121094,15.030916,5.127976,16.358462,13.415596
1005.125000,10.447356,17.309085,5.536152,9.027122
1005.128906,6.353744,6.644629,8.185034,7.700789
1005.132812,4.381231,2.439028,12.245653,5.432542
1005.136719,0.588586,7.268448,9.178875,3.596861
1005.140625,5.050281,4.288432,6.196697,5.807366
1005.144531,-9.774441,-2.608788,-4.419738,6.202347
1005.148438,1.315575,6.911819,-1.346220,1.042240
1005.152344,0.733699,-3.245465,2.990387,-5.790296
1005.156250,-8.926481,-3.326966,-6.899738,-5.081652
1005.160156,-8.623164,-0.741527,-7.253132,-10.159678
1005.164062,-9.789786,-6.384582,-2.249876,-9.060612
1005.167969,-11.774135,-10.078183,-18.136353,-8.309186
1005.171875,-12.957662,-8.596469,-11.527096,-12.114097
1005.175781,-5.482329,-10.364435,-12.574370,-6.510061
1005.179688,-15.206607,-12.786657,-8.689345,-6.983818
1005.183594,-9.552234,-12.372428,0.613820,-7.536502
1005.187500,-1.762499,-7.039105,-7.051347,-12.629410
1005.191406,-9.199815,-14.372524,-10.573897,-4.596870
1005.195312,-3.220139,-2.825140,-14.484843,-4.187819
1005.199219,1.678285,-0.684855,3.476556,0.296833
1005.203125,-3.837765,5.007994,-1.990751,-7.923381
1005.207031,-0.827826,5.849634,7.734023,-3.384650
1005.210938,5.090622,6.428814,5.458655,8.549584
1005.214844,7.568146,10.198138,4.196261,12.140715
1005.218750,9.609664,14.694831,8.882513,9.946630
1005.222656,10.844750,10.438547,10.026416,14.122170
1005.226562,5.527460,8.961250,6.389722,11.062320
1005.230469,14.439601,0.526651,13.161174,6.316608
1005.234375,7.604434,9.083143,14.723222,4.097834
1005.238281,6.083456,2.480582,10.739400,7.765509
1005.242188,7.067489,3.523011,-1.308990,3.435755
1005.246094,10.025473,4.929709,0.814514,3.848198
1005.250000,-5.382741,-7.380914,-4.271765,0.424211
1005.253906,-7.177775,-0.463004,3.773460,-2.185991
1005.257812,-4.347486,-0.153666,-7.303659,-9.574500
1005.261719,-6.812730,-6.327454,-5.786985,-5.741707
1005.265625,-7.349112,-10.667680,-12.789509,-5.715337
1005.269531,-1.114424,-14.834886,-7.720281,-6.875769
1005.273438,-10.761121,-16.829407,-16.704417,-16.727285
1005.277344,-5.334899,-14.024900,-11.395260,-1.388836
1005.281250,-3.463183,-7.695367,-13.335923,-12.458089
1005.285156,-9.807691,-4.571105,-6.306613,-3.599255
1005.289062,-10.596773,-5.346178,-8.609372,0.458984
1005.292969,-8.665512,3.547089,-3.537217,-6.052225
1005.296875,-3.161032,3.110242,-4.395987,-0.578064
1005.300781,4.137742,-3.226375,-4.478216,2.485014
1005.304688,5.095206,7.860137,1.922165,2.330987
1005.308594,6.285513,3.679569,8.060527,11.586654
1005.312500,4.844659,2.848278,6.593210,2.843765
1005.316406,9.569033,7.761991,8.102481,10.029429
1005.320312,9.936411,8.300742,5.465751,18.186755
1005.324219,12.326775,14.163815,11.406253,5.492297
1005.328125,8.942555,16.765083,12.700873,7.237137
1005.332031,-1.066018,2.067724,8.786398,13.347491
1005.335938,9.056291,4.818313,2.407194,7.900716
1005.339844,2.838943,11.892379,3.794794,3.800746
1005.343750,7.832716,3.523275,5.288064,10.085625
1005.347656,2.571056,6.819961,0.783400,0.006782
1005.351562,8.595706,-2.796724,-2.213582,5.861730
1005.355469,-4.436617,-4.854653,2.176076,-0.572711
1005.359375,-5.147559,-9.483729,-6.159322,-2.159265
1005.363281,-9.839151,-4.849168,1.921827,-5.534325
1005.367188,-6.035809,-6.338660,-9.574704,-16.596213
1005.371094,-13.982215,-10.489500,-10.570777,-16.676645
1005.375000,-9.774765,-9.973063,-3.300855,-22.867260
1005.378906,-16.076786,-13.190522,-5.857866,-15.794336
1005.382812,-7.104455,-8.315863,-9.631466,-13.659719
1005.386719,-13.481050,-9.504807,0.843095,-4.788379
1005.390625,-1.283342,-1.199863,-1.736144,-2.840709
1005.394531,-5.361950,-1.617044,-5.857413,-4.853394
1005.398438,2.602242,-9.206265,-4.218640,-2.988882
1005.402344,1.988673,0.509285,-2.901528,-2.530292
1005.406250,-1.223812,5.965093,2.943473,-2.310302
1005.410156,2.254140,9.243794,1.525994,15.598403
1005.414062,15.690496,4.451045,3.867671,11.934375
1005.417969,10.291616,8.246117,11.724971,11.644281
1005.421875,8.860714,2.321468,1.586170,7.600878
1005.425781,9.938901,10.398075,9.026529,9.199161
1005.429688,9.211350,11.231621,12.971900,5.075295
1005.433594,11.633726,9.100802,13.805731,7.191213
1005.437500,3.628947,-1.582535,6.498350,5.332764
1005.441406,2.537551,13.357709,10.873940,12.624228
1005.445312,1.649022,5.051001,-5.838611,-0.799441
1005.449219,13.024071,3.144619,2.598461,4.592820
1005.453125,7.115326,-3.627900,-2.022448,-7.839758
1005.457031,0.213346,-1.230407,-2.974889,-10.969387
1005.460938,-4.995176,-6.794971,-6.279013,-5.963104
1005.464844,-11.009217,-8.372887,-6.844230,-10.252416
1005.468750,-13.798911,-3.184842,-0.823383,-5.079686
1005.472656,-16.383333,-11.799089,-13.957058,-8.913251
1005.476562,-20.031851,-4.804080,-2.472174,-3.351703
1005.480469,-5.256124,-9.438826,-8.232350,-12.019662
1005.484375,-1.288329,2.417113,-2.212138,-8.838172
1005.488281,-1.054097,-13.876968,-6.494383,-8.689014
1005.492188,2.274427,-10.477101,-7.873534,-0.575878
1005.496094,-6.784354,-1.721419,2.728349,-9.899899
1005.500000,-8.472425,2.072027,-1.333749,-6.763273
1005.503906,6.936341,4.175651,2.767891,3.181701
1005.507812,5.438877,9.319995,9.834358,8.133543
1005.511719,7.413532,4.618753,6.617754,12.420814
1005.515625,-3.028440,12.250846,8.925121,8.469057
1005.519531,11.589121,11.756092,10.692863,6.655558
1005.523438,13.837051,10.999038,12.684946,6.718683
1005.527344,6.247860,8.008905,9.410204,16.009747
1005.531250,14.537639,13.323027,11.849046,6.906692
1005.535156,10.837372,8.557264,11.742113,1.390809
1005.539062,5.698273,6.228600,12.102378,0.140104
1005.542969,5.908547,-0.549250,12.952448,7.074478
1005.546875,4.431283,2.520504,-2.925898,1.928316
1005.550781,3.729734,-4.074091,-1.715179,5.366063
1005.554688,0.294873,-7.422642,-4.642622,-6.325044
1005.558594,-6.478567,-6.696580,9.375507,-3.740828
1005.562500,-9.144080,-4.077145,-14.062451,-9.864703
1005.566406,-10.973099,-14.649162,-8.328677,-4.729094
1005.570312,-8.553168,-16.594392,-4.586970,-6.806331
1005.574219,-8.849307,-11.160920,-12.333308,-11.966794
1005.578125,-9.822757,-12.379331,-2.355129,-13.874689
1005.582031,-8.812009,-4.725411,-13.296599,-11.876109
1005.585938,-8.318243,-14.673744,-14.074489,-14.288715
1005.589844,-4.870109,-7.561093,-2.197436,-1.908113
1005.593750,-6.883378,-3.258877,-7.158400,-2.615173
1005.597656,-3.704111,-2.737209,-2.404795,-3.259819
1005.601562,1.725798,-1.821628,0.902811,0.147031
1005.605469,4.182029,6.333147,3.509686,2.024669
1005.609375,-0.073960,7.639142,9.927340,7.768979
1005.613281,16.684531,9.664410,3.004482,7.995398
1005.617188,15.875178,8.741006,-1.813646,8.414811
1005.621094,10.609646,10.028412,4.324749,9.284016
1005.625000,14.576227,9.321333,8.756386,15.400674
1005.628906,14.901549,8.939617,11.605064,6.532361
1005.632812,9.190261,2.835848,5.641548,8.227693
1005.636719,1.536375,14.274076,0.546413,7.300694
1005.640625,11.624665,1.491360,5.625163,3.210741
1005.644531,1.139468,0.050988,3.906519,11.341813
1005.648438,2.756745,2.586828,-3.181107,-1.128724
1005.652344,0.142857,1.612379,-6.941472,-5.424273
1005.656250,-6.706221,-3.615016,0.294713,-4.616460
1005.660156,-3.078880,-3.027851,-6.589715,-9.753663
1005.664062,-7.357949,-10.876937,-0.875505,-13.209649
1005.667969,-11.396478,-5.503987,-11.621920,-10.067566
1005.671875,-3.875846,-8.536713,-13.837119,-12.296316
1005.675781,-2.101478,-5.612798,-4.280696,-5.638038
1005.679688,-7.008008,-9.995996,-12.632887,-5.343294
1005.683594,-8.029502,-14.712595,-7.531093,-10.669762
1005.687500,-5.976806,3.675483,-13.547867,-7.595045
1005.691406,-4.872042,-6.807472,-0.623882,-10.434791
1005.695312,-0.392895,6.156627,-11.102575,-5.878951
1005.699219,-1.454591,-2.785511,-5.987922,-6.112110
1005.703125,-1.326266,-1.397035,-1.797226,0.106279
1005.707031,7.859170,2.263874,6.327675,4.003312
1005.710938,4.544143,11.294392,7.217790,8.797415
1005.714844,6.943647,7.365038,7.532309,3.923635
1005.718750,5.367617,8.481973,17.673961,13.253833
1005.722656,18.951434,9.095062,9.518642,10.192204
1005.726562,11.614325,15.448997,8.271472,8.597606
1005.730469,13.084580,12.290322,8.837542,11.296038
1005.734375,5.800271,4.791850,4.234571,15.297147
1005.738281,8.549952,2.936061,9.163641,10.834177
1005.742188,1.574100,4.136860,-7.686601,7.108796
1005.746094,-1.149426,-1.434281,3.955574,4.105431
1005.750000,-6.904919,-1.084387,1.960639,-8.573464
1005.753906,-5.800604,-5.831988,-3.563861,-0.719907
1005.757812,-4.475820,-9.435924,-3.464795,-1.087486
1005.761719,-6.318852,3.598831,-1.117312,-8.971339
1005.765625,-0.145523,-7.550905,0.211435,-4.108992
1005.769531,-9.373225,-11.256737,-2.329092,-14.783326
1005.773438,-8.582238,-11.160413,-14.992060,-8.951492
1005.777344,-7.241345,-6.243355,-9.483087,-12.218661
1005.781250,-18.734945,-9.259559,-4.537773,-1.838657
1005.785156,-5.514682,-4.353365,-6.588703,-7.536007
1005.789062,-5.365312,-5.949349,-5.655170,-11.405520
1005.792969,-7.026516,-6.772445,-4.583335,-3.982015
1005.796875,-10.520587,-6.069683,-0.946572,-6.190343
1005.800781,1.374334,-3.145946,-6.424423,-2.251262
1005.804688,2.070859,3.751761,4.431098,5.040041
1005.808594,6.128941,2.759983,6.200054,8.647012
1005.812500,5.674979,5.015674,10.684180,5.842681
1005.816406,12.007732,15.401361,11.263495,11.845085
1005.820312,7.982456,6.831818,5.805014,5.784417
1005.824219,12.622182,7.843673,3.667422,13.480245
1005.828125,5.285781,5.447377,12.955661,8.516418
1005.832031,8.446653,13.800435,6.298266,12.840083
1005.835938,9.955977,3.086173,7.322305,5.345720
1005.839844,8.601104,10.431866,4.575790,9.777351
1005.843750,2.697897,1.457105,-1.907790,-2.522577
1005.847656,0.282395,9.692733,-1.137849,5.359760
1005.851562,-2.267883,-1.728633,-5.921557,1.312044
1005.855469,1.788960,-4.136997,-1.137146,-3.952161
1005.859375,-4.138194,-2.654268,-13.649372,-6.350527
1005.863281,-5.892610,-8.836491,-8.930566,-6.799565
1005.867188,-5.371097,-14.312465,-4.976387,-6.527445
1005.871094,-6.426976,-11.811955,-9.725181,-6.329982
1005.875000,-2.906169,-2.119459,-14.053966,-12.712416
1005.878906,-14.445137,-5.027890,-6.621246,-9.339023
1005.882812,-13.342280,-7.507631,-1.308574,-8.925118
1005.886719,-0.870362,-8.430542,-10.033825,-5.644735
1005.890625,-2.451273,-8.149246,-6.473065,-1.058815
1005.894531,-3.805625,-2.608585,-4.596393,-3.229637
1005.898438,8.532756,-3.096684,-3.585900,2.233298
1005.902344,0.521347,-1.671860,0.005858,2.539773
1005.906250,-2.172516,0.914447,7.467834,9.992931
1005.910156,-3.010688,1.333422,0.033191,1.257547
1005.914062,6.424255,8.138947,9.090907,8.017294
1005.917969,6.583391,7.012104,4.771072,12.167487
1005.921875,12.277097,5.384389,10.959059,10.638864
1005.925781,15.593645,5.479402,11.284572,8.872036
1005.929688,13.649498,8.835099,13.122287,3.207291
1005.933594,6.968900,7.597307,14.780327,8.438752
1005.937500,4.231735,6.601386,3.595585,5.026036
1005.941406,5.163561,8.616220,0.134278,5.698567
1005.945312,3.667904,1.273036,-0.271185,2.541540
1005.949219,-6.855607,4.664302,-4.780503,4.028593
1005.953125,0.030658,-4.370661,0.536330,0.716293
1005.957031,-9.734649,-3.541956,2.140773,-3.073896
1005.960938,-8.817575,-3.092388,-7.453034,-8.730729
1005.964844,-14.571255,1.681972,-8.548302,-6.742032
1005.968750,-10.016879,-8.992178,-7.177179,-10.189633
1005.972656,-9.598457,-9.669791,-9.085031,-11.225079
1005.976562,-6.966463,-15.272330,-7.684258,-5.232507
1005.980469,-5.208721,-4.409920,-11.473772,-4.549427
1005.984375,-2.483134,-13.706759,-6.521615,-13.738777
1005.988281,-11.512552,-2.232561,-8.407778,-4.700665
1005.992188,4.215930,-1.093955,-6.440557,-7.654103
1005.996094,-2.564674,-0.521574,-3.361887,-8.503226
1006.000000,-3.609560,-3.514448,-2.678653,9.768668
1006.003906,3.765021,4.282880,0.822003,2.752108
1006.007812,4.927102,1.550618,3.716918,6.911638
1006.011719,12.943166,9.800802,4.835139,1.470912
1006.015625,12.648775,9.399848,6.162755,7.253474
1006.019531,12.107963,15.315720,15.438413,4.457638
1006.023438,10.425647,8.908300,10.397098,19.421696
1006.027344,14.387544,12.853721,7.658626,14.316054
1006.031250,11.745821,12.341165,9.467392,10.472778
1006.035156,11.181153,8.603853,10.308277,9.126586
1006.039062,4.132354,9.452206,6.786325,3.859509
1006.042969,6.596332,3.587596,-7.291733,4.888487
1006.046875,2.353839,6.192070,2.635631,0.504332
1006.050781,-4.555180,-1.564311,-1.751263,-4.189281
1006.054688,-4.814786,1.500469,-1.425359,-1.096644
1006.058594,-7.460089,-6.190193,-6.436726,-4.967095
1006.062500,-4.818829,-10.074921,-9.406086,-4.760953
1006.066406,-3.453901,-3.929601,-3.744605,-6.379031
1006.070312,-8.649266,-7.849436,-12.254530,-7.232118
1006.074219,-7.611698,-1.810554,-11.134556,-3.255764
1006.078125,-13.841368,-13.345748,-11.370737,-15.045561
1006.082031,-14.205201,-5.660696,-15.866052,-7.704980
1006.085938,-7.940680,-2.557544,-5.512659,-5.135508
1006.089844,-15.404393,-7.745664,-3.667978,-9.804308
1006.093750,-2.753039,0.729365,0.827964,-2.501645
1006.097656,-2.830982,2.441201,-1.702392,-0.624110
1006.101562,0.837319,1.000696,-0.240314,3.239020
1006.105469,2.421832,4.558768,5.333450,-1.328486
1006.109375,9.836709,10.049879,-1.479218,7.506283
1006.113281,3.283627,6.569417,7.139501,5.967071
1006.117188,9.332735,13.714993,8.620220,13.410528
1006.121094,9.266771,12.658931,12.373567,4.437593
1006.125000,14.093343,11.833946,11.381614,7.016016
1006.128906,9.408811,8.903237,2.949785,9.108758
1006.132812,5.733438,13.717205,4.697025,4.461276
1006.136719,6.169595,0.182725,14.815130,4.558262
1006.140625,9.124608,8.232442,-2.749532,4.910957
1006.144531,0.608539,3.879621,3.635034,4.998266
1006.148438,-2.378873,2.620356,-1.754034,-1.776190
1006.152344,-0.227223,1.062202,-0.626172,1.853962
1006.156250,-5.876401,-5.150869,-4.556808,-11.211558
1006.160156,-10.832217,-6.460178,-2.438682,-1.054726
1006.164062,-10.077036,-6.196699,-10.583010,-5.473244
1006.167969,-12.739364,-12.499099,-8.022630,-10.608548
1006.171875,-6.300918,-5.409007,-14.171774,-12.184213
1006.175781,-10.003108,-4.583072,-13.604738,-10.244888
1006.179688,-6.539119,-8.534851,-11.175534,-4.068304
1006.183594,-4.471066,-2.332661,-6.261204,-4.561625
1006.187500,-4.709599,-7.480199,-5.129341,-2.180059
1006.191406,-11.115207,3.788461,-9.614331,2.121209
1006.195312,0.966220,-1.020604,0.825068,-7.687953
1006.199219,2.077628,-5.023851,0.648635,-4.534982
1006.203125,-2.951098,0.181683,-0.414890,1.654581
1006.207031,5.721648,3.130878,7.344500,4.598917
1006.210938,2.049561,9.849492,2.445972,17.358889
1006.214844,11.168495,12.458992,11.443243,4.027562
1006.218750,11.785333,11.688095,16.050952,8.825345
1006.222656,9.150386,12.718680,20.667723,7.261828
1006.226562,4.659264,5.067899,12.097141,7.086260
1006.230469,11.078336,11.230212,8.449390,6.287539
1006.234375,6.697345,7.673525,2.481050,6.682234
1006.238281,6.320739,5.377283,9.279589,-1.015084
1006.242188,4.967847,4.510570,8.934620,-3.366467
1006.246094,4.785679,10.297297,3.196694,1.383242
1006.250000,-2.619759,2.883024,-2.407925,-1.682311
1006.253906,-4.094193,-1.779195,-8.933576,1.120029
1006.257812,-10.103681,-2.634111,1.010472,-1.999107
1006.261719,-10.501533,-4.942309,-3.079842,-3.129744
1006.265625,-6.574039,-12.187809,-5.085919,-10.754120
1006.269531,-16.745392,-6.420378,-8.656406,-8.170899
1006.273438,-5.046895,-7.396759,-4.284232,-11.564818
1006.277344,-12.038264,-10.566273,-7.118037,-12.865564
1006.281250,-10.041994,-6.873274,-12.451115,-9.046479
1006.285156,-7.495494,-10.938230,-9.557116,-8.563805
1006.289062,-8.504955,-6.263694,-11.031611,-5.021717
1006.292969,-4.207287,-6.604292,1.671995,-0.969043
1006.296875,-1.685689,3.310281,2.404514,3.802060
1006.300781,1.719151,1.099242,1.453969,0.400986
1006.304688,0.908905,-2.310503,6.413701,3.157712
1006.308594,3.032988,1.476727,12.775905,3.189588
1006.312500,11.022307,1.146133,0.480697,10.282075
1006.316406,8.883012,8.642891,11.190739,-0.943419
1006.320312,8.352814,5.515333,8.382281,8.666086
1006.324219,12.261718,12.072441,7.904977,14.455259
1006.328125,10.388376,12.907490,11.550301,7.423091
1006.332031,16.182581,3.512993,8.251116,10.225221
1006.335938,3.453765,5.912245,5.052203,3.125533
1006.339844,9.275180,6.797166,5.602130,0.912235
1006.343750,-1.671540,5.523432,0.561655,4.748329
1006.347656,9.800545,-1.312673,-3.533441,-4.932436
1006.351562,0.722831,3.552302,-0.346368,7.639552
1006.355469,-2.912438,-3.635674,-1.475765,-2.475987
1006.359375,0.454107,-8.110955,-4.965926,-3.698298
1006.363281,-3.605637,-2.791684,-7.135085,-9.777168
1006.367188,-10.097365,-8.327805,-6.104755,-14.696723
1006.371094,-9.257042,-4.891224,-7.871797,-17.173840
1006.375000,-14.877972,-12.122540,-12.363542,-9.797182
1006.378906,-8.143233,-11.565517,-11.544951,-2.210480
1006.382812,0.817395,-1.962498,-6.468481,-7.113321
1006.386719,-5.019357,-13.076371,-4.985252,-7.878930
1006.390625,-1.343902,-7.908277,-2.978835,-1.023199
1006.394531,-3.227444,1.401164,-7.611335,-0.282143
1006.398438,-3.528537,10.303395,-5.716196,4.994288
1006.402344,-0.115762,6.375316,6.737372,5.737433
1006.406250,6.278258,12.126316,9.432096,8.608915
1006.410156,12.048101,5.139352,1.439760,8.537821
1006.414062,7.415327,9.822461,-0.305831,8.440054
1006.417969,10.772517,12.230656,10.873758,6.408868
1006.421875,13.388685,7.512807,6.845217,15.484284
1006.425781,4.870491,7.938903,4.698339,10.890154
1006.429688,10.324468,13.269154,6.419267,16.267029
1006.433594,9.485246,11.656164,11.974354,7.924814
1006.437500,3.860469,12.714214,6.803676,8.075232
1006.441406,9.599734,6.331860,0.393251,3.694385
1006.445312,2.737555,8.832136,4.519269,4.114862
1006.449219,0.781519,0.054192,-5.927105,3.527986
1006.453125,0.935174,-1.331989,-1.286681,2.529967
1006.457031,-7.323258,-5.811787,0.235866,-0.561458
1006.460938,-3.673949,-6.668974,-13.348528,-9.129819
1006.464844,-8.321500,-8.787329,-4.719921,-10.715344
1006.468750,-17.231987,-14.814015,-13.551467,-9.132116
1006.472656,-10.960353,-11.069716,-9.374290,-10.192375
1006.476562,-9.438876,-9.346747,-9.464676,-11.015139
1006.480469,-15.361513,-6.317929,-12.351799,-7.208523
1006.484375,-2.197692,-13.794947,-7.375487,-8.118103
1006.488281,-7.556030,-7.872843,-2.611549,-7.810669
1006.492188,-12.976203,-3.142650,-12.037449,-9.538902
1006.496094,-3.828188,3.066507,3.680396,-4.709087
1006.500000,-1.158257,2.009914,2.400158,-4.281861
1006.503906,-2.802853,3.857641,8.660683,7.132273
1006.507812,2.152662,2.577490,4.480985,5.425132
1006.511719,14.347313,4.402203,5.097614,5.258702
1006.515625,9.301346,12.191138,18.574720,17.028785
1006.519531,4.073356,12.486610,10.103069,10.026762
1006.523438,4.884262,15.948287,12.867080,11.237649
1006.527344,14.036431,8.794391,8.612109,5.123090
1006.531250,10.776204,9.799786,12.667861,8.040410
1006.535156,10.220182,16.084067,8.160670,6.943482
1006.539062,5.098207,3.706620,2.637765,5.315406
1006.542969,1.216174,6.853312,6.358383,3.623220
1006.546875,1.322726,1.689663,0.985165,0.984491
1006.550781,-6.392244,-3.007232,-1.206428,0.643564
1006.554688,2.500154,-1.234581,-7.045283,-10.460144
1006.558594,-1.333224,-7.583476,-11.115024,-3.912302
1006.562500,-11.693231,-8.119817,-1.640187,-8.795359
1006.566406,-13.232495,-14.119712,-7.366402,-9.023964
1006.570312,-9.772636,-8.282480,-9.869025,-12.054079
1006.574219,-2.275563,-5.320400,-11.050454,-4.649964
1006.578125,-11.523258,-0.376733,-11.368463,-9.988903
1006.582031,-5.526477,-11.192288,-4.877078,-8.210763
1006.585938,-10.757446,-4.394783,-9.907689,-12.531405
1006.589844,-8.360855,-8.266816,-5.310282,-11.693970
1006.593750,0.387832,0.896824,-3.322372,-1.877052
1006.597656,1.615572,4.149314,-3.211264,1.009753
1006.601562,2.295466,3.987202,-5.087236,3.017974
1006.605469,3.075835,3.811802,4.884832,4.567084
1006.609375,-1.827512,9.614744,-0.574183,8.857521
1006.613281,12.563916,8.008465,8.385372,3.908018
1006.617188,8.662236,8.772024,9.569090,12.972609
1006.621094,7.901723,3.389903,9.583498,14.087005
1006.625000,5.554671,8.583850,12.564590,10.522802
1006.628906,12.454041,1.896434,1.546295,13.422024
1006.632812,10.790754,8.958154,2.256514,11.706765
1006.636719,14.954580,11.573943,10.834983,1.130424
1006.640625,5.961092,-0.637212,6.413917,0.304335
1006.644531,6.278550,1.686304,9.091887,2.871881
1006.648438,0.537293,3.886228,10.801170,-2.534245
1006.652344,-4.833488,3.108600,-5.991497,1.474318
1006.656250,-4.636428,-3.801258,-1.077609,2.252803
1006.660156,-4.780297,-1.002024,-2.963297,-0.036156
1006.664062,-10.803615,-5.462618,-5.464832,-8.808730
1006.667969,-10.050729,-15.325211,-5.643938,-6.348910
1006.671875,-10.826632,-6.534912,-1.898520,-12.401218
1006.675781,-15.004449,-13.807060,-8.033003,-6.240290
1006.679688,-7.779688,-12.593827,-12.441581,-12.482939
1006.683594,-8.318536,-11.060374,-8.738387,-7.812705
1006.687500,-11.028199,-9.481866,-6.273371,-3.201283
1006.691406,-1.217552,-7.146260,-7.529460,-1.748038
1006.695312,-1.152340,-8.359458,5.010180,1.478609
1006.699219,3.719730,-10.447272,-0.165894,1.495820
1006.703125,8.296062,8.010029,-4.834334,5.015519
1006.707031,7.213325,5.482226,7.183290,1.365503
1006.710938,1.754845,12.203995,2.244815,5.978731
1006.714844,3.855923,12.698260,20.067534,9.111967
1006.718750,13.934526,11.762351,12.295204,8.222401
1006.722656,1.703472,11.874981,11.706154,6.319945
1006.726562,3.891986,7.425301,11.450206,9.187264
1006.730469,14.518666,9.221901,11.168353,11.135807
1006.734375,8.658467,12.390675,8.744734,13.722964
1006.738281,11.073487,7.112946,5.973954,0.264322
1006.742188,-3.505825,2.736785,-0.310398,5.642952
1006.746094,5.326016,-0.176932,3.293084,3.585929
1006.750000,-4.632077,-0.137461,3.855453,0.678763
1006.753906,0.973471,-3.307958,-4.730230,-1.779942
1006.757812,-6.099738,-5.944213,-9.777353,-7.943581
1006.761719,-4.042519,-5.500332,-2.807634,-10.910570
1006.765625,-8.729179,-2.064962,-6.805833,-11.279193
1006.769531,-10.332459,-12.088272,-1.550667,-7.115184
1006.773438,-16.814993,-11.666609,-11.813956,-3.221686
1006.777344,-9.565146,-10.998854,-14.349953,-13.933972
1006.781250,-13.289508,-7.852251,-12.151539,-11.629219
1006.785156,-3.457094,-4.419300,-2.800067,-2.981084
1006.789062,-2.185969,0.827214,-9.872398,-11.712723
1006.792969,-4.947451,-5.079576,-2.018420,-2.427539
1006.796875,1.693654,-2.606953,1.580140,-2.725508
1006.800781,-1.340047,8.511483,5.604317,-6.720086
1006.804688,10.475763,4.988051,-2.321795,6.854627
1006.808594,8.725220,8.607535,11.100661,5.972484
1006.812500,15.587312,9.989562,9.937604,6.753186
1006.816406,9.332014,6.857827,5.104923,14.603408
1006.820312,9.860663,10.245938,4.417472,10.492842
1006.824219,15.890216,9.936551,5.403967,8.289108
1006.828125,2.925028,10.096961,12.133404,8.314667
1006.832031,6.174848,7.227132,16.787891,2.124491
1006.835938,14.770093,3.439179,5.864231,14.546564
1006.839844,9.794282,7.181802,7.950697,13.065525
1006.843750,6.509222,1.673167,3.018556,3.461054
1006.847656,-1.027603,-0.250926,4.258989,-2.709638
1006.851562,1.272785,0.055713,1.410099,2.059631
1006.855469,-5.579755,-3.575480,-5.255983,-2.039403
1006.859375,-0.346237,-9.884226,0.534228,-3.292479
1006.863281,-2.201616,-11.980974,-1.349681,-7.855030
1006.867188,-5.057007,-7.020951,-11.582055,-8.295306
1006.871094,2.338413,-7.025730,-10.942086,-11.884287
1006.875000,-7.944797,-11.287086,-14.222613,-6.145007
1006.878906,-3.581478,-2.752623,-1.625962,-12.484660
1006.882812,-14.448595,-5.679087,-7.976842,-8.400098
1006.886719,-3.667387,-4.648628,-2.903045,-7.023276
1006.890625,-5.468416,-0.977179,-11.275845,-5.116240
1006.894531,-2.926592,-2.930031,-2.507988,2.777592
1006.898438,2.558661,-1.015247,-5.484141,-2.706073
1006.902344,2.748998,3.721998,0.871777,0.868612
1006.906250,-2.857533,4.230956,7.476779,0.973903
1006.910156,-0.511081,7.946381,4.928156,8.192883
1006.914062,15.993545,8.588803,0.423477,8.035993
1006.917969,11.438914,12.458903,13.433802,10.477731
1006.921875,13.100739,16.330655,3.834725,11.125510
1006.925781,5.946697,7.342878,12.659826,18.447659
1006.929688,11.103845,12.939054,14.034183,10.452142
1006.933594,11.806621,7.719638,12.636400,8.037155
1006.937500,8.450449,7.677354,0.986007,5.498153
1006.941406,10.747670,3.476637,10.581978,4.652496
1006.945312,6.601348,-1.762550,2.169041,9.024758
1006.949219,3.943189,0.874759,-1.676325,-0.748117
1006.953125,-2.052254,2.118911,-0.925697,2.561996
1006.957031,-1.145988,-1.962167,-5.275696,-15.006258
1006.960938,-3.399845,-0.552022,-9.512496,-7.068711
1006.964844,-13.700834,-9.115721,-8.326558,-14.778764
1006.968750,-2.840129,-12.295766,-8.221491,-8.488101
1006.972656,-18.201044,-6.599580,-3.081086,-12.194456
1006.976562,-10.578636,-14.009869,-7.215296,-5.479661
1006.980469,-7.662054,-16.599870,-13.041814,-12.273077
1006.984375,-8.366077,-6.831885,-7.668830,-13.827655
1006.988281,-2.191620,-2.301796,-9.533691,-0.537290
1006.992188,-4.326701,-0.947058,-4.223070,0.901374
1006.996094,1.327790,-5.090060,-4.023677,-2.194524
1007.000000,6.590654,-1.691769,4.924240,5.470869
1007.003906,5.415414,-0.696849,13.402693,-2.064892
1007.007812,2.447318,4.354150,5.054713,3.403918
1007.011719,10.398080,3.983987,3.542604,4.060991
1007.015625,1.469135,9.688550,14.109264,7.853480
1007.019531,8.603707,3.238495,15.611285,9.732430
1007.023438,18.341367,-2.746699,12.152963,7.076121
1007.027344,6.993040,15.246294,7.476822,9.230382
1007.031250,6.494571,13.112273,9.651033,8.135004
1007.035156,12.445580,10.560229,8.997746,8.760876
1007.039062,6.386934,9.538669,6.059427,6.055066
1007.042969,11.322869,7.531217,0.068195,13.249798
1007.046875,0.747571,-5.905096,0.987279,4.182516
1007.050781,-4.357735,0.634296,2.196531,-0.177192
1007.054688,1.334188,6.477355,0.939132,-2.623513
1007.058594,-3.191539,-11.233087,-5.890502,-11.314398
1007.062500,-6.670536,3.563856,-9.758830,-11.093517
1007.066406,-14.490207,-12.166761,-7.526681,-13.026528
1007.070312,-4.447044,-5.544942,-14.478017,-12.403683
1007.074219,-13.667203,-15.455160,-13.478617,-16.286156
1007.078125,-10.474266,-7.281601,-9.428000,-10.456497
1007.082031,-9.325094,-13.516180,-0.842247,-9.480753
1007.085938,-11.394227,-9.635245,-9.088632,-3.332937
1007.089844,-6.539022,-13.386186,-11.925809,-5.320446
1007.093750,-4.300488,-2.094358,-6.079331,-5.102897
1007.097656,1.379956,2.992253,-4.042616,4.090947
1007.101562,-8.647755,2.295122,0.109063,-2.723183
1007.105469,4.125830,8.404706,3.859947,0.323866
1007.109375,5.330504,6.204453,6.305192,7.341249
1007.113281,8.498276,10.747347,5.985771,5.417611
1007.117188,9.215094,8.639450,4.407878,9.285324
1007.121094,15.323801,13.527682,9.270754,5.662620
1007.125000,10.237858,10.047209,14.242177,11.784692
1007.128906,11.175803,9.088430,6.233184,7.603416
1007.132812,17.191355,9.651173,4.950032,15.246465
1007.136719,13.382755,9.167006,14.204633,8.803113
1007.140625,2.404658,6.082603,8.141927,-1.469777
1007.144531,5.317556,0.348576,2.744316,2.388079
1007.148438,0.718429,3.229527,-0.639938,-2.044690
1007.152344,2.486542,-10.777368,-3.687842,-4.764244
1007.156250,-1.578301,-7.943184,0.144930,-7.390136
1007.160156,-8.977426,-0.245829,-1.376500,-6.596244
1007.164062,-9.100865,-10.053410,-2.578626,-4.662962
1007.167969,-1.635896,-10.890789,-7.368081,-6.240288
1007.171875,-10.028676,-11.456848,-5.607908,-13.121402
1007.175781,-7.273923,-15.277335,-8.309781,-11.916809
1007.179688,-8.965706,-10.904820,-6.715985,-13.085620
1007.183594,-6.302135,-6.824923,-13.182736,-8.870136
1007.187500,-4.592883,-8.237587,-6.536712,-7.741651
1007.191406,0.383960,-8.958520,0.044199,-6.596644
1007.195312,-1.053439,-4.236626,-3.926449,-8.367557
1007.199219,-1.572498,-5.071489,3.493200,0.650550
1007.203125,4.061081,2.529478,2.831401,-0.987385
1007.207031,7.343844,1.637142,5.421059,-4.135427
1007.210938,4.154611,9.888483,4.165897,2.567486
1007.214844,6.036912,2.493628,7.592479,5.458668
1007.218750,6.313107,15.040307,5.832325,5.119248
1007.222656,13.897587,13.175572,11.727727,7.651463
1007.226562,9.822190,7.061178,9.427399,18.193718
1007.230469,12.574328,8.231738,11.289132,11.320971
1007.234375,-0.044597,7.722158,4.095910,5.652890
1007.238281,4.876248,2.079359,2.197103,18.021637
1007.242188,0.903619,4.584993,7.757208,-0.377340
1007.246094,4.023677,-3.926033,-1.820562,2.442111
1007.250000,-4.329863,0.873416,-0.455969,-4.363205
1007.253906,-2.201884,-3.322064,-3.713551,-5.454400
1007.257812,2.046993,-2.428866,-5.097166,-1.662628
1007.261719,0.891304,-8.082593,-10.446679,-9.426183
1007.265625,-2.967689,-4.300626,-10.511625,-3.700084
1007.269531,-10.044310,-15.538005,-8.794621,-5.423806
1007.273438,-14.536488,-14.310187,-4.752640,-8.887912
1007.277344,-10.736190,-6.576391,-10.841652,-10.213263
1007.281250,-10.579209,-3.585255,-7.782770,-11.853492
1007.285156,-12.814847,-10.204852,-12.938130,-2.033701
1007.289062,0.527031,-4.710448,-5.892783,-3.444759
1007.292969,-2.277519,-11.879778,-3.607701,-4.342435
1007.296875,2.246215,-0.896318,-8.646382,-5.244094
1007.300781,-0.445642,-1.527886,0.252069,2.740791
1007.304688,1.771301,10.161937,4.158709,3.090785
1007.308594,6.482954,5.869443,6.198871,8.896911
1007.312500,3.511661,1.542891,4.341394,7.062544
1007.316406,10.214179,11.473737,8.452864,5.046755
1007.320312,12.420953,12.740926,7.932976,12.801635
1007.324219,5.888083,17.690629,8.038864,14.573387
1007.328125,2.005501,13.289464,5.234108,6.540975
1007.332031,10.140838,4.438024,8.786640,3.891201
1007.335938,3.575180,10.400899,10.267911,11.988491
1007.339844,2.228138,9.311217,12.332392,0.293301
1007.343750,5.188465,1.862963,10.027077,0.566802
1007.347656,-7.633010,-2.350595,0.619735,0.994443
1007.351562,-9.138943,5.967315,2.935123,-4.557099
1007.355469,-0.506410,-1.421047,-1.200535,-4.894501
1007.359375,-11.457749,-12.522323,-4.957776,-6.237945
1007.363281,-10.724830,-8.605983,-13.316203,-5.049028
1007.367188,1.272017,-5.792551,-15.210376,-7.189333
1007.371094,-9.835120,-10.860719,-9.448964,-9.381902
1007.375000,-14.435094,-6.024255,-7.102654,-6.897126
1007.378906,-9.934786,-12.723469,-13.598737,-14.424656
1007.382812,-9.630067,-10.101466,-8.188115,-5.109688
1007.386719,-6.514726,-6.499778,-2.124557,-3.386764
1007.390625,-4.376748,-6.232023,-6.840343,-11.140758
1007.394531,1.368909,-0.848985,-1.128628,2.582426
1007.398438,5.754693,-5.779029,4.363034,7.978557
1007.402344,5.005789,2.144502,-6.943603,4.606664
1007.406250,7.160764,1.929887,2.068614,4.779070
1007.410156,5.274130,4.159509,-2.691745,3.965424
1007.414062,6.787325,2.265331,4.749938,8.449760
1007.417969,7.841478,11.327408,13.586653,8.800155
1007.421875,6.409777,9.671945,17.365060,3.159018
1007.425781,13.301058,14.534367,14.111778,12.503644
1007.429688,-0.104791,10.613663,9.935606,16.313823
1007.433594,4.834066,15.167453,14.492510,1.261963
1007.437500,6.798977,14.874171,6.244101,6.099461
1007.441406,-4.596838,2.124578,-1.330888,4.687321
1007.445312,5.346063,5.658608,5.132276,3.094763
1007.449219,-4.285751,-5.443868,1.766031,3.233011
1007.453125,-5.512877,-0.539603,1.175187,-2.851807
1007.457031,-0.064387,-5.635534,-12.014853,-4.759512
1007.460938,-2.178343,-13.805161,-6.556917,-6.081581
1007.464844,-5.987874,-4.817749,0.523306,-6.638710
1007.468750,-6.387042,-10.985966,-1.854167,-5.222529
1007.472656,-3.546985,-9.780626,-8.541839,-15.749602
1007.476562,-8.938367,-8.151193,-7.811214,-14.129032
1007.480469,-17.472281,-12.377183,-14.447786,-12.276897
1007.484375,-9.238290,-6.003493,-8.535732,-9.096766
1007.488281,-5.381943,-9.024479,-5.928134,-5.642023
1007.492188,-4.422747,-3.032460,-3.390608,-0.865537
1007.496094,-0.481778,3.587841,6.000484,1.319325
1007.500000,-4.691505,-0.830001,4.484015,-6.429998
1007.503906,-1.497079,3.571574,14.189641,-2.150921
1007.507812,8.098551,6.458142,5.696768,-0.049687
1007.511719,5.612135,7.424435,0.129647,11.709451
1007.515625,7.832405,4.067585,13.239539,17.640514
1007.519531,6.594393,13.037918,5.622737,6.018449
1007.523438,17.274998,12.982572,7.492470,11.473965
1007.527344,7.348408,12.532598,10.078801,17.609766
1007.531250,6.283836,9.464413,13.752153,16.585486
1007.535156,4.690730,7.067543,15.894996,11.177682
1007.539062,7.613160,3.527823,-0.110759,-3.784821
1007.542969,4.757593,5.442344,2.839721,2.429076
1007.546875,-4.781151,1.808667,0.287301,7.448088
1007.550781,0.237005,5.378613,-2.529181,5.610267
1007.554688,0.153550,-0.683834,5.221508,3.484684
1007.558594,-6.976748,2.423463,-20.343960,-5.599722
1007.562500,-8.219902,-4.154432,-7.513416,-6.188794
1007.566406,-3.329107,-7.244170,-3.862452,-5.646049
1007.570312,-11.555258,-5.356574,-5.018528,-20.654634
1007.574219,-6.022864,-10.308562,-12.658616,-6.148610
1007.578125,-6.487572,-7.172534,-10.559226,-6.365862
1007.582031,-10.029975,-9.510698,-1.401799,-19.001824
1007.585938,-6.207044,-0.812415,-10.287495,-4.398136
1007.589844,-10.085796,-11.473769,-6.758464,-4.926880
1007.593750,-7.763349,-2.092053,2.623491,-0.972064
1007.597656,-1.553246,2.383028,5.218257,0.877082
1007.601562,0.075467,-1.935913,-3.377168,3.759576
1007.605469,-0.403444,2.349640,7.307672,6.854115
1007.609375,9.104861,2.348363,-1.651452,8.520180
1007.613281,9.144531,9.432909,0.957570,2.823561
1007.617188,4.422544,9.359148,14.066602,7.460136
1007.621094,14.144173,7.573087,7.108743,16.428562
1007.625000,11.057872,6.444293,10.237763,6.178869
1007.628906,9.555789,6.483374,11.042420,5.097414
1007.632812,8.354980,2.083828,3.069807,8.649343
1007.636719,11.231356,1.853502,4.966072,4.184496
1007.640625,10.794704,5.588187,10.793435,2.875122
1007.644531,3.798345,8.435489,-3.809107,8.471555
1007.648438,2.569841,3.099002,2.001835,8.834650
1007.652344,1.618977,2.379936,-5.316982,0.685869
1007.656250,1.486699,-2.823194,-3.315185,-6.652318
1007.660156,-14.788072,-5.966786,-4.414299,-5.730452
1007.664062,-10.741039,-6.191599,-9.297967,-10.223413
1007.667969,-15.879828,-5.884105,-8.343996,-7.109782
1007.671875,-10.149264,-8.370617,-16.963437,-6.479586
1007.675781,-10.509024,-14.570169,-4.313814,-13.265756
1007.679688,-12.904596,-9.630672,-13.782642,-9.057150
1007.683594,-14.365048,-6.824293,-10.425777,-2.521651
1007.687500,-3.866892,-0.496604,2.289394,-1.004016
1007.691406,-6.877318,-4.040943,-6.401972,-11.048261
1007.695312,-7.628448,4.532702,0.961204,-7.550398
1007.699219,-1.747322,6.008862,-1.347285,3.636793
1007.703125,0.960143,0.672537,4.003768,2.623292
1007.707031,6.731979,11.061035,1.645802,-1.456481
1007.710938,2.455732,2.722333,2.950770,-1.128079
1007.714844,11.240069,4.119652,14.733688,7.350920
1007.718750,17.383412,13.536464,1.904158,7.089399
1007.722656,6.687884,9.941089,4.985455,12.022955
1007.726562,8.064954,9.899174,7.456685,8.477099
1007.730469,8.831329,10.176634,7.596104,14.951478
1007.734375,12.420276,11.309224,7.084228,9.552752
1007.738281,6.391683,0.975089,3.372949,1.749217
1007.742188,-2.320559,9.754762,5.645803,11.008808
1007.746094,-1.468813,-1.985688,-2.331986,1.531296
1007.750000,7.129425,-0.508202,-4.544832,0.938499
1007.753906,-7.079156,1.498623,-0.750248,0.407286
1007.757812,-7.519127,-6.482722,-0.784254,-5.273716
1007.761719,-4.199657,-12.439517,-3.183538,-12.437277
1007.765625,-12.290981,-8.345216,-14.049289,-4.846398
1007.769531,-1.455139,-13.061357,-15.233132,-5.252515
1007.773438,-11.351939,-6.271083,-10.251313,-11.793757
1007.777344,-9.991605,-3.512989,-13.138132,-8.022152
1007.781250,-9.990193,-11.059843,-18.080238,-7.923652
1007.785156,-6.653336,-8.731707,-7.536324,-6.536659
1007.789062,-0.563821,-7.521615,-14.086650,-4.787492
1007.792969,0.442026,-8.521162,-10.874617,-8.167710
1007.796875,1.042627,-2.992658,4.446787,0.500084
1007.800781,-1.156562,2.616835,8.290640,-1.555871
1007.804688,5.091860,-7.832367,6.862949,5.748167
1007.808594,5.993748,6.144629,8.341903,3.581611
1007.812500,12.899828,12.708147,8.273271,13.472537
1007.816406,11.538568,14.800272,6.267292,10.644373
1007.820312,13.733243,13.984485,13.390723,8.256856
1007.824219,3.851164,11.190463,4.091846,19.429697
1007.828125,3.172335,10.455319,9.302167,12.718764
1007.832031,10.969498,8.438324,12.292347,3.393908
1007.835938,6.241609,3.591775,5.159820,6.369256
1007.839844,11.679632,-1.273577,3.657901,1.782675
1007.843750,-3.568849,6.525306,2.966157,4.095439
1007.847656,2.008986,-1.376734,2.448148,2.196567
1007.851562,-2.446688,-0.101811,-0.052453,-7.209351
1007.855469,-8.354967,-8.041592,1.274554,1.018375
1007.859375,-4.744560,-8.453930,-9.470016,-3.499468
1007.863281,-4.884107,-8.541561,-2.101110,-14.127172
1007.867188,-10.215331,-13.570545,-10.651667,-3.872503
1007.871094,-5.938982,-13.614590,-8.378004,-15.480680
1007.875000,-10.662551,-13.128087,-14.698163,-8.313554
1007.878906,-13.229733,-12.274455,-12.357618,-8.509207
1007.882812,-9.380825,-13.656269,-9.189682,-10.435781
1007.886719,-3.641900,-7.659252,-2.632849,-8.738773
1007.890625,-2.052700,-3.669990,-4.073540,-8.368871
1007.894531,-2.101460,-1.852908,-3.619317,-4.319106
1007.898438,-3.053172,-3.407239,0.281796,-1.289484
1007.902344,3.703307,-1.754570,1.944923,0.050071
1007.906250,-2.839652,7.255483,5.601018,-2.327680
1007.910156,7.276583,3.822342,9.339910,22.201210
1007.914062,7.348403,12.030631,5.628161,11.849219
1007.917969,-1.103179,5.731522,7.683921,14.525274
1007.921875,8.620869,15.097500,14.266882,7.029584
1007.925781,10.753055,5.038736,6.345273,16.112074
1007.929688,11.980964,11.073910,13.176612,5.537487
1007.933594,9.087593,4.872109,14.388171,3.700258
1007.937500,10.922369,3.965684,12.510088,-0.232499
1007.941406,6.874459,3.498254,0.825898,4.280109
1007.945312,0.107415,-1.385045,5.074478,-1.242854
1007.949219,0.796652,7.524269,0.422552,0.285507
1007.953125,-6.473102,-0.422737,-4.515983,7.451824
1007.957031,-6.039852,-4.417323,-2.343077,-5.451282
1007.960938,-11.460974,-5.237557,-9.276298,-1.871120
1007.964844,-1.439916,-7.839729,-10.404296,-8.162697
1007.968750,-7.203795,-3.546195,-8.063318,-8.579916
1007.972656,-10.870481,-14.830469,-5.973295,-10.975518
1007.976562,-2.699299,-22.527437,-17.386121,-6.716381
1007.980469,0.483822,-20.704923,-11.212595,-14.611307
1007.984375,-9.455740,-11.981560,-6.587195,-2.101102
1007.988281,-3.226915,-8.194399,-4.776056,-14.787889
1007.992188,-8.415724,-7.003490,-6.566596,-7.290758
1007.996094,0.248755,0.363217,-3.652419,-3.164290
1008.000000,-4.383951,-2.578419,-5.286148,-5.213606
1008.003906,7.135259,-2.733302,-0.379436,7.310219
1008.007812,2.352036,2.047161,11.301490,1.050851
1008.011719,10.967855,4.653926,-3.400813,3.274569
1008.015625,7.851794,11.245438,5.157679,5.322520
1008.019531,8.619144,12.314720,5.977195,12.359050
1008.023438,5.929073,12.874429,7.299298,10.225177
1008.027344,18.576306,9.019160,12.515668,8.629169
1008.031250,12.294311,6.287060,8.393004,14.485064
1008.035156,6.261776,7.439874,15.949670,1.023075
1008.039062,6.156072,5.205751,13.298452,4.403097
1008.042969,2.029948,3.013468,1.216864,8.258660
1008.046875,6.714054,-1.079169,-0.399615,-2.617920
1008.050781,-2.808748,-9.734112,6.691456,-0.470385
1008.054688,-6.849846,-4.103484,-2.394861,-1.053748
1008.058594,-1.978402,-2.586740,-10.589744,-3.518599
1008.062500,-5.918517,-12.033984,-13.904407,1.030005
1008.066406,-4.389263,-6.209630,-12.858998,-11.426626
1008.070312,-11.969405,-8.942323,-6.468708,-15.647858
1008.074219,-9.412566,-15.209181,-3.803567,-14.946539
1008.078125,-12.325098,-7.470808,-6.936886,-14.252283
1008.082031,-15.580207,0.526227,-9.697510,-12.721741
1008.085938,-10.877378,-4.157842,-1.327181,-1.835331
1008.089844,-2.132182,0.775633,0.594896,-2.340033
1008.093750,-5.346857,-9.444403,-5.030131,-1.058676
1008.097656,-7.095915,0.133887,-1.592942,0.543545
1008.101562,0.639001,1.614773,0.706317,2.842753
1008.105469,5.259348,2.970698,1.636469,2.604676
1008.109375,5.352008,10.374332,5.839653,6.027535
1008.113281,7.227412,5.961940,4.089487,9.950077
1008.117188,8.914378,6.130978,6.878564,13.092050
1008.121094,8.969275,3.335958,1.439456,6.097115
1008.125000,3.437850,8.658517,2.466412,6.836479
1008.128906,12.222476,-0.881321,7.390866,11.049579
1008.132812,9.162689,8.177905,11.435434,2.946139
1008.136719,2.456003,11.575803,9.097445,10.461905
1008.140625,2.394371,3.085672,12.622759,5.582374
1008.144531,-5.094013,4.608660,4.427444,0.820282
1008.148438,2.234247,-4.302080,-6.433180,-3.775542
1008.152344,3.171284,-4.511671,-0.580118,2.123125
1008.156250,-2.676423,-10.127661,-5.616237,-5.433727
1008.160156,-5.571816,-7.194662,-12.031571,-9.337059
1008.164062,-14.867136,-1.970340,-10.350870,-6.092331
1008.167969,-1.193841,-12.935650,-14.083709,-0.336835
1008.171875,-8.586284,-7.476796,-7.435128,-13.723648
1008.175781,-7.743771,-11.897216,-6.318208,-5.232724
1008.179688,-7.048108,-7.496670,-12.651495,-11.604118
1008.183594,-7.831693,-5.925947,-5.745453,-2.234854
1008.187500,-6.603944,-2.291695,-7.475849,1.254320
1008.191406,-9.353325,-5.698970,-2.062633,-4.772237
1008.195312,5.593515,6.649313,-0.250804,1.178895
1008.199219,-7.385617,-5.413986,-0.865278,5.102825
1008.203125,-4.747302,1.945959,1.589973,0.689088
1008.207031,4.405540,2.556261,10.619558,2.313450
1008.210938,8.680563,2.523893,10.275443,11.730457
1008.214844,8.460103,6.902814,7.823953,11.726705
1008.218750,5.422658,8.876761,16.255073,-0.647757
1008.222656,12.538307,11.512273,6.347230,7.950644
1008.226562,5.691929,10.349873,15.829946,10.292531
1008.230469,6.272253,7.692122,6.434905,18.961072
1008.234375,14.375291,8.791385,12.064209,3.978825
1008.238281,9.075643,8.111209,14.856397,13.148299
1008.242188,5.675354,4.267889,10.450169,5.819963
1008.246094,-2.366818,6.015720,0.708335,7.954930
1008.250000,1.081573,-2.333551,-6.243282,-0.246609
1008.253906,-0.467615,-4.457546,-7.704997,7.865948
1008.257812,-4.399087,-4.277053,-2.243654,-7.249225
1008.261719,-6.088454,-12.428972,-16.803229,-1.512617
1008.265625,-12.889140,-8.921804,-7.716624,-9.156377
1008.269531,-3.046154,-5.003432,-14.740916,-2.886290
1008.273438,-4.894565,-1.236026,-15.209111,-14.210948
1008.277344,-8.699365,-4.655099,-7.609005,-10.608455
1008.281250,-9.750252,-9.043989,-15.123992,-10.098105
1008.285156,-13.622918,-16.310845,-4.754594,-12.624535
1008.289062,-6.113033,-12.050414,-9.944670,-9.021232
1008.292969,-3.519051,-6.139660,-5.778955,-6.339955
1008.296875,-1.973114,-0.772360,-9.032375,-5.696328
1008.300781,-0.757116,1.437748,-4.902236,-0.843794
1008.304688,6.173723,3.485226,-2.653808,-1.827277
1008.308594,9.863913,14.534789,8.138796,6.199637
1008.312500,8.132548,12.826502,7.368210,13.719849
1008.316406,7.696509,0.213215,11.384260,13.223101
1008.320312,8.968276,4.203572,12.837637,6.390516
1008.324219,2.276576,12.521497,10.921561,9.144207
1008.328125,10.077511,6.915264,6.864930,1.260270
1008.332031,6.328551,9.239574,9.677301,-0.196774
1008.335938,8.732392,9.492739,8.160704,6.446215
1008.339844,6.488543,8.697999,7.469855,1.623968
1008.343750,4.052718,0.351311,-2.470736,-3.025454
1008.347656,7.655999,-1.148033,-2.900234,0.761285
1008.351562,1.448350,2.234200,-7.537005,3.948564
1008.355469,-6.602294,-5.918851,-7.582887,-4.764671
1008.359375,-5.093601,-5.919812,-3.352599,-9.382017
1008.363281,-11.233276,-11.069147,-11.290417,-4.460591
1008.367188,-7.435688,-6.583878,-3.312051,-14.712411
1008.371094,-3.382031,-13.592787,-11.067333,-6.883542
1008.375000,-9.754988,-9.196903,-14.420665,-14.960338
1008.378906,-7.851839,-5.095403,-6.445082,-9.840651
1008.382812,-4.677235,-10.422683,-8.482100,-3.975582
1008.386719,-10.963382,-13.169198,-8.034484,0.894829
1008.390625,-12.207542,-3.453386,-5.357801,-8.542277
1008.394531,-3.909765,-4.317977,-5.014291,2.851852
1008.398438,3.523812,-2.392877,-1.602478,-5.318065
1008.402344,7.394264,-0.663641,0.425843,5.234023
1008.406250,8.316774,3.940625,2.115400,2.496751
1008.410156,3.515825,8.754610,7.226992,12.424436
1008.414062,11.838900,15.632173,7.802804,5.409459
1008.417969,13.428140,12.357134,9.345357,6.290084
1008.421875,7.554956,11.625377,9.309146,5.491098
1008.425781,6.482431,12.152674,8.420118,10.019781
1008.429688,12.908775,10.612219,11.521547,12.995167
1008.433594,1.016374,5.664069,3.408551,8.660172
1008.437500,7.618823,7.609063,7.582618,5.960245
1008.441406,2.607529,4.807115,4.277894,4.506671
1008.445312,2.285302,-0.311162,4.255760,-2.807478
1008.449219,-1.171358,5.050603,-4.941141,2.520444
1008.453125,-0.576389,-5.153090,-1.322662,-1.174732
1008.457031,0.402945,-6.258999,-0.930855,-9.501000
1008.460938,-10.849952,-6.997053,-13.764297,-7.295744
1008.464844,-16.871856,-2.191923,-7.640528,-12.172891
1008.468750,-5.625808,-5.533665,-12.348293,-9.587202
1008.472656,-9.440709,-11.412600,-11.275874,-11.732446
1008.476562,-9.626090,-10.954438,-15.059275,-10.653136
1008.480469,-10.964959,-5.323638,-7.781551,-11.620000
1008.484375,-9.730330,-7.676978,-9.601050,-2.594203
1008.488281,-11.860170,-7.178923,-10.434608,-1.826791
1008.492188,0.645909,-8.491399,-12.443139,0.354934
1008.496094,-1.868361,-4.571767,-4.823195,5.400848
1008.500000,-1.433453,1.036137,4.480249,3.869724
1008.503906,-1.191442,-0.446718,8.407237,0.913306
1008.507812,6.749197,5.566515,3.535719,4.470270
1008.511719,0.235620,-2.447553,1.196163,5.907947
1008.515625,6.355428,5.133491,0.876654,10.698202
1008.519531,9.238161,12.800658,9.577483,11.295301
1008.523438,13.062423,5.123258,6.342894,8.022195
1008.527344,11.895320,13.051574,11.212789,7.477852
1008.531250,11.314633,8.889655,6.623776,8.327383
1008.535156,6.761168,13.061550,6.417861,5.107554
1008.539062,0.504876,10.240475,10.325439,1.984869
1008.542969,12.588192,4.003595,1.776430,5.920810
1008.546875,10.904806,6.300379,1.219039,3.002359
1008.550781,1.852693,-5.702302,1.110752,-0.930253
1008.554688,0.603185,1.022627,-6.835808,-2.182547
1008.558594,-8.100565,-10.915895,-8.844878,-5.084819
1008.562500,-7.830870,-3.889224,-9.150206,-5.353649
1008.566406,-7.112246,-11.801790,-10.126102,-12.920455
1008.570312,-9.100733,-10.856769,-16.560206,-7.520919
1008.574219,-2.147900,-10.117124,-10.428724,-7.989371
1008.578125,-14.395468,-13.763049,-11.751886,-8.125767
1008.582031,-7.685380,-7.221689,-14.370488,-10.092404
1008.585938,-17.918924,-4.749755,-13.036708,-11.462743
1008.589844,-7.838413,-4.601101,-0.184081,-3.566896
1008.593750,0.336679,-6.111707,-5.973205,-2.020192
1008.597656,3.177968,-3.114792,-0.277444,-3.334844
1008.601562,-4.243221,4.449292,-0.360598,-3.343736
1008.605469,8.557324,2.737475,3.900085,3.500647
1008.609375,8.694465,-5.138302,5.475029,7.580658
1008.613281,2.425098,3.024100,10.272966,9.629784
1008.617188,7.156789,7.713729,11.961373,8.325848
1008.621094,17.372766,10.798370,5.559411,16.160173
1008.625000,8.583103,10.773413,14.491679,14.465893
1008.628906,10.135160,7.159630,5.739631,5.097032
1008.632812,9.916960,6.677765,5.183472,10.956568
1008.636719,3.250244,7.330186,8.834131,11.221905
1008.640625,12.783128,10.038376,8.307453,1.376760
1008.644531,8.838702,-1.550487,7.588678,7.096612
1008.648438,4.082918,2.225190,2.587433,3.603567
1008.652344,2.958589,-5.495580,-11.414228,3.017801
1008.656250,-6.981433,4.191403,-2.309331,-7.127232
1008.660156,-10.499445,-8.789740,-4.467174,-15.379435
1008.664062,-5.397806,1.264762,-10.132388,-7.883464
1008.667969,-7.801050,-9.360122,-10.567740,-7.620264
1008.671875,-7.445903,-8.045480,-3.479453,-5.843619
1008.675781,-11.429394,-9.183938,-6.047692,-11.363229
1008.679688,-10.210193,-18.171055,-10.498346,-13.162824
1008.683594,-10.739767,-6.712104,-6.887061,-12.188551
1008.687500,-6.043345,-5.111659,-10.987380,-5.307421
1008.691406,-4.048866,-6.661730,-7.066940,-7.483398
1008.695312,-7.783694,-7.229451,-7.024574,-4.082738
1008.699219,3.119433,0.936586,-7.907377,-3.183932
1008.703125,-1.935158,-2.328346,0.869047,0.668707
1008.707031,8.720291,0.635744,5.119649,2.886921
1008.710938,15.067778,5.985031,1.502133,4.749883
1008.714844,13.149180,3.315718,9.066388,2.240596
1008.718750,3.118974,7.167680,5.563530,12.419458
1008.722656,20.221247,14.070362,4.920676,10.157098
1008.726562,14.257584,6.513827,8.959354,7.302971
1008.730469,14.458664,6.819189,14.238392,4.382977
1008.734375,17.277607,10.393094,7.033414,11.743174
1008.738281,7.628153,6.811395,13.512564,9.127221
1008.742188,-0.604830,6.918645,7.809066,4.068189
1008.746094,2.823727,2.431235,-4.671333,10.236842
1008.750000,-0.242013,-3.041767,-0.208384,2.371813
1008.753906,-7.793037,-7.962335,-7.792186,0.159103
1008.757812,-7.091570,-8.579124,-4.962089,-5.677962
1008.761719,-4.312641,-5.954549,-2.624049,-5.879238
1008.765625,-7.452506,-16.110213,-6.744979,-5.370853
1008.769531,-8.862233,-3.853538,-13.907581,-15.418342
1008.773438,-11.902933,-6.751540,-10.444191,-9.910688
1008.777344,-10.752007,-11.673470,-10.051084,-5.836929
1008.781250,-8.725379,-14.040153,-11.359960,-5.801118
1008.785156,-1.490302,-12.878869,-9.857295,-7.649471
1008.789062,-8.638752,0.339506,-6.652462,-10.091312
1008.792969,-3.542113,-4.379406,-5.051112,-7.470432
1008.796875,1.554124,2.055277,-1.565250,-0.028563
1008.800781,7.091085,-2.737080,0.757200,-3.654355
1008.804688,-2.312649,4.068363,5.274990,1.040821
1008.808594,3.439505,1.466916,9.447936,12.013556
1008.812500,-0.495821,3.409405,6.793490,11.308291
1008.816406,17.172800,5.782454,16.355070,3.276658
1008.820312,9.681247,13.193597,12.560047,1.001392
1008.824219,7.860504,14.229780,12.157674,17.423090
1008.828125,6.579120,7.992136,10.968217,15.781060
1008.832031,11.234288,9.456457,8.250279,7.823604
1008.835938,6.002829,10.907437,10.653074,9.682840
1008.839844,3.455420,1.152470,6.598246,12.505162
1008.843750,4.826083,2.465082,-1.292216,3.602601
1008.847656,1.993411,-2.103205,4.126376,0.026007
1008.851562,7.411904,0.542111,-3.453627,-0.640751
1008.855469,-1.966747,-0.525104,0.382423,-1.430536
1008.859375,-4.514338,-3.806502,0.488865,-4.822283
1008.863281,-8.599762,-14.029620,-10.991724,-9.329500
1008.867188,-13.765394,-12.686338,-8.878035,-15.262572
1008.871094,-5.225507,-9.457733,-8.302962,-12.944593
1008.875000,-9.188838,-6.826107,-5.067155,-12.588525
1008.878906,-13.480886,-9.057253,-5.558160,-5.892409
1008.882812,-9.038070,-10.349105,-13.651598,-10.180188
1008.886719,-6.298558,-13.515015,-12.035629,-5.285752
1008.890625,-7.305584,-0.484005,4.277287,-9.293717
1008.894531,1.723812,2.744017,-2.529029,-6.101050
1008.898438,3.971738,-1.758118,1.715581,-2.214858
1008.902344,5.254451,3.890050,3.282557,6.402836
1008.906250,-2.107244,0.947666,9.523294,6.387805
1008.910156,6.141572,8.195940,7.264599,7.016745
1008.914062,6.132342,11.528806,8.888905,7.939173
1008.917969,10.304607,11.103324,4.931327,15.043250
1008.921875,11.677046,9.007366,18.011236,11.776411
1008.925781,12.908150,9.594986,12.934809,12.243753
1008.929688,10.202452,8.268317,8.190593,3.086396
1008.933594,10.221280,10.083535,12.820610,12.057059
1008.937500,8.442840,8.386456,7.105832,8.751884
1008.941406,10.868974,4.162697,2.462291,7.935090
1008.945312,-0.329967,-1.409903,-0.433868,6.608878
1008.949219,-2.246937,3.659071,-9.556564,-0.785623
1008.953125,-2.324609,0.339342,-1.575322,-8.119909
1008.957031,-0.859830,3.466394,5.251020,-3.800192
1008.960938,-8.110943,-1.548297,-8.034009,-2.681934
1008.964844,-10.428795,-6.331884,-10.590080,-16.018594
1008.968750,-5.658574,-9.834266,-13.145536,-8.152306
1008.972656,-14.835053,-5.866012,-12.309276,-14.454152
1008.976562,-10.763627,-2.027904,-13.387251,-7.378949
1008.980469,-4.168300,-10.966345,-12.447815,-9.859144
1008.984375,2.079056,0.096445,-3.951954,1.285683
1008.988281,-3.054577,-8.539460,-7.938528,-3.864892
1008.992188,-11.237790,-7.520096,-0.356039,-5.686779
1008.996094,3.328637,-1.802675,0.702815,-3.939060
1009.000000,6.470102,-0.522308,2.957071,-0.561983
1009.003906,6.564041,-1.210773,2.244688,-0.802279
1009.007812,7.352014,-0.948859,-1.778944,0.828988
1009.011719,8.568897,10.457182,12.596278,4.392731
1009.015625,1.509377,20.128837,13.532155,3.910233
1009.019531,13.480462,9.533679,8.744387,11.593378
1009.023438,6.503551,8.874762,8.764672,10.248985
1009.027344,5.124992,5.733796,9.537259,2.023076
1009.031250,11.294097,16.390173,10.122699,6.048422
1009.035156,6.008042,4.902381,7.833013,9.663129
1009.039062,5.649100,1.958877,13.903155,9.071559
1009.042969,3.540470,10.643823,-1.107544,0.885776
1009.046875,-2.915947,-0.382974,-1.006250,-3.048942
1009.050781,1.914546,-0.309844,0.235593,2.879840
1009.054688,-8.519706,-10.008682,0.956771,2.996865
1009.058594,-7.511709,-3.657673,-4.953661,-0.707602
1009.062500,1.177520,-8.568272,-8.632609,-14.852574
1009.066406,-4.176544,-5.594670,-1.863902,-13.041182
1009.070312,-7.813513,-11.309860,-13.443732,-9.023354
1009.074219,-8.080407,-13.435472,-11.515813,-3.369034
1009.078125,-13.381798,-4.278349,-4.679314,-13.101158
1009.082031,-17.216067,-8.283709,-12.188967,-15.476637
1009.085938,-3.284440,-8.773684,-4.900675,-7.724740
1009.089844,-8.326507,-0.141885,-6.707530,-1.306958
1009.093750,-2.663226,-8.709458,-5.350105,-9.237508
1009.097656,3.447274,-3.324202,-9.574104,-2.629359
1009.101562,-0.403933,-2.067114,5.836430,1.407639
1009.105469,0.706997,6.014537,5.160402,5.790465
1009.109375,13.534527,0.701746,2.196598,7.610652
1009.113281,3.731467,8.006509,8.443710,3.260346
1009.117188,7.507779,10.060867,6.859993,13.105816
1009.121094,15.349634,11.040434,4.804419,8.231929
1009.125000,14.076177,2.612649,13.056326,12.080243
1009.128906,16.151842,13.479215,12.281881,10.544836
1009.132812,-0.471357,9.287566,5.628591,8.648771
1009.136719,14.676287,-1.481304,1.719618,5.979581
1009.140625,-5.078721,3.219934,1.614462,3.476278
1009.144531,7.066286,2.824249,1.510152,3.813493
1009.148438,0.831267,5.363000,0.982498,5.069678
1009.152344,-2.561452,0.477249,1.728851,2.508644
1009.156250,-3.510231,0.273956,-6.115177,-0.334578
1009.160156,-1.718183,-8.323287,-12.292070,-5.368298
1009.164062,-4.902618,-9.089590,-12.455541,-5.015687
1009.167969,-7.520474,-8.546898,-9.500637,-10.975628
1009.171875,-4.814962,-13.624692,-4.919707,-4.175038
1009.175781,-4.923051,-14.483565,-12.609954,-12.772971
1009.179688,-9.794567,-7.486315,-10.995213,-10.268023
1009.183594,-0.967672,-4.346821,-3.919396,-6.046629
