timestamp,TP9,AF7,AF8,TP10
1000.000000,-7.085922,-2.133334,-2.995540,-3.517140
1000.003906,2.661463,-1.876359,2.884900,-3.969228
1000.007812,-2.330460,10.296374,5.590814,12.115500
1000.011719,6.803441,3.202593,4.483331,7.082077
1000.015625,13.910587,8.433469,7.959349,9.983108
1000.019531,9.099629,14.483564,10.682198,13.855260
1000.023438,13.440668,13.750329,13.551580,9.015769
1000.027344,6.337429,10.024185,13.635781,11.003025
1000.031250,7.799607,15.459672,14.947726,10.361775
1000.035156,5.030322,10.449596,10.140396,12.055318
1000.039062,8.341588,4.320492,1.976595,2.479257
1000.042969,-2.219508,5.160250,-6.941987,0.784014
1000.046875,-0.055666,-0.741746,-1.097052,-2.940576
1000.050781,-3.345539,-4.966375,-1.183162,-1.587516
1000.054688,-4.555409,3.351228,-3.278833,-2.927496
1000.058594,-1.894853,-2.409297,-9.055797,-6.774419
1000.062500,-7.697877,-17.263821,-4.795718,-12.910604
1000.066406,-12.033789,-6.918086,-11.875963,-11.759394
1000.070312,-10.004669,-9.281091,-13.477127,-2.402478
1000.074219,-10.848786,-11.688388,-8.563297,-10.397971
1000.078125,-7.876690,-10.940931,-8.115616,-3.452773
1000.082031,-10.403776,-9.806153,-6.838909,0.268819
1000.085938,-5.727767,-5.315092,-12.156318,-8.873218
1000.089844,-7.462199,-1.607866,-5.175761,-7.144877
1000.093750,-4.784149,-2.132857,-3.899589,-3.063900
1000.097656,7.192866,-3.729402,2.308397,-4.009463
1000.101562,1.726710,0.696103,2.796725,-8.859102
1000.105469,9.103310,0.839541,2.333156,11.159816
1000.109375,3.228931,14.633889,0.604606,6.036401
1000.113281,4.212470,9.647697,7.460465,11.829874
1000.117188,9.641456,7.251384,13.730257,8.306371
1000.121094,6.632595,5.229379,7.587107,5.081700
1000.125000,11.801239,11.976689,10.452116,12.861073
1000.128906,11.713321,10.801155,6.768220,3.752492
1000.132812,15.233824,9.674759,10.610415,4.478923
1000.136719,8.991993,11.716981,8.608378,13.049150
1000.140625,10.456071,16.121624,1.084169,-4.115121
1000.144531,4.606477,4.440454,7.299672,5.237894
1000.148438,-2.234271,6.814610,0.727526,1.504931
1000.152344,-2.356916,6.512899,-3.115740,1.463987
1000.156250,-4.372413,-5.580849,-4.688033,-6.721097
1000.160156,-9.719290,-5.843126,-3.679281,3.975284
1000.164062,-10.062408,-2.928769,-5.002550,-4.737419
1000.167969,-8.469426,-5.257983,-12.679470,-13.304187
1000.171875,-10.096881,-12.565151,-11.389380,-6.951750
1000.175781,-10.729163,-10.313516,-9.412783,-4.600541
1000.179688,-14.449235,-12.914506,-8.814235,-10.302957
1000.183594,-4.794357,-12.022779,-4.533754,-6.426054
1000.187500,-11.754504,-6.704487,-6.971533,-7.506920
1000.191406,-3.344247,-4.518605,-5.155917,-0.785637
1000.195312,-0.094483,-12.186113,-0.404143,-1.897911
1000.199219,4.196906,-4.591029,3.006618,1.383297
1000.203125,-4.226858,2.768289,-2.635964,4.138542
1000.207031,3.933518,5.195111,6.433445,7.045683
1000.210938,5.264964,10.529978,6.296577,5.927756
1000.214844,12.414175,6.276251,3.987551,11.333517
1000.218750,5.240798,11.989853,12.236081,12.383718
1000.222656,5.584317,7.830919,9.594565,7.647763
1000.226562,8.457670,18.241978,4.534812,10.394229
1000.230469,13.562352,2.605036,12.053278,13.696421
1000.234375,9.348185,3.882343,5.994171,10.103202
1000.238281,9.699739,7.934957,3.661542,3.882186
1000.242188,-2.462963,1.114327,1.843646,4.512631
1000.246094,5.806964,3.696664,9.388136,0.545551
1000.250000,-6.241656,0.488855,0.156629,1.420266
1000.253906,-1.170702,-1.739911,-2.057447,-8.191992
1000.257812,-1.621226,-10.775924,-2.725362,-4.031016
1000.261719,-3.482835,0.122726,-0.920110,-11.324483
1000.265625,-7.481745,-5.139843,-6.977798,-6.914968
1000.269531,-6.881761,-7.335662,-19.643696,-8.568644
1000.273438,-2.604027,-6.174836,-5.726724,-6.339567
1000.277344,-11.830412,-9.329587,-12.976553,-15.967027
1000.281250,-9.341731,-7.898380,-6.028746,-9.312396
1000.285156,-11.429854,1.202981,-5.611656,-4.445153
1000.289062,-3.182567,-3.619625,-6.011343,-15.045671
1000.292969,-2.436722,-0.748798,-10.107694,-4.681781
1000.296875,-4.695797,-6.846962,-1.868543,-1.650767
1000.300781,2.822223,-1.427506,-4.126136,-4.709412
1000.304688,1.165885,0.595201,5.435836,3.840667
1000.308594,4.261983,7.698573,6.032748,16.862002
1000.312500,-3.612322,6.004487,4.391573,6.667966
1000.316406,8.127070,3.657033,2.933102,9.968854
1000.320312,9.535427,12.710954,10.833680,19.445296
1000.324219,9.789969,15.744750,11.546355,13.615226
1000.328125,4.213775,11.487280,10.865418,17.049933
1000.332031,6.152561,9.053030,6.323192,3.192523
1000.335938,4.223380,2.135574,13.136502,12.932301
1000.339844,10.019747,6.945264,2.731061,2.723059
1000.343750,4.120959,0.546130,4.548597,3.596374
1000.347656,0.829024,6.339207,12.332400,1.289075
1000.351562,6.043017,-8.898482,1.800853,-2.008267
1000.355469,-4.435300,0.577203,-11.589515,-5.465919
1000.359375,-5.489592,-2.415184,-7.986083,-4.002025
1000.363281,-7.553066,-11.614320,-4.760292,-2.182605
1000.367188,-13.072875,-6.888637,-8.370130,-14.731212
1000.371094,-13.896292,-10.838013,-13.461495,-10.730106
1000.375000,-9.812175,-11.854594,-8.047485,-15.911267
1000.378906,-15.361644,-8.150438,-2.032421,-14.115624
1000.382812,-12.547590,-10.655301,-12.546571,-8.511331
1000.386719,-2.355018,-8.515965,-9.200343,-3.422438
1000.390625,-2.852331,-5.203127,-2.541345,-7.299178
1000.394531,-5.285068,-7.495376,-0.161620,-2.809481
1000.398438,2.997624,2.178025,-0.680114,-0.726563
1000.402344,-0.039400,5.033845,-1.744904,2.270368
1000.406250,1.326871,-0.884410,5.908949,8.086887
1000.410156,5.969966,6.505302,11.398292,7.231925
1000.414062,0.142457,9.615372,8.239657,8.555331
1000.417969,1.989454,14.212428,17.924485,10.414619
1000.421875,7.649368,8.008225,6.209148,6.382430
1000.425781,8.102131,11.514167,2.005579,6.324076
1000.429688,10.319978,10.593231,13.763507,11.769384
1000.433594,17.715864,6.250896,7.265698,8.730052
1000.437500,8.342583,9.524589,0.230465,9.753171
1000.441406,10.098519,5.787684,7.133674,2.454758
1000.445312,10.800568,6.672688,6.038061,1.430863
1000.449219,-3.021537,-1.944271,-1.982303,-1.385155
1000.453125,1.711955,3.675074,-3.269319,-1.586496
1000.457031,-8.623272,-2.945447,-4.263727,-11.230809
1000.460938,-2.674062,-7.510112,-5.140977,-12.096226
1000.464844,-13.872944,-10.569473,-10.139103,-13.909163
1000.468750,-15.358637,-3.685313,-9.382139,-6.001633
1000.472656,-13.178596,-6.616710,-10.422174,-14.610940
1000.476562,-9.484121,-17.828907,-7.260365,-7.234329
1000.480469,-11.413773,-11.607670,-1.602451,-10.833537
1000.484375,-7.579583,-10.155541,-10.159526,-11.066009
1000.488281,-3.275034,-9.650009,-2.804094,-6.803254
1000.492188,-4.796065,-4.827259,-3.346487,-2.273021
1000.496094,-3.537967,-11.421069,-7.936579,-1.897349
1000.500000,0.558809,6.313442,0.684540,2.148697
1000.503906,-1.249969,4.723737,4.675374,6.473578
1000.507812,6.651592,5.971950,3.389236,5.093155
1000.511719,12.954342,11.327712,13.621227,7.051550
1000.515625,0.666384,9.181819,5.949853,10.269849
1000.519531,8.386109,17.272315,9.306518,10.112256
1000.523438,4.010187,8.680082,1.886622,10.938649
1000.527344,6.334302,10.054276,6.633376,11.642058
1000.531250,8.591781,7.271094,12.767845,11.188763
1000.535156,8.752664,6.333568,17.808352,-0.527687
1000.539062,4.610547,4.697911,9.348192,6.224521
1000.542969,1.765885,6.738234,2.814243,10.160379
1000.546875,2.474572,2.040313,-1.558852,-0.077973
1000.550781,-6.845421,0.140746,0.281372,7.516201
1000.554688,-0.299825,-14.863335,-6.744114,-8.868744
1000.558594,-4.340862,-4.527014,-11.565908,-6.740796
1000.562500,-2.964806,-11.300991,-4.518104,-14.762662
1000.566406,-13.011348,-10.911427,-7.970666,-14.915110
1000.570312,-16.091437,-12.918772,-6.738920,-7.464496
1000.574219,-8.814806,-5.321576,-5.155619,-11.155040
1000.578125,-9.283547,-13.221250,-0.972609,-7.429081
1000.582031,-13.049437,-4.662085,-16.167948,-11.048371
1000.585938,2.724129,-12.590360,-14.796702,-2.291543
1000.589844,-11.687030,-6.084180,-5.219703,0.845892
1000.593750,-0.660290,-5.918578,0.132217,-11.571808
1000.597656,4.348214,-4.879061,-1.412438,-5.912773
1000.601562,4.216664,-0.017889,-3.576419,3.821694
1000.605469,9.701852,4.823522,-0.798898,2.285465
1000.609375,10.257765,2.741527,7.914552,8.601296
1000.613281,5.474982,4.490948,9.752583,3.397901
1000.617188,12.986747,2.768332,10.400360,7.503236
1000.621094,14.196834,11.533055,8.790371,7.153620
1000.625000,6.420181,13.108668,10.067248,11.295433
1000.628906,6.800158,13.133481,9.861590,8.253764
1000.632812,8.735050,14.039598,9.789512,6.241751
1000.636719,6.915216,4.953415,8.198199,8.683485
1000.640625,-4.509018,6.860964,6.762249,6.444586
1000.644531,5.605579,2.705350,4.355510,3.596476
1000.648438,1.066944,6.355454,1.728585,1.552853
1000.652344,3.509267,2.545580,2.698043,-6.045702
1000.656250,-6.539683,-6.303670,-7.969755,-4.243396
1000.660156,-7.388475,-1.765046,-9.634531,-7.895088
1000.664062,-9.821627,-16.669985,-3.087804,-10.708793
1000.667969,1.698361,-10.054772,-6.611947,-3.362267
1000.671875,-6.909325,-12.757539,-13.697312,-11.309905
1000.675781,-13.215967,-3.643544,-13.414307,-9.474418
1000.679688,-13.657554,-6.173005,-12.890171,-8.855317
1000.683594,-5.795595,-12.683486,-11.925803,-3.115854
1000.687500,-6.411292,-2.282723,-7.209932,-4.401117
1000.691406,-7.992314,-10.913129,-12.979871,-9.625706
1000.695312,-7.542627,-2.412944,-2.139950,-3.919963
1000.699219,-4.386198,1.313925,5.629106,-0.842186
1000.703125,7.156654,3.023042,6.744077,3.730472
1000.707031,1.491242,7.417637,8.448472,3.751713
1000.710938,-0.028963,8.241736,2.463324,4.664854
1000.714844,11.524775,7.732971,12.229543,4.466458
1000.718750,8.913441,10.741269,3.726992,13.462929
1000.722656,6.564527,12.190823,12.176398,10.055944
1000.726562,3.583932,10.769269,5.834181,5.754499
1000.730469,13.179155,9.855395,0.860412,11.546933
1000.734375,5.776046,7.748992,8.388536,4.742186
1000.738281,6.555577,4.712037,12.531149,8.087252
1000.742188,4.603833,8.201075,-1.550347,10.252212
1000.746094,11.776010,4.499446,2.985540,7.334834
1000.750000,1.887133,-4.785242,-2.741066,2.602719
1000.753906,-7.963339,-2.497237,-4.093516,3.071632
1000.757812,1.932728,-3.511216,1.084047,-10.598428
1000.761719,-8.321553,-6.131890,-9.064375,-10.923460
1000.765625,-4.568492,-3.483793,-7.064225,-8.390965
1000.769531,-7.986195,-1.439146,-7.224894,-18.952397
1000.773438,-21.367417,-5.666892,-4.519706,-13.292674
1000.777344,-2.047607,-5.649183,-3.494924,-13.836256
1000.781250,-10.487021,-5.567525,-12.824558,-8.962471
1000.785156,-13.138785,-7.235773,-8.059908,-4.368012
1000.789062,-4.038446,-0.099798,-6.026157,-15.248748
1000.792969,-1.507219,-9.770401,-16.640307,-4.815344
1000.796875,2.512655,0.068067,0.713424,4.084805
1000.800781,2.580781,-0.918095,1.814476,4.916935
1000.804688,9.446892,2.801629,-6.241779,4.842416
1000.808594,0.285424,7.068930,11.022546,8.898218
1000.812500,3.421030,4.497626,0.820193,6.443975
1000.816406,10.741570,12.701016,6.527134,13.468351
1000.820312,9.698672,8.689972,13.241397,7.420156
1000.824219,12.067801,6.773611,11.743043,14.086973
1000.828125,7.591387,6.502418,5.278630,16.243360
1000.832031,8.572439,6.628086,8.509021,9.980228
1000.835938,9.427632,10.085121,2.838020,11.890982
1000.839844,12.686086,0.316208,9.474152,-4.941484
1000.843750,7.575979,2.963615,10.394723,4.344763
1000.847656,3.968753,3.148613,-1.190973,4.448605
1000.851562,0.115752,2.928339,0.467760,0.475478
1000.855469,-0.106281,-4.937171,-1.098494,-6.067847
1000.859375,-4.605284,-12.954429,-1.261837,4.081602
1000.863281,-8.757704,-8.352585,-4.878696,-4.896559
1000.867188,-6.930031,-12.601707,-11.509031,-6.526770
1000.871094,-6.661943,-11.509826,-6.732965,-11.841267
1000.875000,-9.294585,-11.551435,-11.325748,-10.578336
1000.878906,-18.912928,-6.979016,-7.028751,-13.135050
1000.882812,-6.087990,-14.716465,-6.616548,-3.596672
1000.886719,-7.739863,-11.733321,-9.236440,-11.175079
1000.890625,-0.669640,-2.235953,-7.190852,-15.953812
1000.894531,0.528454,-0.279608,-4.212138,-3.322230
1000.898438,-0.294478,0.067709,1.827810,6.000126
1000.902344,-1.041383,-4.818566,-1.037907,1.533008
1000.906250,4.495733,1.442909,6.327246,7.032914
1000.910156,4.620006,3.611704,10.466495,13.666014
1000.914062,8.777661,6.467853,13.894549,13.155798
1000.917969,5.760981,10.419699,13.697390,7.372766
1000.921875,12.723117,16.322688,13.911572,4.593212
1000.925781,12.320239,8.580875,15.326386,4.373502
1000.929688,9.821213,5.598681,6.521207,14.621524
1000.933594,11.272349,10.047911,9.780840,4.035635
1000.937500,5.929059,8.649478,11.646074,8.993844
1000.941406,8.029023,7.134005,4.517108,5.816514
1000.945312,4.813203,5.838504,1.727566,4.865168
1000.949219,-2.096469,-2.439392,5.196443,2.623815
1000.953125,-1.487849,-4.029135,-9.108036,0.143053
1000.957031,-4.835728,-5.828273,-7.288010,-13.624977
1000.960938,-5.248865,-3.462268,-3.526718,-5.681738
1000.964844,-9.375937,-8.935454,-3.870718,-8.728914
1000.968750,-15.821687,-3.813506,-9.475039,-12.015385
1000.972656,-10.672038,-7.120929,-8.854686,-14.083424
1000.976562,-2.075672,-16.203235,-2.588390,-9.496122
1000.980469,-10.801796,-10.378231,-10.607406,-4.918351
1000.984375,-6.592911,-7.356000,-5.731346,-9.720150
1000.988281,-7.080862,-3.589074,-4.176189,0.603866
1000.992188,-11.416376,-5.726941,-1.642171,-2.750965
1000.996094,-7.360894,-5.442126,-5.951123,-2.444348
1001.000000,2.969521,0.285247,-1.745422,2.196604
1001.003906,-3.790120,2.148842,3.258456,1.330026
1001.007812,1.221626,2.774363,6.689880,8.646524
1001.011719,11.167416,8.716059,4.007527,4.410158
1001.015625,6.517426,9.273121,2.765907,3.800599
1001.019531,11.456086,8.021324,8.066467,6.133106
1001.023438,12.711976,8.486035,4.369125,-2.603522
1001.027344,12.769392,5.123832,12.208381,3.375209
1001.031250,6.662752,11.787359,10.292283,6.682628
1001.035156,7.322770,9.748374,3.872733,2.683425
1001.039062,3.788607,6.070004,11.730990,4.225615
1001.042969,3.554075,3.798432,2.594508,3.484119
1001.046875,2.512904,1.930960,-2.765497,-1.333342
1001.050781,4.087539,-6.739143,-3.381924,-1.437451
1001.054688,-3.051013,-3.110745,-0.985912,-3.692504
1001.058594,-7.068445,-7.633800,-1.809620,-0.502025
1001.062500,-7.287177,-10.769652,-5.510379,-9.486767
1001.066406,-3.544210,-3.575354,-10.818182,-12.683712
1001.070312,-9.882930,-8.551092,-8.634693,-14.158777
1001.074219,-1.543480,-13.849010,-11.543499,-12.855726
1001.078125,-14.258076,-13.284463,-4.408568,-7.092240
1001.082031,-13.355685,-6.177947,-9.206713,-7.356739
1001.085938,-12.852684,-0.847516,-0.364544,-1.083261
1001.089844,-0.588438,-11.658667,-11.409047,-7.889949
1001.093750,0.533890,-10.335808,-9.218260,3.990737
1001.097656,3.752557,3.892055,-1.501061,-3.230674
1001.101562,-3.128998,3.001835,-3.259590,3.963754
1001.105469,5.997031,2.360426,3.846369,7.583803
1001.109375,-0.598892,-3.676235,14.494900,8.721043
1001.113281,7.303673,1.427980,4.342671,8.769933
1001.117188,8.680071,12.118031,6.122076,8.363995
1001.121094,4.175224,12.198007,9.958903,9.892176
1001.125000,9.564192,-0.972216,15.058797,4.780746
1001.128906,17.275801,10.325062,1.854299,12.318204
1001.132812,4.482121,3.382351,11.444494,6.925773
1001.136719,3.619954,4.261176,6.317815,2.391010
1001.140625,1.359377,-8.004348,0.977788,0.223117
1001.144531,3.106565,8.249411,-0.133881,10.620417
1001.148438,6.232993,9.192854,-0.318962,3.073502
1001.152344,-5.167419,-1.294130,8.488974,1.119694
1001.156250,-10.852906,-0.128017,-2.909933,-5.427917
1001.160156,-3.572526,-12.377774,-2.872392,-4.615524
1001.164062,-12.149578,-2.284534,-8.289227,2.846688
1001.167969,-12.226186,-7.480570,-9.178022,-7.949229
1001.171875,-7.051339,-9.465763,-13.854447,-11.354821
1001.175781,-4.752845,-3.025006,-8.884091,-16.001156
1001.179688,-8.553020,-4.243280,-3.513209,-14.328021
1001.183594,-12.422139,-5.940235,-10.689130,-8.138296
1001.187500,-6.165961,-2.128345,-2.536305,-4.881069
1001.191406,1.336111,-2.999374,-3.331173,-6.045565
1001.195312,2.080146,2.497257,-0.510069,-7.317581
1001.199219,-3.091171,2.479412,7.141197,-3.827741
1001.203125,0.232151,-3.794698,-1.477969,-1.647553
1001.207031,0.030672,5.785161,9.460299,5.862485
1001.210938,9.081846,-1.950019,6.454852,6.872916
1001.214844,8.916081,11.055775,6.508488,10.801367
1001.218750,10.485305,11.397417,4.016124,7.524903
1001.222656,13.742249,9.467388,12.667862,12.182026
1001.226562,15.128467,14.250275,13.355581,3.313784
1001.230469,9.327396,12.486646,10.130429,7.571563
1001.234375,11.522593,16.576464,10.390899,8.098320
1001.238281,12.683783,4.464496,5.901794,11.806831
1001.242188,4.582610,6.851790,-3.760895,0.777798
1001.246094,3.166009,-4.367269,7.364396,1.237968
1001.250000,2.097304,-2.627871,-3.705372,-4.453209
1001.253906,-0.059552,3.745447,2.040218,-10.025030
1001.257812,0.638530,-7.980904,-2.410009,-7.179535
1001.261719,-8.286445,-6.835480,-6.825870,-8.160039
1001.265625,-13.341988,-8.017718,-2.110833,-4.666097
1001.269531,-10.124062,-17.380398,-8.848744,-8.441057
1001.273438,-13.456542,-14.245463,-9.229611,-1.629845
1001.277344,-9.872761,-3.057951,-5.091736,-6.441856
1001.281250,-8.491431,-8.179337,-8.025124,-6.864037
1001.285156,-6.201479,-5.673751,-10.516279,-4.930638
1001.289062,-5.134202,-7.710867,-8.612201,0.368148
1001.292969,-1.737500,-8.516766,-4.771746,-5.710675
1001.296875,3.217390,-9.031575,-2.581043,-2.677361
1001.300781,-0.876221,0.522877,-4.948234,-13.323926
1001.304688,-0.811777,2.333566,-2.736203,-2.623360
1001.308594,5.450177,2.389800,14.105772,1.049516
1001.312500,11.671853,11.011370,7.938177,8.790155
1001.316406,15.743585,14.529462,16.335158,10.359238
1001.320312,6.679587,10.054809,10.990947,18.020683
1001.324219,12.650815,10.903387,15.909682,14.088682
1001.328125,8.999202,5.517138,12.254474,5.072307
1001.332031,12.217515,6.265455,6.826942,9.143062
1001.335938,11.893419,8.777362,5.911175,11.534601
1001.339844,9.311829,10.676077,4.147124,5.468853
1001.343750,3.193284,5.778499,5.011417,1.759301
1001.347656,3.035095,1.436826,-4.652567,5.194313
1001.351562,-0.748917,-2.493509,0.908583,-4.692474
1001.355469,-2.564496,-7.496189,-9.525666,-6.536317
1001.359375,-5.928194,-12.293745,-9.006474,-3.207850
1001.363281,-13.095475,-6.254645,-4.787757,-8.656703
1001.367188,-17.571693,-2.737235,-11.478957,-12.258306
1001.371094,-4.837335,-20.881254,-11.680075,-11.214563
1001.375000,-12.041715,-11.408537,-8.233256,-15.807886
1001.378906,-9.604252,-18.182938,-10.330563,-4.108018
1001.382812,-5.903716,-2.631802,-8.640087,-0.029157
1001.386719,-12.672609,-12.019769,-4.966741,-10.488931
1001.390625,-3.528827,-10.715067,-7.045002,-5.337298
1001.394531,-5.602192,-3.698749,-4.377008,7.995781
1001.398438,-5.908285,-0.679335,-4.544489,4.003275
1001.402344,-3.234659,-2.515347,-7.104459,-4.571831
1001.406250,1.097729,4.744464,1.809100,5.257453
1001.410156,9.664741,4.471645,2.553850,11.599192
1001.414062,7.052220,9.643738,6.629480,6.879667
1001.417969,8.387340,9.713705,15.419078,8.110658
1001.421875,8.434427,17.832631,8.001643,9.931222
1001.425781,4.686749,11.454503,9.298225,6.311832
1001.429688,9.132145,11.277361,10.587570,9.160868
1001.433594,10.141891,5.627413,0.212429,3.208010
1001.437500,4.267515,10.545772,10.965404,9.284688
1001.441406,0.133695,2.418237,7.973454,8.341926
1001.445312,-3.008909,-2.952009,-0.856964,1.977330
1001.449219,1.869614,2.907754,7.039152,-7.524971
1001.453125,2.206676,-4.125849,-1.111085,-6.898049
1001.457031,-1.422836,-1.729510,-10.083352,-5.577856
1001.460938,-6.159940,-10.133635,3.533203,-8.884592
1001.464844,-6.188477,-14.535788,-8.346048,-8.687025
1001.468750,-13.272038,-8.453548,-12.960555,-14.610846
1001.472656,1.012967,-7.547312,-9.783022,-8.834218
1001.476562,-9.677444,-5.261837,-10.657534,-8.977437
1001.480469,-9.272938,-9.050743,-7.321527,0.151129
1001.484375,-4.023283,-6.939514,-9.578800,-8.110885
1001.488281,-2.281765,-10.791678,-5.761305,-1.028060
1001.492188,-7.442109,-12.492523,-6.002916,-1.313506
1001.496094,-2.815977,0.077626,3.057599,-4.634191
1001.500000,-3.787732,2.360927,3.355658,3.861313
1001.503906,0.611803,2.305952,8.588436,7.636468
1001.507812,11.743308,4.596327,7.750743,-1.413759
1001.511719,11.130153,6.415360,11.843437,6.081637
1001.515625,7.753940,15.793372,9.191426,14.935858
1001.519531,10.817038,2.875303,5.558734,10.347935
1001.523438,9.996328,14.081940,10.401046,9.654357
1001.527344,12.109589,5.722710,4.902952,11.752257
1001.531250,5.282231,13.324472,14.819526,12.099949
1001.535156,10.847832,3.248886,6.301895,5.978188
1001.539062,16.555502,6.145036,9.814262,7.256933
1001.542969,3.708170,-1.639401,5.595040,4.411582
1001.546875,0.550454,0.583932,4.207380,6.767134
1001.550781,-5.470633,-2.608612,-4.445091,-0.710285
1001.554688,-5.985997,-3.521551,-0.114663,-5.452068
1001.558594,-3.294694,-5.897225,-12.721711,4.497258
1001.562500,-4.704363,-14.817523,-8.643553,-3.015259
1001.566406,-7.063539,-10.678987,-4.612386,-11.414387
1001.570312,-13.287930,-12.832389,-14.240033,-10.250851
1001.574219,-21.249477,-15.944438,-22.258435,-13.585061
1001.578125,-9.326649,-17.625299,-20.377559,-4.531178
1001.582031,-14.083135,-11.581565,-13.617257,-10.056357
1001.585938,-1.225506,-10.600802,-8.494589,-7.748737
1001.589844,-6.193629,-9.075435,-7.833053,-7.786989
1001.593750,4.939011,-8.814096,-2.244348,-3.437976
1001.597656,1.915738,2.476009,-5.455504,-2.768555
1001.601562,-7.503130,-5.353131,3.649900,3.360163
1001.605469,-1.969039,3.497233,0.806788,6.225770
1001.609375,9.268500,-1.915976,5.248116,6.218038
1001.613281,5.640069,9.039313,10.959246,1.903818
1001.617188,7.602584,10.242720,17.316141,3.065484
1001.621094,14.110069,3.823385,12.874795,10.979228
1001.625000,12.434074,13.850717,9.576729,10.706104
1001.628906,7.550758,10.422480,6.697162,6.535596
1001.632812,5.208568,7.178185,13.569710,7.807968
1001.636719,10.152325,8.088725,10.814089,6.606857
1001.640625,4.970675,6.126582,3.057721,3.895594
1001.644531,4.349324,5.800851,-0.864437,5.744067
1001.648438,-1.227235,-0.663276,1.352187,-1.403402
1001.652344,0.392451,-3.970456,-0.635603,2.523180
1001.656250,-2.765561,-6.302045,-1.583462,-11.674502
1001.660156,-5.182795,-7.868392,-13.985879,-5.086073
1001.664062,-5.644627,-8.623421,-8.821414,-10.481660
1001.667969,-10.470762,-7.372949,-10.172593,-7.559219
1001.671875,-7.851389,-1.305854,-11.003508,-14.586324
1001.675781,-10.668939,-16.224177,-1.934477,-11.300142
1001.679688,-4.235406,-8.209039,-13.094481,-9.656799
1001.683594,-10.780913,-8.128755,-9.354212,-6.607578
1001.687500,-9.900342,-5.160855,-4.081648,-4.271281
1001.691406,-9.726472,-8.644416,-5.223593,-6.772781
1001.695312,-4.824247,-2.542849,-12.483526,2.142801
1001.699219,1.456942,5.201924,0.334089,-3.824185
1001.703125,5.870158,5.705354,-0.614896,1.923414
1001.707031,6.654964,8.336434,-1.943790,2.125431
1001.710938,10.275541,8.453401,9.546141,4.335893
1001.714844,10.187125,8.716244,10.661854,8.478532
1001.718750,5.433018,2.624283,11.817544,6.055052
1001.722656,7.345895,15.654104,4.540451,10.950822
1001.726562,8.875457,6.850801,3.745795,5.658221
1001.730469,13.359608,5.207216,8.962999,7.776535
1001.734375,8.245025,4.859643,2.630333,2.050027
1001.738281,11.691798,9.943982,8.603035,4.211116
1001.742188,8.230556,6.349329,7.376362,6.824770
1001.746094,7.970125,4.903471,-2.659316,0.714835
1001.750000,-0.492258,2.400916,5.027909,0.882379
1001.753906,-5.544041,0.001012,-8.840351,-11.749270
1001.757812,-2.419379,-3.794396,-8.529146,0.584341
1001.761719,-10.986322,-6.878355,-15.273153,-6.970862
1001.765625,-2.051629,-13.038601,-7.506202,-2.657990
1001.769531,-7.261698,-13.643337,-2.282367,-9.286189
1001.773438,-21.078220,-5.660893,-14.647178,-12.342144
1001.777344,-14.747379,-15.160652,-10.057240,-15.227597
1001.781250,-10.647527,-12.429405,-17.419507,-14.087642
1001.785156,-9.916508,-5.776283,-12.908761,-10.792833
1001.789062,-2.226295,-6.139909,-3.664920,-3.318795
1001.792969,-2.142900,-7.203888,-5.229653,-7.074117
1001.796875,-1.917627,-4.701135,-1.219204,-3.557834
1001.800781,-0.553297,4.235961,1.307885,3.720844
1001.804688,5.892714,5.900584,4.310629,2.267277
1001.808594,2.702088,-0.689806,8.251551,5.809896
1001.812500,10.514164,14.071659,13.669867,6.655331
1001.816406,7.878144,8.771996,4.992694,13.716691
1001.820312,8.645514,6.887513,1.547642,6.434955
1001.824219,12.549078,1.763145,4.616986,10.015176
1001.828125,10.836558,14.530060,12.405510,10.588210
1001.832031,8.574694,7.050313,13.626709,10.988928
1001.835938,4.543261,10.907478,7.376093,11.227423
1001.839844,0.566635,4.455790,3.940840,5.908764
1001.843750,2.566992,6.764370,9.813622,9.121811
1001.847656,-2.885131,-0.580432,2.901230,-0.786263
1001.851562,-0.348797,-3.557689,-1.591853,-2.655247
1001.855469,-5.143184,-5.089095,-1.265169,-4.264079
1001.859375,-4.109309,-8.332500,-4.291516,-3.656963
1001.863281,-7.684606,-8.078069,-4.760047,-0.150187
1001.867188,-7.747449,-7.719205,-6.314564,-10.170078
1001.871094,-17.223003,-7.613816,-8.520253,-14.075527
1001.875000,-10.698536,-6.980610,-17.209197,-7.938735
1001.878906,-13.886906,-12.684965,-10.170019,-9.772316
1001.882812,-11.829575,-14.354614,-13.619362,-9.145303
1001.886719,-6.144498,-10.670024,-6.024747,-3.009706
1001.890625,-7.483898,-3.585237,-4.632439,-1.140977
1001.894531,-5.176590,-3.660308,-11.137388,-7.880863
1001.898438,0.307646,-0.179683,-0.896926,-1.439742
1001.902344,2.308232,1.013666,-1.867843,6.489114
1001.906250,0.501131,2.949684,3.070787,1.795613
1001.910156,6.608947,5.816161,10.691847,4.613126
1001.914062,7.186273,3.205873,4.747932,7.920491
1001.917969,15.770021,8.676000,11.413279,6.677196
1001.921875,-0.358621,8.824196,6.699828,15.185913
1001.925781,7.259746,6.103058,10.675099,11.627032
1001.929688,13.868321,2.930897,7.315716,15.982714
1001.933594,11.727614,9.883007,6.948390,7.825714
1001.937500,7.784745,12.637788,2.628692,1.938114
1001.941406,8.130271,6.472057,2.888483,7.432619
1001.945312,3.214617,0.946337,4.761993,-2.479366
1001.949219,0.793447,-0.698586,5.538782,5.334553
1001.953125,3.929528,-2.582658,-5.202189,-4.278735
1001.957031,-8.436981,-7.456958,-5.413397,-6.677223
1001.960938,-7.344735,-4.607466,-10.676298,-12.421341
1001.964844,-12.808862,-8.529894,-12.289507,-8.108039
1001.968750,-5.381849,-13.577527,-14.325847,-14.652703
1001.972656,-6.299700,-14.952210,-10.481529,-16.780242
1001.976562,-8.724174,-7.200449,-10.030957,-5.667362
1001.980469,-11.319955,-10.963863,-9.583682,-6.927122
1001.984375,-16.678627,-15.456189,-9.691703,-15.676046
1001.988281,-9.755013,-14.100298,-0.866846,-11.164818
1001.992188,1.387176,-5.276303,-3.272486,-6.340764
1001.996094,-0.377579,-4.670231,-3.335259,-6.803759
1002.000000,1.205939,0.861604,0.187110,5.953130
1002.003906,3.169234,-0.393207,0.098396,-2.483606
1002.007812,3.708870,2.354860,-0.856288,3.055420
1002.011719,4.996506,4.943647,9.636576,4.325766
1002.015625,7.113789,14.445683,11.029116,8.378121
1002.019531,8.207245,6.633578,1.776710,10.688076
1002.023438,15.642610,17.352868,14.540215,11.028446
1002.027344,17.102500,14.456863,13.349843,7.187921
1002.031250,13.832841,17.101678,10.864352,10.380360
1002.035156,2.178156,11.196251,10.766209,9.046825
1002.039062,10.335935,5.346132,7.883126,-0.036346
1002.042969,8.885304,6.122246,2.885332,7.908889
1002.046875,0.006830,-0.195231,5.463215,11.924874
1002.050781,3.599054,1.040517,4.711827,-4.243105
1002.054688,-1.883168,-2.546096,-4.548602,-9.691091
1002.058594,-5.736655,-13.943155,-8.044025,-15.135051
1002.062500,-4.021558,-3.304798,-11.690826,-7.592900
1002.066406,-7.956974,-6.644347,-0.694634,-14.976081
1002.070312,-6.355476,-14.291318,-9.456155,-17.450749
1002.074219,-13.102065,-9.288238,-3.529968,-10.450910
1002.078125,-9.841391,-16.639984,-5.906888,-7.512744
1002.082031,-7.943521,-9.784265,-15.107746,-9.269128
1002.085938,-1.381501,-9.829451,-12.739330,-10.406093
1002.089844,-8.162864,-8.283431,-2.675865,-1.966168
1002.093750,-4.785383,-2.455578,-5.761717,-7.236621
1002.097656,-1.055459,0.744938,0.056087,-0.065147
1002.101562,-1.005386,-3.805683,-2.634697,-2.288912
1002.105469,0.217263,3.582087,4.551947,3.134043
1002.109375,5.580422,5.573398,10.641916,2.707290
1002.113281,15.593703,5.215792,11.172141,14.265185
1002.117188,7.484533,5.862610,4.531120,15.358697
1002.121094,14.857245,9.329390,2.285942,13.001733
1002.125000,11.923568,19.316793,11.352262,10.519210
1002.128906,5.088500,13.870755,9.898867,17.632744
1002.132812,4.444332,0.322958,10.041068,9.221353
1002.136719,5.099315,9.780287,11.046944,10.745048
1002.140625,3.308566,0.989239,2.057548,7.849288
1002.144531,8.901507,0.725417,2.407476,5.584631
1002.148438,0.679619,-1.355162,1.417380,-0.776040
1002.152344,4.400217,-0.803532,-1.657079,-0.231718
1002.156250,-2.267768,-0.549266,-4.552659,-5.231066
1002.160156,1.646204,-5.383126,-0.933350,-1.922590
1002.164062,-12.387713,-1.508368,-2.105776,-0.070293
1002.167969,-8.232508,-18.500835,-18.032440,-6.938024
1002.171875,-13.355855,-12.762612,-12.841480,-4.058510
1002.175781,-8.693506,-13.128683,-13.725888,-7.894776
1002.179688,-1.423099,-3.065994,-14.652076,-11.235780
1002.183594,-10.549822,-6.493936,-5.133116,-4.868175
1002.187500,-9.243845,-1.393993,-12.625506,-5.321167
1002.191406,-5.780454,-2.104294,-11.555061,-6.344842
1002.195312,-0.143612,4.005793,-3.011551,2.744157
1002.199219,3.341643,0.378801,1.974405,1.581144
1002.203125,-2.625497,4.697970,3.822799,9.363583
1002.207031,3.677849,7.805957,-0.111950,11.030956
1002.210938,5.489106,9.247762,5.137880,3.601554
1002.214844,5.586290,14.679546,-1.852407,9.472543
1002.218750,11.824890,5.910338,12.110795,9.818211
1002.222656,7.912252,6.667164,5.314363,4.121869
1002.226562,12.332056,5.399519,14.160298,6.442371
1002.230469,12.593840,4.905334,6.949636,12.070682
1002.234375,-0.921515,3.486319,-2.232667,5.513545
1002.238281,1.707752,-3.976433,7.804021,4.933642
1002.242188,1.285504,2.764343,5.934245,0.450841
1002.246094,11.126654,-1.199358,-2.318239,7.814280
1002.250000,0.802572,0.222851,4.194475,-0.875643
1002.253906,-1.755634,4.067470,-4.575482,-0.237605
1002.257812,-10.055981,-8.318553,-6.832222,-6.398808
1002.261719,-2.577032,-4.958636,-4.813155,-6.468621
1002.265625,-4.330438,-11.724225,-4.714960,-7.474600
1002.269531,-9.671152,-5.214106,-15.192828,-13.669142
1002.273438,-12.386580,-14.680020,-6.730316,-12.438131
1002.277344,-8.230702,-9.658407,-7.295775,-11.369265
1002.281250,-12.568160,-5.369665,-6.397986,-9.851721
1002.285156,-16.084211,-8.068312,-15.899920,-7.339056
1002.289062,-9.343321,-7.503748,-2.948927,-0.806334
1002.292969,-4.566496,-2.678854,-0.281618,-6.140305
1002.296875,1.517502,1.548141,-2.935171,-1.064420
1002.300781,0.552726,0.000132,1.017146,2.864766
1002.304688,7.902890,-2.668141,6.064359,1.756448
1002.308594,0.905873,1.511003,3.669146,-0.634737
1002.312500,12.639443,9.864121,12.222028,5.837053
1002.316406,6.153015,-0.205374,17.492769,4.335341
1002.320312,6.977848,10.344321,5.166076,18.151994
1002.324219,14.117988,7.775050,7.216040,16.406335
1002.328125,7.235061,13.847588,9.541341,11.624356
1002.332031,4.314481,7.503126,5.866476,9.649345
1002.335938,0.509862,12.763136,6.168679,11.350959
1002.339844,12.975691,2.065156,12.918517,6.036144
1002.343750,9.041211,10.133245,4.362692,4.486950
1002.347656,7.564247,3.927135,4.075441,6.257761
1002.351562,1.579858,-3.409356,-2.796043,-3.255204
1002.355469,-3.165946,2.173063,-7.031643,-2.600535
1002.359375,-2.591963,-5.146395,2.418389,-11.673573
1002.363281,-2.888249,-1.379092,3.267963,-10.588469
1002.367188,-11.629984,-12.889093,-2.852794,-7.619940
1002.371094,-14.223436,-4.339311,-10.731954,-7.200944
1002.375000,-6.768260,-12.163352,-12.636057,-2.418661
1002.378906,-11.594042,-4.062746,-4.769420,-2.709036
1002.382812,-7.326657,-9.936101,-1.831509,-5.908387
1002.386719,-10.292801,-7.967095,-7.161674,-0.764509
1002.390625,-9.352361,-5.288657,-5.671010,-10.773877
1002.394531,-2.015782,-3.648949,-9.760577,-3.203081
1002.398438,-0.965893,-1.423958,-10.039392,1.839991
1002.402344,6.055056,-7.987649,4.951589,5.622713
1002.406250,0.231349,2.877780,8.922973,4.834350
1002.410156,11.282428,-0.367108,9.897721,10.945925
1002.414062,6.819665,3.861562,11.204249,15.819900
1002.417969,5.328233,10.302797,7.035795,5.924152
1002.421875,8.323470,4.678826,9.635796,13.482308
1002.425781,10.876466,13.536976,5.791041,15.031628
1002.429688,13.011613,0.987537,21.469320,4.067073
1002.433594,13.500884,-0.933991,11.603905,11.071825
1002.437500,0.252660,5.157710,4.849881,7.874416
1002.441406,7.164316,7.656140,5.590099,9.285728
1002.445312,5.403530,6.466504,8.486712,0.174675
1002.449219,-7.828167,-2.039068,2.392798,1.308939
1002.453125,-0.952125,-4.019037,-3.577605,3.433657
1002.457031,-3.047992,-5.256792,-10.792201,-1.338738
1002.460938,-4.769226,-10.167374,-9.530977,-6.449827
1002.464844,-13.220491,-6.150347,-10.741867,-15.440759
1002.468750,-8.817756,-7.830745,-3.287666,-9.290291
1002.472656,-20.026094,-10.003379,-13.172177,-4.970254
1002.476562,-10.719036,-13.170789,-11.196198,-9.551023
1002.480469,-12.963995,-9.514793,-3.522471,-5.253347
1002.484375,-12.122987,-13.105704,-10.900579,-15.952583
1002.488281,-0.893579,-6.850714,-8.991473,-7.504632
1002.492188,-3.051648,-2.813673,-4.125797,-4.212631
1002.496094,0.081414,3.258938,-1.511627,-6.093211
1002.500000,4.003056,2.648495,-1.584583,2.300258
1002.503906,-2.591917,-3.362678,-0.518899,2.066025
1002.507812,-5.521608,4.265679,1.494591,0.675958
1002.511719,3.564984,11.271087,8.321243,4.271740
1002.515625,11.469567,-0.308720,5.798861,10.269593
1002.519531,6.558893,13.639068,11.011679,7.991676
1002.523438,16.466332,-0.660548,14.790452,6.790038
1002.527344,12.670502,2.517828,11.094256,1.298776
1002.531250,6.974814,5.596667,12.533019,8.371910
1002.535156,1.577866,-0.548522,16.004535,1.960934
1002.539062,1.458869,7.405637,3.735572,3.962371
1002.542969,6.012308,2.478113,5.088450,10.854490
1002.546875,-2.832736,-1.220972,0.612126,5.326113
1002.550781,-0.234484,-1.372492,-0.607058,2.035678
1002.554688,-3.660557,-0.753916,-6.328261,1.138328
1002.558594,-7.279213,-4.017032,-5.091184,-7.148486
1002.562500,-8.781281,-0.934814,-8.788654,-7.338536
1002.566406,-4.646444,-1.026648,-9.631403,-2.314052
1002.570312,-11.288299,-10.757357,-15.217435,-9.726132
1002.574219,-14.248030,-8.934830,-10.965064,-11.539355
1002.578125,-11.316055,-11.279860,-7.305688,-10.844876
1002.582031,-13.802630,-17.959852,-10.165626,-8.685394
1002.585938,-8.141075,-7.550245,-8.839297,-0.196076
1002.589844,-5.837841,-3.757018,-7.905492,-5.818305
1002.593750,-6.833029,-0.675392,-2.374180,-1.827600
1002.597656,0.983371,-4.889239,0.990301,3.068887
1002.601562,6.396008,2.885274,-8.865795,3.322216
1002.605469,8.852605,8.364688,-4.189756,3.775722
1002.609375,8.523809,0.132347,8.303909,3.592148
1002.613281,13.921063,8.084054,5.009664,9.171308
1002.617188,14.241248,11.222304,3.663740,10.877672
1002.621094,10.698080,5.693927,11.165110,12.870721
1002.625000,10.421706,20.755423,14.128377,15.426838
1002.628906,10.437734,-3.861384,5.183799,12.368091
1002.632812,16.148602,10.925902,1.828658,14.667465
1002.636719,0.644028,2.102335,12.846844,6.428317
1002.640625,8.176207,2.579069,0.871559,5.709186
1002.644531,10.850976,4.739951,-6.614158,5.373079
1002.648438,5.841217,-0.381710,4.422400,6.394442
1002.652344,-6.837690,-2.991734,-1.789801,4.638107
1002.656250,-10.649594,-5.886461,-6.914327,-0.388653
1002.660156,-8.250439,-5.683266,-10.541831,-6.081883
1002.664062,-6.242396,-3.031774,-6.339737,-12.258891
1002.667969,-6.493264,-13.543578,-14.042608,-5.204126
1002.671875,-13.386001,-17.474910,-10.050648,-9.701797
1002.675781,-8.380923,-7.815026,-13.871126,-8.055534
1002.679688,-9.775505,-13.330721,-5.293531,-0.585971
1002.683594,-3.444372,-10.130103,-4.135326,-12.746124
1002.687500,-8.079789,-7.263689,-5.353012,0.414787
1002.691406,-8.710366,-5.102569,-4.790889,-5.226801
1002.695312,-4.007615,0.878376,1.141738,5.791315
1002.699219,-5.043458,-1.661686,3.342366,-2.953893
1002.703125,-0.398264,4.248852,5.703643,-0.089327
1002.707031,5.182853,7.677584,5.144384,8.654074
1002.710938,15.691583,7.734070,14.837553,4.758614
1002.714844,8.960093,7.166359,10.495802,11.203947
1002.718750,13.087513,10.878482,10.836859,12.008423
1002.722656,7.751242,4.243131,8.600791,8.454479
1002.726562,9.852934,10.466009,4.014087,7.705415
1002.730469,10.823519,8.397360,7.486689,6.115235
1002.734375,9.025006,10.499033,6.989573,0.887540
1002.738281,4.882193,4.613512,8.919713,6.688847
1002.742188,8.866798,-1.747626,8.794355,8.219745
1002.746094,10.600702,0.383860,9.591161,-3.667526
1002.750000,9.841381,1.315020,7.330434,-3.481311
1002.753906,-6.761060,-6.707635,-2.307308,-1.243919
1002.757812,-7.406252,-5.630206,-5.282542,-3.168312
1002.761719,-6.508113,-7.403241,-3.350247,-13.442511
1002.765625,-13.827894,-9.113911,-7.215954,-8.747286
1002.769531,-12.922605,-9.196847,-9.950209,-5.592412
1002.773438,-15.638365,-16.115177,-14.667118,-10.730235
1002.777344,-7.124842,-3.463047,-7.376746,-10.385324
1002.781250,-2.680059,-5.596009,-12.439669,-6.727737
1002.785156,-11.950701,-5.814218,-11.784138,-4.246804
1002.789062,-2.282102,-1.010323,-14.567335,-2.233636
1002.792969,-6.628032,-17.435673,-0.273092,-5.040568
1002.796875,-0.757894,2.745693,-7.033352,1.379848
1002.800781,3.256114,3.006576,-0.082775,5.331198
1002.804688,1.104849,6.819497,2.030196,8.408896
1002.808594,-0.943951,5.897558,6.801276,4.032135
1002.812500,6.153302,12.538761,4.128757,13.551275
1002.816406,16.083404,5.566766,14.544808,-4.515709
1002.820312,13.807254,7.100342,2.022015,17.024434
1002.824219,10.492846,14.560173,6.648782,12.227658
1002.828125,14.325586,6.229543,12.590167,2.201212
1002.832031,4.579504,9.840448,5.847333,10.961969
1002.835938,11.385604,7.883524,7.742508,5.141484
1002.839844,2.027246,5.036985,10.145132,11.666432
1002.843750,4.705445,4.700975,5.588157,0.349999
1002.847656,1.069989,-0.952258,0.619828,-5.111030
1002.851562,-1.563529,-1.050147,-3.750327,4.179355
1002.855469,1.138703,-5.684339,-5.518793,-6.139257
1002.859375,-12.979301,-3.564138,-0.339613,-8.662352
1002.863281,-4.116907,-2.943767,-12.340668,-6.616384
1002.867188,-4.797111,-7.028634,-5.265536,-16.698639
1002.871094,-12.312459,-13.435961,-7.865133,-8.294375
1002.875000,-16.224315,-8.507605,-9.246342,-9.027669
1002.878906,-8.360499,-12.337471,-11.723342,-12.097877
1002.882812,-8.020267,-4.139642,-14.017850,-6.917004
1002.886719,-14.823325,-7.114611,-11.504156,-13.145723
1002.890625,-3.487674,-15.305964,-5.740455,-5.507953
1002.894531,-8.029188,-0.290264,-1.261047,-9.828012
1002.898438,0.952225,3.963959,1.161758,3.484721
1002.902344,-3.826524,-0.030448,-3.528235,1.129803
1002.906250,8.701793,8.079661,-1.052626,5.886855
1002.910156,-1.445283,13.524973,15.704014,3.451993
1002.914062,2.426509,10.602548,2.869106,1.332601
1002.917969,11.649617,6.892862,10.419456,5.511085
1002.921875,6.591699,16.648232,5.271216,7.590944
1002.925781,5.305323,12.546371,12.209490,11.229012
1002.929688,15.490278,13.078881,15.677869,10.315140
1002.933594,11.676730,3.643652,9.245336,8.292784
1002.937500,-0.423840,8.502168,5.548070,3.123118
1002.941406,7.138763,6.275525,1.162403,5.944654
1002.945312,2.925865,9.552430,4.757872,6.876793
1002.949219,-7.996998,4.324187,3.798682,3.747273
1002.953125,2.196478,-0.011898,-5.723314,-5.466477
1002.957031,-1.297072,1.439204,-13.551647,-7.816022
1002.960938,-8.455786,-8.095098,2.354915,-6.129350
1002.964844,-1.559252,-13.002241,-11.427469,-9.183095
1002.968750,-9.621795,-15.051684,-6.648866,-8.372542
1002.972656,-8.384045,-11.806245,-10.258868,-15.734856
1002.976562,-7.635759,-10.233067,-14.542172,-3.489019
1002.980469,-8.674913,-12.805209,-8.673554,-14.560630
1002.984375,-4.694806,-15.662320,-8.286134,-8.218406
1002.988281,-5.538678,-12.224662,-5.705886,-8.264390
1002.992188,0.440885,-5.584507,-7.360024,-1.265369
1002.996094,-0.605291,1.297483,-6.025222,-1.069544
1003.000000,-2.591972,3.045745,4.986711,3.613303
1003.003906,8.303354,-0.377490,3.251233,2.308738
1003.007812,10.442262,0.491161,7.707131,6.082182
1003.011719,8.456335,4.751514,2.803668,-4.190889
1003.015625,5.322757,11.258296,6.739154,7.543139
1003.019531,7.652211,13.828539,8.721278,3.678164
1003.023438,6.713656,11.034938,10.780860,11.068400
1003.027344,15.999613,15.522135,9.555353,8.473472
1003.031250,10.188481,0.829076,10.908069,19.322814
1003.035156,2.069414,3.462604,5.272321,10.407918
1003.039062,0.721481,2.138113,9.764873,4.367647
1003.042969,2.497832,3.563070,5.130573,-1.454405
1003.046875,0.105816,4.556683,2.740135,1.143833
1003.050781,-7.205186,-6.732468,-6.499087,-8.338817
1003.054688,-0.113651,8.933896,-5.688888,-0.273467
1003.058594,-0.356058,-8.129632,-3.074188,-3.592523
1003.062500,-12.792905,0.490272,-1.687519,-3.898943
1003.066406,-6.660589,-5.104793,-8.962558,-15.445229
1003.070312,-11.140095,-3.711440,-3.735058,-7.715526
1003.074219,-11.534346,-7.441972,-5.246020,-12.383572
1003.078125,-16.204381,-16.240441,-7.143839,-11.063785
1003.082031,-13.866833,-9.100250,-11.879026,-10.358395
1003.085938,-9.284023,-4.980603,-5.383435,-4.619103
1003.089844,-5.829575,-7.539298,-11.526847,-7.881309
1003.093750,-6.071137,-1.601293,-6.650996,-8.729495
1003.097656,0.907883,-3.210553,3.687502,2.684857
1003.101562,5.035703,0.872236,3.128349,-3.370415
1003.105469,3.060870,11.834332,-5.180404,3.614691
1003.109375,2.995235,11.615120,-2.931675,1.873075
1003.113281,10.704251,5.080521,8.285609,17.375121
1003.117188,9.012084,12.461304,10.920353,3.811377
1003.121094,5.412463,5.055292,6.797356,12.524549
1003.125000,10.334953,4.988703,9.292855,1.041327
1003.128906,7.228038,12.630649,19.582528,22.308954
1003.132812,13.744270,13.755982,10.258887,7.538729
1003.136719,0.884861,10.529468,13.197992,6.551154
1003.140625,2.693453,12.079050,4.564269,7.638891
1003.144531,3.796633,2.967390,6.934471,0.050502
1003.148438,-1.676941,0.329548,-0.490253,3.823494
1003.152344,-2.242427,-1.106454,-4.372459,-3.139705
1003.156250,-1.555465,-4.555679,-1.023382,-1.334888
1003.160156,-3.305453,-4.468368,-16.088848,-7.230696
1003.164062,-2.011434,-6.997041,-7.746378,-3.213353
1003.167969,-10.161060,-10.019455,-10.694663,-9.133106
1003.171875,-12.400519,-5.891975,-8.907480,-11.741392
1003.175781,-9.940340,-9.087709,-8.156140,-6.303620
1003.179688,-4.242039,-11.575832,-15.098983,-11.720729
1003.183594,-13.351748,-0.878459,-21.698126,-5.418395
1003.187500,-7.369865,-14.692535,-6.238371,-10.760030
1003.191406,-4.485874,1.220828,-12.968731,-4.900835
1003.195312,3.447016,-4.576379,-3.974467,-5.579361
1003.199219,1.789800,-0.298427,-1.682310,-3.704017
1003.203125,-0.777571,5.714714,1.423070,1.792596
1003.207031,-3.423206,6.716745,1.947852,12.480442
1003.210938,8.991109,-4.495503,10.320539,3.146027
1003.214844,8.451317,9.400002,6.832322,14.920429
1003.218750,6.701239,13.522946,8.657796,8.313582
1003.222656,11.671421,6.041389,5.447365,3.727953
1003.226562,3.908631,7.790306,11.978731,13.072529
1003.230469,7.822251,9.480140,8.163757,5.399241
1003.234375,5.350437,14.818212,4.996107,4.046455
1003.238281,9.602899,0.280811,6.398969,-0.834126
1003.242188,7.805448,6.835808,-3.473283,-0.861470
1003.246094,-0.526829,3.547000,7.374834,-0.759823
1003.250000,-1.579516,0.020194,2.056461,-0.852075
1003.253906,1.724079,3.461061,-6.181467,3.779277
1003.257812,-0.483423,-5.379273,-1.604720,-3.249265
1003.261719,-0.520142,-8.297536,-1.669862,-10.402434
1003.265625,-3.993083,-17.298247,-11.145655,-14.536798
1003.269531,-10.467648,-15.570727,-4.811080,-10.283329
1003.273438,-10.508471,-2.806832,-10.211703,-8.089113
1003.277344,-17.054181,-17.330529,-10.524518,-12.494211
1003.281250,-9.014643,-5.773592,-8.125143,-0.707352
1003.285156,-13.296306,-6.186161,-8.682044,-3.826340
1003.289062,-5.633133,-2.118173,-5.891718,-4.714548
1003.292969,1.497042,-6.089146,-0.380957,-3.758846
1003.296875,2.444707,6.394584,-10.871604,2.341475
1003.300781,-1.288689,2.701173,3.778485,-4.174992
1003.304688,1.467006,7.582608,0.739272,0.154213
1003.308594,-5.125428,10.709220,4.131784,3.749961
1003.312500,9.907297,7.777707,7.883702,9.349261
1003.316406,12.441120,8.311376,6.730496,10.889281
1003.320312,3.341506,8.355088,13.878720,9.463253
1003.324219,10.997325,8.140027,16.590777,13.137901
1003.328125,13.063171,13.059035,11.923722,2.279081
1003.332031,12.797030,2.945702,5.888391,6.323643
1003.335938,12.745414,2.923996,11.967474,7.589358
1003.339844,4.429024,0.186338,6.263119,10.779810
1003.343750,2.146871,-1.778232,0.631268,8.516965
1003.347656,7.423367,0.070356,3.470952,-7.658127
1003.351562,5.425381,2.066357,0.485164,-3.267445
1003.355469,-13.518385,-6.708979,-3.156084,-2.968639
1003.359375,-11.258371,-6.857931,-7.778327,-3.362741
1003.363281,-0.951440,-3.594330,-11.157422,-13.256877
1003.367188,-12.029365,-8.952180,-7.299242,-23.194906
1003.371094,-11.672807,-12.156126,-7.359142,-10.049541
1003.375000,-11.377491,-4.093451,-7.214707,-8.193859
1003.378906,-6.374846,-12.788063,-8.589717,-8.930384
1003.382812,-11.005037,-4.996529,-8.631893,-6.100282
1003.386719,-9.091147,-4.628964,-6.861028,-8.558714
1003.390625,-1.178897,-7.729177,-4.668860,-9.280718
1003.394531,-10.824784,-5.395560,-0.808256,0.613905
1003.398438,-2.532238,-4.339661,-3.936236,-1.778156
1003.402344,-1.060431,-1.875243,1.731890,4.507846
1003.406250,7.507435,11.223016,-0.455383,1.618078
1003.410156,9.417267,-1.205138,3.406659,5.707111
1003.414062,5.856375,1.438046,4.457880,9.305282
1003.417969,2.965586,10.782696,13.179345,6.177550
1003.421875,13.141722,10.870287,11.344432,3.437809
1003.425781,9.680475,1.261666,5.688969,10.503666
1003.429688,11.281659,8.082642,12.869470,19.855875
1003.433594,6.445205,9.286821,11.169139,11.678934
1003.437500,5.922182,9.227961,7.048165,4.583381
1003.441406,-6.650282,6.870165,8.332290,9.396515
1003.445312,4.277611,0.320405,9.083096,2.493923
1003.449219,3.513242,-2.340146,3.515125,-2.306420
1003.453125,-4.147660,2.688251,1.081129,-2.803451
1003.457031,1.056293,-0.234800,-1.333643,-1.341801
1003.460938,-12.618801,-5.947974,-9.717811,-8.028816
1003.464844,-11.968799,-4.933037,-9.918801,-10.086287
1003.468750,-10.096797,-16.948403,-3.405933,-10.970974
1003.472656,-8.646013,-9.631205,-6.817820,-9.753523
1003.476562,-18.236564,-12.763335,-13.231639,0.467889
1003.480469,-12.139921,-9.380320,-4.284246,-16.209503
1003.484375,-8.493287,-10.362319,-14.375166,-5.702341
1003.488281,-4.092870,2.001519,-2.216112,-6.219482
1003.492188,-0.445215,-0.889509,-6.198989,-5.378387
1003.496094,-9.135253,-1.306605,-2.732865,4.859653
1003.500000,-1.989029,7.187859,1.370352,2.348686
1003.503906,-0.562644,3.048213,1.431253,0.846106
1003.507812,12.887871,6.469841,3.852186,1.542741
1003.511719,0.916770,9.278916,5.164952,10.707730
1003.515625,7.113753,8.640668,17.542492,5.290201
1003.519531,16.978251,10.327902,9.870072,12.041912
1003.523438,7.623235,19.237649,15.947966,11.429131
1003.527344,8.809839,11.550343,13.202262,15.302354
1003.531250,6.791600,8.799908,10.363926,5.416976
1003.535156,14.523102,8.960761,10.131858,5.010096
1003.539062,4.646362,1.738496,-0.385799,0.109736
1003.542969,3.772754,7.622283,-0.799567,10.019037
1003.546875,4.815421,12.034215,-4.849554,-3.973956
1003.550781,-1.507561,-6.528852,0.694945,1.364521
1003.554688,-7.521370,-0.555776,-5.932485,1.305684
1003.558594,-7.760806,-3.706130,-11.491557,-1.378665
1003.562500,-8.711054,-3.323046,-7.999850,-7.541220
1003.566406,-2.144814,-5.437776,-10.178129,-14.276821
1003.570312,-2.860987,-14.012600,-9.001752,-9.052341
1003.574219,-9.075658,-12.364338,-13.744538,-6.996915
1003.578125,-6.166384,-6.507522,-12.169478,-8.053705
1003.582031,-11.917676,-7.195787,-11.462928,-3.588080
1003.585938,-12.027211,-8.868230,-10.335738,-15.870463
1003.589844,1.539596,-11.714252,-0.614928,-9.260505
1003.593750,-8.230519,-1.920704,-0.869711,-5.932327
1003.597656,-1.448687,-1.837548,5.367475,3.251504
1003.601562,4.590826,3.862244,-0.338759,7.887083
1003.605469,0.012364,-3.350570,7.248360,6.862395
1003.609375,8.951520,4.096608,5.604290,2.467872
1003.613281,-6.454791,2.374651,5.868728,6.476512
1003.617188,10.550018,7.626799,3.579371,6.723318
1003.621094,14.497544,7.355008,11.575144,10.092179
1003.625000,13.641081,15.045004,10.554504,15.272053
1003.628906,11.246554,4.953271,13.808124,6.422460
1003.632812,9.130150,11.066673,7.507403,12.159898
1003.636719,9.495551,3.274311,12.482121,11.896600
1003.640625,8.890251,-2.555294,7.121719,-0.165015
1003.644531,-1.351792,-2.111050,0.133013,8.911690
1003.648438,2.802355,-0.158894,-1.088770,-0.919775
1003.652344,-0.639816,-0.450166,-13.832020,0.043509
1003.656250,-8.062773,-7.093462,-4.425640,-2.393047
1003.660156,-6.173251,-1.797079,-3.749717,-5.090467
1003.664062,-14.467182,-16.336111,-11.267152,-12.800446
1003.667969,-6.583611,-3.872777,-13.490194,-8.438142
1003.671875,-11.478887,-10.877844,-12.888597,-12.798889
1003.675781,-4.952146,-10.144819,-10.887195,-6.354515
1003.679688,-9.894403,-4.192808,-11.231549,-7.562820
1003.683594,-9.460260,-7.465885,-8.926991,-1.910448
1003.687500,-3.210858,-4.063094,-1.847494,-15.710347
1003.691406,-5.292071,0.199118,-4.037302,-8.659695
1003.695312,-3.528302,0.092170,-2.361320,-7.868209
1003.699219,9.082806,-6.862892,-3.719831,2.002836
1003.703125,-1.425029,2.276248,1.655398,-5.106472
1003.707031,9.081543,6.193102,-1.545588,1.507073
1003.710938,9.971597,9.465217,9.065579,12.384444
1003.714844,4.738783,2.337349,5.576304,22.174588
1003.718750,6.997146,8.813013,5.798556,10.982126
1003.722656,13.104064,11.472274,7.017198,16.411364
1003.726562,8.701188,16.895919,7.438455,16.892513
1003.730469,11.070150,1.944589,7.733206,13.072024
1003.734375,9.071201,3.413142,6.161751,5.257174
1003.738281,6.902703,7.377032,6.934700,-1.314931
1003.742188,3.989574,-0.307023,0.820484,3.776186
1003.746094,-0.728516,7.657007,4.594119,6.126236
1003.750000,-0.148671,-3.810794,-1.187420,-4.768252
1003.753906,1.265067,-6.363826,-2.899331,-12.187773
1003.757812,-6.333734,-4.398391,-3.648388,-8.659598
1003.761719,-0.958201,-9.171905,-10.421891,-9.262103
1003.765625,-13.015638,-6.049852,-15.217405,-8.746917
1003.769531,-5.593952,-13.579250,-8.471303,1.185416
1003.773438,-8.760358,-10.392612,-12.172612,-12.191676
1003.777344,-7.974618,-11.753962,-9.186901,-14.160479
1003.781250,0.208742,-13.073053,-15.065434,-11.680735
1003.785156,-16.384473,-4.548099,-8.753942,-13.716279
1003.789062,-4.214146,1.913282,-6.345301,-3.612423
1003.792969,-12.173606,-0.504876,3.018372,-3.744295
1003.796875,-2.676603,-5.459575,1.675597,-3.705999
1003.800781,-0.764561,4.850482,-0.243462,-5.997957
1003.804688,6.000312,0.578516,1.413759,8.011251
1003.808594,5.927932,3.342001,11.521346,2.910985
1003.812500,12.177143,6.253417,8.213973,10.330450
1003.816406,4.757622,13.249816,10.925940,5.037860
1003.820312,11.815459,7.395094,12.276211,12.265670
1003.824219,7.855965,17.036437,17.562087,9.848789
1003.828125,10.932296,5.796042,7.885800,15.040986
1003.832031,6.651558,7.940354,8.609842,3.132262
1003.835938,7.819278,5.445156,8.023503,4.653377
1003.839844,5.839895,5.618644,7.009967,5.972126
1003.843750,2.950099,5.494225,8.354591,3.519110
1003.847656,0.181638,5.139102,0.404595,1.557624
1003.851562,-5.632626,1.999110,-9.929861,1.685965
1003.855469,-1.649787,-4.453229,-8.576926,-2.898302
1003.859375,-3.920986,-8.284053,-3.978243,-12.704089
1003.863281,-4.624319,-6.976564,-8.741587,0.345825
1003.867188,-4.319182,-17.371922,-8.362890,-14.267020
1003.871094,-12.518147,-8.965520,-3.493530,-8.913753
1003.875000,-11.658583,-13.469100,-7.720831,-4.183634
1003.878906,-14.836739,-9.369274,-12.561784,-9.984616
1003.882812,-10.171341,-4.647530,-9.239497,-8.447050
1003.886719,-7.378514,-4.991318,-3.537631,-8.001551
1003.890625,-4.680174,-5.042519,-11.318720,-7.809511
1003.894531,-10.744057,-4.732990,-7.341425,1.477177
1003.898438,9.851445,3.313526,-2.944217,-2.004121
1003.902344,-3.524192,2.655622,0.645839,6.337429
1003.906250,4.957930,3.381164,15.970838,4.078196
1003.910156,11.857705,5.438716,3.648489,5.255696
1003.914062,1.249180,13.184046,10.856200,6.195448
1003.917969,6.889957,11.367575,8.402944,8.135099
1003.921875,6.151200,10.228788,2.556907,6.800058
1003.925781,4.482415,14.208531,10.840189,12.809074
1003.929688,10.456690,8.112454,14.044743,6.331425
1003.933594,8.478771,12.550510,16.284091,12.331712
1003.937500,10.287407,2.520407,1.647517,9.781925
1003.941406,6.919520,4.322214,7.333971,1.795158
1003.945312,1.548853,4.784271,1.500993,10.752534
1003.949219,4.451363,-6.613228,0.773668,1.940979
1003.953125,2.114905,-0.701053,-3.918040,-3.708551
1003.957031,-10.822032,-0.427671,-5.620718,2.944323
1003.960938,-16.549207,-10.459709,-2.136463,-4.677033
1003.964844,-13.237774,-8.095087,-8.952221,-3.872164
1003.968750,-7.594976,-3.968647,-4.307731,-5.564641
1003.972656,-9.082536,-6.038039,-6.902636,-9.901727
1003.976562,-2.307126,-1.128613,-10.544374,-9.963746
1003.980469,-12.336105,-12.376033,-12.740880,-3.941991
1003.984375,-7.263905,-12.490521,-12.154609,-10.429032
1003.988281,-6.804686,-2.878178,-7.450847,-8.868042
1003.992188,-1.541790,4.506764,-1.138870,-4.275178
1003.996094,1.020729,0.731424,3.420146,-2.242943
1004.000000,-7.733531,-2.014486,-6.570612,-3.218943
1004.003906,5.153067,6.253115,-2.690529,-4.596678
1004.007812,8.895772,2.920195,2.849922,8.081545
1004.011719,9.500538,12.496376,4.728158,9.478961
1004.015625,4.073313,7.732315,7.612856,6.286554
1004.019531,5.964158,5.709195,10.888759,4.984355
1004.023438,10.548123,9.633588,10.784049,19.169132
1004.027344,4.029348,8.564841,12.607950,9.592340
1004.031250,12.652623,9.372896,12.530866,5.192041
1004.035156,3.663177,10.880926,3.835467,6.108067
1004.039062,9.402764,4.772674,9.210466,8.085176
1004.042969,12.685508,3.978831,1.981840,7.451578
1004.046875,1.253947,-0.024439,4.376731,-2.668471
1004.050781,1.921410,7.051798,1.533901,-8.088917
1004.054688,-4.010121,-3.994835,-10.882834,-7.511558
1004.058594,-1.858417,-3.131767,-2.248215,-3.580484
1004.062500,-3.208574,-7.783572,-8.186660,-14.518257
1004.066406,-3.602031,-20.160640,-9.656051,-9.710240
1004.070312,-13.003853,-3.475886,-10.039105,-11.407181
1004.074219,-15.735686,-7.289543,-13.215305,-12.843712
1004.078125,-8.224779,-5.030087,-13.620895,-4.625935
1004.082031,0.192919,-11.618741,-7.418663,-11.478918
1004.085938,-8.846382,-9.696066,-4.834346,-8.008663
1004.089844,-9.433674,-10.315176,-1.048369,-5.955039
1004.093750,-3.270907,-2.139898,1.167014,-1.858074
1004.097656,-5.674331,3.366975,-1.274830,-8.064606
1004.101562,-1.661641,0.588738,3.753516,-0.435884
1004.105469,2.298787,-4.690344,-4.073301,0.395769
1004.109375,4.057907,2.642974,7.909113,1.676420
1004.113281,8.220171,5.341748,0.392346,8.746945
1004.117188,10.202576,3.993493,4.382537,5.961234
1004.121094,6.277000,10.787434,16.929043,7.152213
1004.125000,9.099223,8.385496,-1.449190,9.400837
1004.128906,3.770362,4.276099,4.075054,12.548816
1004.132812,13.273781,15.583561,12.348856,10.272595
1004.136719,2.688929,4.478528,9.536904,1.845102
1004.140625,-3.068126,10.519944,3.621867,5.854266
1004.144531,3.219181,-1.640018,-1.835871,1.100477
1004.148438,-8.506398,0.048861,1.062117,2.145884
1004.152344,-3.590149,-1.729733,1.283509,-3.837881
1004.156250,-2.520066,-8.049233,0.203625,-0.251228
1004.160156,-10.091238,0.546735,-9.874889,-4.984740
1004.164062,-18.057413,-8.095523,-7.127670,-9.712203
1004.167969,-7.219072,-16.046426,-6.404722,-2.639943
1004.171875,-4.214411,-9.401359,-15.625169,-10.643115
1004.175781,-6.104955,-10.800331,-14.058796,-8.008319
1004.179688,-16.176296,-14.394473,-12.953087,-17.656789
1004.183594,-7.435932,-1.535951,-3.766033,-7.704027
1004.187500,1.804846,-12.591552,-4.087062,-11.112058
1004.191406,-1.808737,-6.645973,-10.289980,-4.374283
1004.195312,0.853073,-8.114421,-1.540914,-1.741334
1004.199219,6.553124,4.465726,-0.559475,-0.835852
1004.203125,3.209074,7.467870,-5.148772,1.571839
1004.207031,6.237008,-0.152937,-1.204331,4.156838
1004.210938,2.814319,1.050600,9.167856,4.901115
1004.214844,11.307155,13.795155,7.675387,12.763282
1004.218750,5.911090,8.669008,6.666561,9.110294
1004.222656,9.051090,15.855966,11.538497,9.829622
1004.226562,4.272923,5.024950,4.743934,14.259523
1004.230469,18.341542,11.419155,10.310871,10.107746
1004.234375,8.444044,6.638023,12.926749,2.442250
1004.238281,3.630847,5.306627,5.154319,8.579986
1004.242188,11.558725,6.895117,2.819258,0.688798
1004.246094,7.153320,1.227780,3.049842,1.420684
1004.250000,0.385847,0.952419,9.554837,1.412640
1004.253906,-2.575402,1.167506,-7.064433,1.287626
1004.257812,-1.643757,1.519993,-3.227975,-5.678680
1004.261719,-11.884216,-8.556068,-4.938508,-12.605249
1004.265625,-7.555005,-5.100654,-9.514134,-5.478886
1004.269531,-6.656632,-9.490638,-6.461178,-14.500955
1004.273438,-10.865756,-12.673450,-7.327056,-2.510839
1004.277344,-13.832046,-12.870936,-11.318918,-13.261566
1004.281250,-10.740506,-8.738482,-10.754674,-5.869900
1004.285156,-8.737202,-5.505734,-7.169474,-8.677848
1004.289062,-7.863099,-7.580444,-5.967088,0.102919
1004.292969,-8.915722,-5.352847,-8.314407,-6.025416
1004.296875,-8.306419,-1.239393,0.372191,0.853292
1004.300781,1.674538,2.051755,4.742644,3.747830
1004.304688,6.522327,0.561690,1.065021,8.060523
1004.308594,6.039697,5.470335,8.432748,-2.496203
1004.312500,2.299490,9.328852,6.868491,9.663222
1004.316406,10.420026,12.475705,5.922089,8.377965
1004.320312,12.379593,8.755727,2.032677,14.066458
1004.324219,15.338534,7.878662,8.610812,12.792189
1004.328125,3.751824,13.150085,12.073156,4.340550
1004.332031,5.765606,14.702898,10.179278,3.571382
1004.335938,9.531869,15.186451,3.123839,5.774156
1004.339844,13.232485,14.748763,4.428356,7.458972
1004.343750,5.197076,6.135633,1.565065,-2.376498
1004.347656,-3.394672,0.431594,3.857042,0.726295
1004.351562,0.882719,1.172217,1.148660,-10.474722
1004.355469,-1.209926,-3.153888,-11.088944,7.325393
1004.359375,-1.680267,3.091965,-11.336105,-4.955915
1004.363281,-9.635298,-6.560439,-8.435793,-9.359195
1004.367188,-6.511761,-13.458044,-15.127142,-13.473371
1004.371094,-10.893961,-5.595213,-10.869950,-10.155806
1004.375000,0.765811,-6.366559,-6.177250,-11.305592
1004.378906,-10.503370,-5.902972,-7.550957,-7.397614
1004.382812,-7.752903,-12.861714,-18.772096,-7.824321
1004.386719,-9.069120,-6.027422,-0.223668,-5.770572
1004.390625,-7.119743,-5.519017,-2.139812,-10.973199
1004.394531,-4.803947,-2.147497,-1.721944,-6.487144
1004.398438,-5.103665,-1.059230,-3.612886,1.740400
1004.402344,1.612359,-0.518719,1.168617,1.066633
1004.406250,5.854689,1.846838,2.355938,7.105827
1004.410156,9.553485,10.206955,13.567886,6.922397
1004.414062,11.872259,7.021794,8.509292,3.609399
1004.417969,0.912862,11.482273,11.361136,10.830628
1004.421875,2.822014,5.733628,4.765782,12.076164
1004.425781,19.661798,8.311780,13.775365,7.856009
1004.429688,8.069110,11.042274,10.464182,3.255262
1004.433594,6.369294,11.534731,6.925383,3.665888
1004.437500,11.722973,1.016742,9.141454,10.327254
1004.441406,5.054181,5.743878,2.159689,7.676278
1004.445312,5.351712,-2.687035,-1.682865,2.128652
1004.449219,0.445383,9.395962,0.058512,-6.647323
1004.453125,4.836387,-6.301946,6.750029,-6.856697
1004.457031,0.178972,-6.549973,-3.844997,-4.197858
1004.460938,-8.618024,-12.063426,4.877664,4.836019
1004.464844,-13.051374,-3.433846,-8.378636,-5.399489
1004.468750,-10.147443,-14.190016,-10.242286,-10.696210
1004.472656,-3.824350,-10.890784,-4.826269,-8.276294
1004.476562,-16.046776,-12.201905,-9.311096,-15.315633
1004.480469,-11.850718,-12.738859,-10.390438,-1.669493
1004.484375,-6.787523,-13.853095,-7.025125,-11.622164
1004.488281,-11.637472,-6.122167,-8.888886,-3.900241
1004.492188,-3.897122,-8.251067,0.278174,-10.109457
1004.496094,-2.150525,-3.627088,-4.469619,1.610911
1004.500000,2.631318,1.150524,1.694766,-5.404107
1004.503906,0.673967,1.887905,1.452831,-0.419975
1004.507812,12.360855,7.698518,0.851810,8.049847
1004.511719,2.297769,6.543235,4.032035,6.548816
1004.515625,12.208585,5.067105,2.898856,3.722113
1004.519531,16.937016,5.294662,12.706868,4.111187
1004.523438,15.160185,16.566893,15.712430,12.422803
1004.527344,14.402324,8.984834,10.892067,5.169063
1004.531250,11.007457,16.551687,5.638068,11.312963
1004.535156,5.450923,9.370123,7.264141,8.399761
1004.539062,-0.530330,-0.007818,3.206628,5.554615
1004.542969,10.364256,-3.269409,6.663891,5.521701
1004.546875,-0.826622,1.617687,4.814563,-0.696979
1004.550781,4.993251,1.304459,2.570276,-0.871449
1004.554688,-0.763384,-4.099225,-6.863212,-7.617356
1004.558594,-6.858435,-8.327112,-6.318400,-7.791757
1004.562500,-4.089254,-8.459192,-7.722417,-2.488270
1004.566406,-4.270832,-1.142152,-11.571657,-9.006837
1004.570312,-9.672547,-11.842233,-7.241010,-7.929315
1004.574219,-4.150647,-13.626956,-4.651537,-9.802678
1004.578125,-10.852536,-12.548402,-5.411487,-5.801432
1004.582031,-4.744756,-10.246411,-6.664767,-3.071100
1004.585938,-7.047013,-0.505254,-8.440277,-3.932447
1004.589844,-1.767228,-8.022263,-7.906713,-9.807924
1004.593750,-4.600923,-0.269248,-4.322180,-6.345119
1004.597656,-6.559801,-3.616697,2.579446,-2.698321
1004.601562,3.401635,2.200400,12.062112,-0.851662
1004.605469,0.106692,9.863446,-3.755069,4.671316
1004.609375,3.472664,16.776583,5.755865,2.081982
1004.613281,7.973322,4.501972,7.565688,2.682783
1004.617188,3.346775,7.127449,10.351808,15.466447
1004.621094,12.451609,13.344489,11.269033,13.364892
1004.625000,10.403014,15.719267,9.562118,10.677479
1004.628906,10.881850,3.847374,9.679514,12.398732
1004.632812,5.227074,8.438703,4.103456,6.652146
1004.636719,12.192296,7.033548,8.115775,9.584616
1004.640625,3.142286,3.384655,5.481642,6.910016
1004.644531,3.604238,5.410833,5.869944,0.589476
1004.648438,1.317160,2.533059,3.181973,-8.611909
1004.652344,0.206092,-1.537250,7.862312,-2.080708
1004.656250,-4.799580,-5.418338,-6.771737,-1.501374
1004.660156,-7.408262,-5.635761,-9.512647,-8.589123
1004.664062,-2.282104,-8.936029,-8.881345,-6.607470
1004.667969,-8.016446,-7.128399,-3.605605,-7.517528
1004.671875,-9.261272,-5.821275,-12.202492,-10.126305
1004.675781,-4.754536,-9.992879,-16.366488,-9.334174
1004.679688,-21.766686,-11.852623,-13.983348,-7.096219
1004.683594,-9.394371,-9.904049,-18.118007,-11.238488
1004.687500,-4.752527,-11.986675,-6.007808,-14.826927
1004.691406,-2.647430,-12.851778,-8.402964,-3.181797
1004.695312,-2.240064,1.653986,-4.327914,0.040942
1004.699219,-9.103582,2.660968,5.517133,1.256715
1004.703125,-1.321823,4.590527,-0.899700,5.013087
1004.707031,11.854398,2.029224,2.925100,4.880807
1004.710938,2.317943,1.544216,4.736220,11.756869
1004.714844,6.200418,10.475860,12.698410,12.448040
1004.718750,8.272349,15.022974,10.494492,10.418854
1004.722656,8.471013,12.309288,12.732882,10.051085
1004.726562,5.935880,8.981869,13.075106,4.793558
1004.730469,6.892165,3.619729,4.594255,11.551952
1004.734375,7.345168,15.109187,5.190617,4.413787
1004.738281,7.670006,6.354341,12.033316,1.444747
1004.742188,4.391952,0.360181,9.889088,6.139884
1004.746094,6.745119,4.593578,-5.264007,1.224014
1004.750000,1.202416,-0.157101,1.496544,1.477659
1004.753906,6.551312,-1.138057,-2.949094,-3.647356
1004.757812,-1.979898,-8.118302,-1.238103,-0.063650
1004.761719,-10.067618,-10.855279,-13.887867,-9.854397
1004.765625,-4.716042,-6.787695,-7.052859,-10.216883
1004.769531,-9.261786,-15.666229,-11.404303,-10.223220
1004.773438,-11.685073,-8.762188,-6.573901,-11.467703
1004.777344,-6.709344,-13.101696,-5.028506,-7.665173
1004.781250,-6.599359,-9.562533,-5.378979,-13.178575
1004.785156,-7.341162,-12.225500,-10.574015,-7.682547
1004.789062,-5.619916,-3.095486,-11.792603,-1.960065
1004.792969,-1.541701,-0.930892,-0.660862,-7.352941
1004.796875,0.197164,-1.195305,-3.009268,3.020421
1004.800781,2.315901,-3.358586,1.088814,3.299374
1004.804688,3.661379,5.676282,5.311428,6.473488
1004.808594,1.724145,3.978495,-5.335295,7.742638
1004.812500,13.392534,11.720318,3.903757,6.397627
1004.816406,10.970824,8.382067,5.439466,14.813924
1004.820312,13.071322,7.879378,8.503826,6.031911
1004.824219,6.412831,13.577187,14.707499,14.509615
1004.828125,14.946712,10.225769,14.559456,5.555005
1004.832031,7.753242,5.402558,12.743880,9.329516
1004.835938,9.375633,9.578769,3.154436,5.310156
1004.839844,-2.827194,-4.010675,10.200628,9.696992
1004.843750,4.786401,1.351030,11.784656,2.371256
1004.847656,2.371685,2.773250,-0.371667,7.570413
1004.851562,4.371890,-0.234482,-0.307730,-5.404428
1004.855469,-4.245975,-1.262902,0.003810,-4.212862
1004.859375,-13.435806,-7.321825,2.503891,-8.935292
1004.863281,-6.880680,-8.461751,-3.035624,-8.147641
1004.867188,-13.148312,-13.414999,-6.558541,-10.779183
1004.871094,-12.305538,-9.926125,-17.887992,-4.099805
1004.875000,-8.732929,-6.365607,-11.189813,-7.303776
1004.878906,-5.434522,-3.925948,-8.136281,-7.930935
1004.882812,-10.600676,-9.393871,-8.882333,-13.360772
1004.886719,-14.807745,0.332801,-4.111071,-7.077122
1004.890625,-4.629207,-4.826011,-2.212005,-11.528582
1004.894531,-5.277076,-9.196918,-4.817037,-4.690466
1004.898438,-9.567848,-7.481605,11.783772,1.482369
1004.902344,2.816242,4.415360,1.487369,-6.922918
1004.906250,-1.137398,0.657208,4.232259,5.172015
1004.910156,3.604251,6.350238,10.258258,2.104537
1004.914062,0.851313,6.775558,11.614140,4.068319
1004.917969,9.828066,15.621691,10.873657,12.828762
1004.921875,13.396746,16.938499,3.664454,9.739699
1004.925781,14.775945,2.500397,10.124766,10.524180
1004.929688,6.368478,7.335279,12.771522,5.549552
1004.933594,8.294175,11.907395,9.528186,5.731516
1004.937500,2.305304,10.795588,12.966152,5.266124
1004.941406,9.270044,8.035553,11.089454,8.717454
1004.945312,4.252795,7.092550,3.543503,1.460792
1004.949219,1.682690,-1.745196,-8.602811,8.289548
1004.953125,-1.776905,-0.867858,-9.686280,-2.685811
1004.957031,-4.369971,-2.690047,-1.365353,-6.066238
1004.960938,-6.774141,-6.057372,-11.900260,-6.397348
1004.964844,-10.383045,-10.314415,-11.982204,-2.800297
1004.968750,-11.311724,-15.427543,-10.168862,-7.841968
1004.972656,-10.341921,-1.080827,-9.849624,-5.016279
1004.976562,-10.810163,-10.157594,-6.022826,-2.584414
1004.980469,-12.215164,-12.389380,-14.331641,-7.393063
1004.984375,-5.955316,-0.383730,-3.486570,-9.974394
1004.988281,-12.988256,-8.219100,-14.738162,2.077447
1004.992188,-3.700440,-8.411943,-9.563450,-5.862640
1004.996094,-4.907262,-0.874402,-5.397162,-5.630418
1005.000000,-8.396186,-1.214569,1.226863,-5.613622
1005.003906,1.273752,-2.308814,9.153237,10.011825
1005.007812,0.432644,7.905882,2.390350,11.486346
1005.011719,4.009843,8.292090,8.290141,5.623903
1005.015625,16.528319,2.312835,12.078517,10.417349
1005.019531,7.623911,8.872137,8.504969,3.241347
1005.023438,8.646641,12.338597,7.025786,12.117094
1005.027344,4.138238,4.908714,13.228609,16.253813
1005.031250,8.187223,2.384022,15.552521,5.797261
1005.035156,3.691740,5.943553,11.603666,16.942499
1005.039062,6.515068,7.348879,11.438411,8.269683
1005.042969,2.097178,-5.433405,8.486717,9.502558
1005.046875,1.300510,3.751805,-3.671287,-2.764509
1005.050781,2.037769,4.220231,1.700618,-3.375634
1005.054688,-4.970859,-2.839876,-5.007093,-2.255124
1005.058594,-2.102452,-9.510995,-6.087993,-9.146742
1005.062500,-8.509310,-7.128591,-7.550232,-3.526783
1005.066406,-6.861636,-4.606892,-9.290418,-9.096244
1005.070312,-8.080557,-10.888315,-16.881716,-6.847732
1005.074219,-11.751126,-11.260365,-3.214697,-0.610552
1005.078125,-9.265066,-13.622086,-13.636937,-10.511164
1005.082031,-13.357763,-12.324988,-15.396205,-5.934231
1005.085938,-6.988295,-10.311611,-8.045041,-2.313375
1005.089844,-1.403311,-12.188890,-10.742235,2.305381
1005.093750,-4.762341,0.517851,-4.947189,-0.994911
1005.097656,-9.427832,-2.799352,-8.097943,-5.705155
1005.101562,-0.271511,-0.767433,4.685517,-2.776382
1005.105469,5.487662,1.782887,9.395457,0.441483
1005.109375,-1.287742,5.005376,3.815690,14.031953
1005.113281,10.416780,9.601247,5.053640,8.025167
1005.117188,9.718562,8.995917,9.640937,13.446533
1005.121094,8.688349,8.253360,13.356255,7.660345
1005.125000,9.157477,6.825545,12.632653,8.516197
1005.128906,10.152402,13.329194,10.393212,3.745706
1005.132812,4.588596,12.237206,11.917337,-2.424093
1005.136719,5.613572,9.513507,7.651623,6.963546
1005.140625,10.522351,9.718143,4.532467,1.681157
1005.144531,7.366784,-2.458509,8.296983,-3.382568
1005.148438,-0.626902,-0.576806,-1.795735,4.868078
1005.152344,-2.187821,-0.442311,-5.532396,-7.160950
1005.156250,-8.188961,1.390234,1.474726,-2.523823
1005.160156,-0.915198,-3.843995,-3.236727,-0.370797
1005.164062,-11.694141,-10.356927,-12.571263,-7.026187
1005.167969,-6.568970,-9.140198,-6.969446,-10.145552
1005.171875,-7.819790,-9.897829,-5.987662,-10.155241
1005.175781,-6.968679,-13.486729,-9.043742,-11.325780
1005.179688,-3.457296,-8.511445,-14.782946,-10.681991
1005.183594,-2.593547,-15.523083,-13.263072,-5.548609
1005.187500,-5.852716,-7.659830,-3.210158,-5.282967
1005.191406,-6.754552,-5.582754,-10.667172,-7.721378
1005.195312,-4.454762,-6.740634,-3.199095,0.026754
1005.199219,2.774777,-0.209758,1.511463,2.809391
1005.203125,2.276302,6.601731,2.226633,2.704467
1005.207031,9.022853,4.488567,2.064824,-2.363567
1005.210938,4.808104,9.242106,2.862375,4.144951
1005.214844,4.240646,8.179981,5.978126,4.725260
1005.218750,24.708013,7.955154,8.081387,3.445025
1005.222656,12.124860,10.260104,3.005681,7.783480
1005.226562,6.904404,7.011546,15.819602,5.605164
1005.230469,11.646378,5.845041,10.460452,10.169064
1005.234375,9.073799,4.054615,14.010532,6.260265
1005.238281,13.600836,9.205447,5.908719,6.177889
1005.242188,7.274099,8.204901,4.997869,8.466453
1005.246094,8.085942,5.496169,7.545368,1.885800
1005.250000,4.902499,-1.410654,3.140685,0.138277
1005.253906,2.576918,-2.742777,2.837184,0.335672
1005.257812,-2.835466,0.203620,-0.500984,-3.532188
1005.261719,-12.619378,-14.613557,-8.548197,-6.745858
1005.265625,-7.447949,-8.553638,-5.358377,-3.433651
1005.269531,-5.874495,-6.246927,-10.448385,-10.059265
1005.273438,-10.290078,-4.388878,-11.659721,-6.829853
1005.277344,-9.534285,-13.444360,-8.303131,-12.840932
1005.281250,-0.539390,-3.627764,-9.454311,-9.034859
1005.285156,-5.929420,-0.910884,-5.948583,-8.731285
1005.289062,-4.629082,-11.053788,-11.835435,-1.591662
1005.292969,-7.113837,-4.730571,-6.158327,-4.545852
1005.296875,0.999758,0.164517,0.798979,-6.342937
1005.300781,-2.830624,-3.018395,6.998133,-3.796946
1005.304688,2.110723,6.795078,7.361795,5.196810
1005.308594,8.178688,3.805666,-2.747958,5.326371
1005.312500,11.875857,8.580522,6.475080,4.849375
1005.316406,15.706272,7.376923,12.312428,2.726414
1005.320312,14.845975,6.523873,10.411402,12.651778
1005.324219,10.607319,11.567162,6.585770,1.583632
1005.328125,5.319721,9.081142,9.224616,11.758812
1005.332031,13.421878,10.923586,8.233580,18.299907
1005.335938,7.948206,6.292671,9.821832,2.445151
1005.339844,7.003525,11.116273,7.883812,4.237994
1005.343750,10.708546,6.828979,2.396117,8.897046
1005.347656,1.784234,1.528010,0.861761,4.519332
1005.351562,0.916545,6.317688,-4.310966,1.174968
1005.355469,-9.080820,-0.452376,-7.147870,-7.704091
1005.359375,-11.021101,-10.606834,-1.551792,-9.125372
1005.363281,-3.190134,-9.289940,-7.214422,-7.395672
1005.367188,-7.546648,-7.892069,-3.101849,-12.098736
1005.371094,-9.185198,-15.109977,-11.792081,-10.133137
1005.375000,-15.362123,-12.399584,-15.090563,-11.219669
1005.378906,-11.067161,-4.839264,-10.083054,-4.121079
1005.382812,-8.825884,-6.841459,-13.798360,-8.506758
1005.386719,-7.506024,-7.107440,-14.481838,-1.889579
1005.390625,-3.554273,-0.933656,-3.246182,-8.733784
1005.394531,-4.471088,-10.074775,-0.537640,-3.490382
1005.398438,1.821883,-5.292730,3.247835,-0.314998
1005.402344,-1.261901,0.164291,2.461690,1.728171
1005.406250,4.761188,5.672412,3.704171,2.519231
1005.410156,5.182257,0.466559,7.919317,10.664443
1005.414062,8.371035,4.427204,3.946096,4.503610
1005.417969,5.606491,6.058330,10.731590,12.532488
1005.421875,11.467183,6.965724,12.433048,9.087724
1005.425781,18.992602,15.448273,17.118430,13.439017
1005.429688,8.228794,14.375497,11.813562,8.986310
1005.433594,10.519276,3.190878,5.454263,4.111253
1005.437500,3.094404,9.174923,6.643689,9.006222
1005.441406,1.204673,5.004086,4.214181,5.893865
1005.445312,-0.391825,1.826193,6.414079,-0.159711
1005.449219,-2.356798,0.927074,2.885324,2.393801
1005.453125,-0.650559,-0.988693,-8.685777,2.415000
1005.457031,1.453618,-2.106229,-6.622763,-6.313523
1005.460938,-7.668765,-6.396961,-4.718656,-8.543415
1005.464844,-8.804064,-4.261801,-5.206800,-11.237580
1005.468750,-9.724414,-8.906984,-13.486424,-10.139039
1005.472656,-4.556124,-12.340797,-11.963622,-15.560934
1005.476562,-18.143504,-3.147536,-8.806633,-15.162395
1005.480469,-20.615664,-14.318358,-6.087255,-4.701853
1005.484375,-5.562596,-18.572536,-12.772640,-2.452415
1005.488281,-6.737299,-4.524545,-8.833612,-0.529505
1005.492188,-7.027550,-4.487352,1.120731,-4.361635
1005.496094,3.793581,0.661543,-1.552190,4.648788
1005.500000,1.146801,-2.634201,0.206955,-1.515603
1005.503906,5.796207,-2.183360,-0.212567,2.255092
1005.507812,1.535020,7.462694,-0.316425,-0.062575
1005.511719,5.190997,9.988121,5.555937,7.312588
1005.515625,5.041368,1.352593,8.515878,9.240188
1005.519531,15.700712,6.228537,10.867106,13.932776
1005.523438,10.622236,8.237193,12.156068,9.090220
1005.527344,0.522380,8.453085,16.758778,5.955009
1005.531250,3.590996,11.538420,5.706344,4.083662
1005.535156,3.638327,4.537087,9.219816,6.506738
1005.539062,8.442073,1.407950,-1.155273,11.872131
1005.542969,11.894090,9.629047,5.041778,6.766205
1005.546875,2.077304,5.771797,5.948914,3.436038
1005.550781,2.415469,-1.096219,7.348287,-5.162730
1005.554688,0.578635,-0.162550,-4.612816,-8.460769
1005.558594,-5.062744,-4.273846,-7.488229,-5.986410
1005.562500,-3.977745,-4.622026,-12.490199,-12.312109
1005.566406,-4.890454,-6.728940,-8.470226,-9.749246
1005.570312,-14.022051,-10.436085,-3.544849,-16.118044
1005.574219,-9.959097,-11.938457,-13.367025,-10.746123
1005.578125,-4.559364,-8.760567,-7.863185,-9.279100
1005.582031,-8.851840,-6.204775,-11.873004,-3.306621
1005.585938,-10.055161,-5.479568,-7.470579,-5.711391
1005.589844,-0.363359,-5.226911,-9.819076,-7.896278
1005.593750,-2.482157,-0.460000,2.414512,-4.098198
1005.597656,1.611175,-5.250542,-3.690324,-4.118752
1005.601562,-1.014528,-3.327797,-0.626640,7.369307
1005.605469,3.928223,13.132217,3.227538,6.166861
1005.609375,8.731273,6.597080,-1.316746,6.540640
1005.613281,6.067462,5.733761,15.346852,9.191759
1005.617188,3.835741,16.675532,4.708247,8.898017
1005.621094,6.190567,12.216234,4.077941,2.440780
1005.625000,6.341572,9.577628,12.720484,9.025260
1005.628906,6.545977,8.860401,9.210232,6.021277
1005.632812,11.418719,6.467628,13.048627,8.953033
1005.636719,2.645050,4.579423,9.683734,6.230301
1005.640625,7.638717,1.055303,4.813338,0.277657
1005.644531,0.368366,4.434411,-4.813745,0.987601
1005.648438,2.762959,-4.698568,7.326485,-0.185830
1005.652344,3.960107,-5.585309,-2.954710,-2.652784
1005.656250,-7.044042,-11.343381,-5.300153,-4.538689
1005.660156,-1.250213,-15.625583,-7.472324,-5.663783
1005.664062,-7.211948,-10.538942,-12.892399,-8.659553
1005.667969,-9.080075,-2.714182,-13.589983,-12.206690
1005.671875,-8.432028,-5.709144,-14.096129,-0.840585
1005.675781,-11.625264,-9.148107,-4.359569,-1.807799
1005.679688,-5.993791,-7.613775,-5.247217,-5.951200
1005.683594,-8.720224,-9.628161,-13.480876,-3.969595
1005.687500,-7.513037,-12.020794,-9.614761,-6.818330
1005.691406,-5.356468,-3.984938,0.810877,-10.673167
1005.695312,2.250716,-0.478251,-0.924650,-2.228563
1005.699219,3.283303,4.911157,6.399252,2.001924
1005.703125,3.867629,0.851751,0.428014,4.737851
1005.707031,7.073780,0.611583,5.151326,4.083864
1005.710938,3.617209,0.694820,16.358731,8.518088
1005.714844,8.383688,9.969970,5.056172,5.902870
1005.718750,6.416671,9.115995,16.654016,10.088570
1005.722656,9.083607,11.986969,5.519968,11.430513
1005.726562,5.455308,16.195843,12.554088,14.218334
1005.730469,6.253127,4.911301,7.714075,19.537781
1005.734375,5.471345,2.546245,9.092397,6.873006
1005.738281,10.319936,12.299308,4.627692,7.884947
1005.742188,6.244498,4.699891,6.016354,4.067137
1005.746094,6.927266,-1.064543,8.056844,-2.156301
1005.750000,-3.421777,4.573071,-2.554399,5.509741
1005.753906,-2.957959,-0.482062,-3.119034,-4.658888
1005.757812,-2.337734,7.012478,-1.746267,-6.064491
1005.761719,-6.789824,-8.651718,-9.156903,-8.096101
1005.765625,-10.100462,-8.784714,-9.647017,-8.000476
1005.769531,-8.124765,-8.531335,-10.263852,-17.553464
1005.773438,-9.812784,-9.546581,-3.523690,-7.670352
1005.777344,-9.504242,-12.179753,-14.945942,-14.044009
1005.781250,-10.201356,-12.585448,-12.233798,-11.397225
1005.785156,-5.837355,-6.397286,-14.522594,-3.639003
1005.789062,-9.485537,-11.871607,-2.454059,-5.268361
1005.792969,-8.362842,-3.745475,-8.006909,-9.101710
1005.796875,-2.798795,-1.619183,-4.013727,-4.384716
1005.800781,4.976188,-2.355979,3.462344,-12.208675
1005.804688,-0.147052,3.364484,2.053751,-5.362305
1005.808594,4.719681,4.693769,4.323599,-4.264596
1005.812500,12.794556,9.481893,12.186842,6.531275
1005.816406,7.696357,12.164925,8.739548,9.054693
1005.820312,8.973922,9.747939,0.868740,9.455006
1005.824219,10.640277,10.412674,16.144501,7.771834
1005.828125,3.449386,11.398371,10.206941,6.358593
1005.832031,4.227351,8.384723,9.923995,8.435935
1005.835938,11.610568,8.823809,11.833804,8.922308
1005.839844,3.780686,11.358320,12.290571,-0.416535
1005.843750,4.291261,6.553907,-2.432570,8.060978
1005.847656,-0.578459,3.309669,4.265781,1.390057
1005.851562,2.294174,-6.352888,-4.806414,-0.414117
1005.855469,-4.006585,-7.781860,-8.260624,-15.216414
1005.859375,-8.280888,-2.744506,-8.283116,-10.724608
1005.863281,-1.166388,-4.250661,-3.120901,-9.499199
1005.867188,-3.304172,-11.724201,-7.693972,-9.288602
1005.871094,-11.842334,-8.965812,-7.339983,-11.653691
1005.875000,-13.798380,-12.388725,-10.961712,-4.606502
1005.878906,-13.802914,-4.299359,-7.528801,-1.851707
1005.882812,-7.351106,-7.540780,-8.326516,-6.020334
1005.886719,-3.444904,-3.641803,-1.440048,0.116582
1005.890625,-9.633172,-10.065510,-4.874123,-1.384366
1005.894531,-5.714068,-0.283564,-4.511232,1.887410
1005.898438,-3.851073,-5.601057,-1.853376,-1.097883
1005.902344,8.686292,9.521407,4.526633,0.150808
1005.906250,0.761883,9.010516,5.838351,1.290617
1005.910156,5.568064,-3.193230,1.490532,0.790828
1005.914062,16.447169,9.833998,4.731045,9.018751
1005.917969,11.544327,9.108454,8.765139,14.556876
1005.921875,18.169768,13.618900,11.260785,13.228558
1005.925781,15.302391,8.911882,6.413180,13.999226
1005.929688,6.819438,10.462146,4.181530,12.924431
1005.933594,12.012901,-0.665718,7.270370,12.693771
1005.937500,2.025566,3.021305,16.320635,9.593535
1005.941406,3.628533,0.599048,-0.183973,6.336269
1005.945312,3.702160,6.395055,7.720990,-1.739741
1005.949219,-1.206644,-2.876674,-2.913981,1.367771
1005.953125,-3.937977,-4.140314,1.691530,2.835545
1005.957031,-4.974931,-11.831914,-5.104538,-5.297752
1005.960938,-5.473476,-6.928054,-1.679075,-6.844282
1005.964844,-13.058143,-6.679473,6.447957,-6.464448
1005.968750,-7.366928,-9.609887,-5.847191,-8.352022
1005.972656,-12.499107,-14.743832,-8.087137,-5.680258
1005.976562,-12.029247,-4.133215,-5.398811,-4.725633
1005.980469,-10.554846,-10.497590,-8.955525,-11.018077
1005.984375,-5.993721,-6.895073,-16.389207,-13.536412
1005.988281,-16.201435,-11.225919,-6.689431,-3.709478
1005.992188,-11.474433,2.965655,-4.439334,-6.676540
1005.996094,-4.771712,-4.783077,-2.919822,-2.672479
1006.000000,-2.790723,-6.383875,-0.629136,6.704224
1006.003906,7.442870,4.353823,1.688328,2.985207
1006.007812,3.329890,6.718787,5.360205,4.466838
1006.011719,11.038799,6.685833,2.673322,12.060195
1006.015625,10.733332,1.877205,2.729883,12.811966
1006.019531,12.144497,13.520983,12.947924,14.528235
1006.023438,11.248108,14.943675,15.248951,4.234792
1006.027344,17.716804,14.453194,4.195785,0.299616
1006.031250,9.647329,1.111338,6.233610,5.776416
1006.035156,-0.217181,2.743344,16.912909,-0.616572
1006.039062,5.272840,10.402977,-0.410789,1.614963
1006.042969,-0.040741,6.180760,0.183655,1.461753
1006.046875,4.784649,6.814287,1.607058,-1.042636
1006.050781,2.948698,-4.266281,-8.194095,-3.203874
1006.054688,-1.085267,1.698097,-3.538531,-4.602835
1006.058594,-7.557291,1.145336,-6.286324,-9.448027
1006.062500,-6.864889,-5.687429,-0.380454,-4.893139
1006.066406,-4.561515,-3.394600,-8.639492,-13.524082
1006.070312,-9.888030,-14.139486,-15.776528,-6.372533
1006.074219,-15.293831,-6.363567,-16.876736,-13.966727
1006.078125,-19.943538,-16.776528,-4.829274,-13.558307
1006.082031,-10.788978,-12.759327,-7.251621,-10.706871
1006.085938,-10.120912,-3.914896,-13.482104,-9.161785
1006.089844,-5.692751,-0.628746,-5.964932,-1.725524
1006.093750,4.396837,-6.143105,0.922163,-0.760632
1006.097656,-1.524319,3.189827,-8.101002,-2.105245
1006.101562,1.481840,-2.864897,1.324664,1.519734
1006.105469,4.597710,0.113159,2.192707,-2.634922
1006.109375,2.509033,3.743882,4.998603,5.619340
1006.113281,3.304933,10.265368,-1.253238,8.131809
1006.117188,13.755657,14.663512,13.912596,5.944175
1006.121094,2.449121,6.616878,7.164918,11.859528
1006.125000,10.040127,12.896664,4.580193,12.083314
1006.128906,5.831359,6.062918,8.688199,8.808912
1006.132812,9.146827,4.165103,6.609470,13.090812
1006.136719,6.234917,9.883490,7.611419,7.314074
1006.140625,2.506768,1.346148,10.716720,10.095680
1006.144531,3.577070,7.724556,3.002602,-2.451827
1006.148438,-3.771780,-2.475794,6.312045,0.961606
1006.152344,-4.859874,1.430039,-14.311023,0.153183
1006.156250,-5.611713,-4.502891,-1.958030,3.126144
1006.160156,-4.621796,-8.243279,-14.219774,-5.349156
1006.164062,-14.710022,-6.961925,-4.986601,-10.207110
1006.167969,-4.303019,-13.344869,-10.840877,-3.971471
1006.171875,-7.127841,-3.127080,-4.643737,-1.942675
1006.175781,-15.251970,-7.056404,-15.304933,-14.479988
1006.179688,-8.077047,-11.275401,-7.793050,-8.628088
1006.183594,-8.058916,-11.469967,-15.121271,-9.162691
1006.187500,1.107614,-5.475619,-5.416648,-8.499712
1006.191406,-7.617302,-6.144819,-10.726598,-6.136935
1006.195312,-0.932543,-9.171278,-2.708760,-0.247060
1006.199219,0.538106,-0.239860,0.391362,2.425382
1006.203125,-4.477443,-3.159282,1.945702,-0.844469
1006.207031,-0.788593,-0.589620,1.346573,4.979148
1006.210938,12.252527,10.648517,0.769514,0.003324
1006.214844,12.420843,-0.918861,14.038602,13.322592
1006.218750,7.138071,3.665987,9.460148,11.408416
1006.222656,8.812093,3.207738,11.125497,14.484166
1006.226562,10.724711,10.725449,6.758765,12.068229
1006.230469,15.381847,11.088881,11.830593,18.139331
1006.234375,0.423459,7.233292,8.519788,11.487020
1006.238281,6.767722,8.840749,-3.530182,1.083210
1006.242188,2.538926,-0.521526,5.200652,1.119616
1006.246094,-1.958518,2.034704,13.706205,2.106739
1006.250000,4.846659,0.190486,-2.588194,-3.462116
1006.253906,-6.124598,-0.387807,-9.704193,3.460491
1006.257812,-4.514520,-5.291112,-5.442218,-5.104646
1006.261719,-6.378733,-5.075535,-14.240856,-6.060707
1006.265625,-13.887828,-3.395406,-14.157933,-13.421062
1006.269531,-7.338822,-11.875986,-8.986313,-1.341251
1006.273438,-11.555293,-11.296551,-5.147909,-9.798715
1006.277344,-9.100351,-2.480053,-15.839864,-7.169805
1006.281250,-9.451720,-12.234028,-15.101411,-5.232574
1006.285156,-11.256604,-13.027204,-10.821924,-6.084739
1006.289062,-3.547139,-1.923196,-5.454909,-0.891945
1006.292969,1.333831,-1.375423,-1.342827,-2.294997
1006.296875,0.066872,-5.818637,-1.467658,-3.777767
1006.300781,5.586640,-2.022794,-2.421952,-1.338246
1006.304688,6.751813,-2.221531,4.689954,4.139189
1006.308594,-0.528063,7.844887,9.292179,-5.075461
1006.312500,3.449813,1.578770,-2.691279,12.491424
1006.316406,7.415937,4.307143,11.100823,8.974820
1006.320312,11.940440,13.712797,10.446210,6.608298
1006.324219,9.615615,8.809088,9.246490,12.255835
1006.328125,9.480057,1.947825,11.976011,11.363103
1006.332031,13.593544,11.069473,8.863957,8.291156
1006.335938,9.673006,3.606546,5.826255,6.852351
1006.339844,-1.225067,5.238675,19.873940,0.009345
1006.343750,-2.122634,-4.497432,8.468114,9.494296
1006.347656,2.254371,5.966859,0.684404,-1.183662
1006.351562,-7.164341,3.470902,-2.904740,2.239433
1006.355469,-3.840819,4.475787,-5.667696,-5.963715
1006.359375,-1.189768,-4.147142,-8.329237,-4.349392
1006.363281,2.397175,-2.030471,-13.346038,-8.903789
1006.367188,-13.498110,-2.121398,-10.740954,-10.562317
1006.371094,-13.449268,-11.475418,-14.127726,-10.303271
1006.375000,-9.792898,-14.169336,-7.999911,-11.584874
1006.378906,-8.988380,-4.522835,-12.405334,-14.250905
1006.382812,-14.322823,-13.313499,-2.539548,-0.014206
1006.386719,-2.146925,-3.176710,2.628135,-7.348235
1006.390625,-1.854866,-9.964886,-0.136548,-12.639362
1006.394531,0.209991,-10.111894,-1.855916,-5.118670
1006.398438,-0.226502,-8.612371,-0.239934,2.449541
1006.402344,-0.699284,4.955330,12.001680,-0.674227
1006.406250,5.747747,3.183893,12.961250,5.701044
1006.410156,9.382636,13.295446,-0.340466,11.473812
1006.414062,2.525163,14.508475,6.420510,10.877236
1006.417969,4.494659,12.115029,8.977430,1.592452
1006.421875,16.783336,15.160796,9.413146,12.494268
1006.425781,9.630111,9.629689,13.048292,8.899454
1006.429688,11.833039,11.417885,13.693342,5.565329
1006.433594,10.235167,3.139191,10.171600,14.609037
1006.437500,1.951301,2.360520,9.167571,8.738902
1006.441406,8.243616,-1.018660,4.723664,-0.293620
1006.445312,-0.276773,0.334966,-3.678156,3.928449
1006.449219,6.731043,-0.556001,3.123134,-1.919208
1006.453125,-4.147631,-6.189301,-5.848323,-1.828946
1006.457031,0.482135,-8.139635,-4.480530,-2.386912
1006.460938,-6.180469,3.810267,-7.789042,-4.257947
1006.464844,-9.642861,-5.758845,-13.123057,-2.993877
1006.468750,-0.899399,-12.691286,-15.367603,-9.437919
1006.472656,-9.425135,-11.324303,-15.356536,-6.976796
1006.476562,-6.118701,-16.534711,-16.611895,-16.495952
1006.480469,-10.116019,-16.421823,-7.672446,-7.749358
1006.484375,-7.629314,-4.952042,-9.852067,-9.098942
1006.488281,-6.464188,-11.589998,-10.963291,-10.566718
1006.492188,-10.993811,8.830597,-5.176439,-10.107944
1006.496094,-5.531370,-3.130891,-1.906220,-11.988161
1006.500000,-0.724009,-0.028216,4.236488,4.173547
1006.503906,-0.581010,2.102897,2.526692,3.516221
1006.507812,-5.618521,5.048539,6.352717,6.677399
1006.511719,6.019305,10.144948,7.449059,4.662127
1006.515625,9.527142,5.833279,9.780355,-1.148882
1006.519531,14.436660,12.373049,0.684213,13.697323
1006.523438,7.957481,3.865791,5.906511,12.640968
1006.527344,10.318673,7.371033,13.303299,16.063060
1006.531250,5.838607,4.694111,18.203917,9.402611
1006.535156,15.261059,11.180565,14.240706,13.848060
1006.539062,3.881226,15.750360,-0.388021,13.946978
1006.542969,6.851660,5.580343,3.437607,4.174426
1006.546875,-2.348728,-4.017582,-0.886346,-0.970082
1006.550781,-2.837114,-9.102303,1.745718,5.049871
1006.554688,-4.564929,-5.977959,-5.017957,-2.480938
1006.558594,-11.117380,-8.259999,-8.907271,-5.556936
1006.562500,-7.381761,-11.018198,-4.016393,-8.370123
1006.566406,-5.308866,-11.784006,-4.629581,-10.493279
1006.570312,-7.272692,-15.782712,-6.282946,-9.170248
1006.574219,-10.584511,-6.517654,-8.710349,-13.329322
1006.578125,-8.218438,-9.219059,-9.949830,-6.814886
1006.582031,-8.044259,-13.340642,-2.337425,-12.171563
1006.585938,-15.257672,-9.813605,-7.821649,-9.362299
1006.589844,-6.328891,-11.568271,-5.187968,2.383325
1006.593750,-0.733516,-8.235099,-4.746271,-5.718402
1006.597656,-11.013025,-3.300235,-9.785605,-3.487229
1006.601562,-2.251003,0.866329,-2.871169,4.991018
1006.605469,1.976219,-3.911279,10.071777,6.555111
1006.609375,6.732234,3.265848,2.434331,12.535198
1006.613281,2.889304,8.289871,-0.840957,6.238761
1006.617188,4.341558,8.064440,7.809653,2.681997
1006.621094,13.722658,10.500936,16.073780,5.512151
1006.625000,17.373535,12.757508,4.323295,14.090571
1006.628906,18.882513,17.934662,15.155367,11.017918
1006.632812,8.165830,10.571651,3.708860,6.928919
1006.636719,6.075538,6.312408,5.328213,8.569944
1006.640625,8.167885,4.325337,6.250971,11.339481
1006.644531,1.891242,3.434413,4.703392,9.542525
1006.648438,1.537517,5.229776,0.248124,6.519221
1006.652344,-6.445810,-7.291046,-0.042624,1.775606
1006.656250,-8.965887,-3.595830,-2.661714,0.627794
1006.660156,-10.680137,-6.508728,-5.985315,-10.853802
1006.664062,-12.078538,-4.923389,-0.867949,-11.905409
1006.667969,-3.464866,-4.886990,-11.599415,-8.566246
1006.671875,-6.619984,-8.018062,-10.908693,-7.331273
1006.675781,-11.961562,-7.246185,-10.818806,-7.644126
1006.679688,-15.513606,-5.048246,-11.836930,-8.212416
1006.683594,-13.064347,-5.814635,-10.916184,-9.351873
1006.687500,-8.030984,-7.073893,-13.284336,-1.463703
1006.691406,-7.718959,-6.596117,-2.691702,1.595948
1006.695312,3.568534,-4.784915,-2.530664,-2.996225
1006.699219,-7.841671,7.852248,-3.859343,0.543001
1006.703125,11.208835,-0.066893,6.430244,0.979026
1006.707031,2.733653,6.751519,1.223933,7.815446
1006.710938,6.058861,8.218498,10.146549,6.209691
1006.714844,8.014770,8.766865,9.386342,13.820274
1006.718750,13.099968,15.068571,13.086742,9.211614
1006.722656,7.978841,7.237097,5.861435,7.769979
1006.726562,15.516877,8.386138,10.260431,8.724243
1006.730469,5.853405,13.092901,15.121622,12.012112
1006.734375,10.982815,8.064165,7.958122,5.935213
1006.738281,3.167704,6.938930,2.473298,12.058044
1006.742188,11.120420,7.384944,9.189124,1.446819
1006.746094,1.831516,8.740677,6.823621,-1.020877
1006.750000,1.796645,-8.117013,-0.776753,0.564060
1006.753906,-3.871671,0.783927,-6.108336,-3.510902
1006.757812,0.428884,-11.048208,-6.183301,0.520653
1006.761719,-6.369785,-4.982607,-3.855856,-16.334829
1006.765625,-9.058607,-4.779768,-9.766878,-0.241566
1006.769531,-5.536218,-7.348244,-14.119224,-8.734665
1006.773438,-4.846396,-15.030932,-12.411685,-4.003361
1006.777344,-8.095149,-8.470898,-14.722685,-14.152484
1006.781250,-8.704406,-7.800380,-2.099213,-13.117364
1006.785156,-9.027222,-2.063240,-7.605111,-6.696878
1006.789062,-7.523755,-11.015086,-2.461589,-8.264644
1006.792969,-6.767981,-2.087049,0.458743,-4.251839
1006.796875,-5.237690,2.951725,-6.490186,-0.009340
1006.800781,-3.249411,-7.228093,6.957156,1.311649
1006.804688,-5.479147,-0.964833,1.221864,2.009400
1006.808594,9.436604,2.258518,12.613458,6.211357
1006.812500,7.915540,11.910084,3.987949,7.727285
1006.816406,10.607938,13.156236,5.335107,12.241790
1006.820312,13.987691,9.427081,3.350932,15.450526
1006.824219,11.913162,12.653466,14.091974,9.541038
1006.828125,7.925914,8.825527,9.368091,13.981581
1006.832031,9.285961,8.827184,13.836117,13.064985
1006.835938,3.155437,0.602699,11.985747,11.419580
1006.839844,10.425658,8.786303,10.064886,2.261571
1006.843750,-0.646667,-4.139176,5.628062,5.509406
1006.847656,1.543396,1.629623,-4.726919,5.807477
1006.851562,-1.964037,-1.157913,2.972841,-0.691427
1006.855469,-1.075625,-4.078684,-1.755733,-13.745065
1006.859375,-12.709268,-10.591966,-7.150235,-6.248953
1006.863281,-18.662247,-6.167195,-8.405906,-5.716562
1006.867188,-7.598877,-11.351682,-11.674963,-5.457084
1006.871094,-11.078959,-4.223373,-10.989647,-16.741294
1006.875000,-10.629529,-8.263881,-8.185783,-20.382022
1006.878906,0.701306,-11.868497,-11.617769,-15.433168
1006.882812,-9.746190,-4.894690,-8.351621,-6.587927
1006.886719,-11.429714,-0.530836,-4.616511,-3.984820
1006.890625,-4.678482,-3.398747,-4.048944,-5.542037
1006.894531,-1.015665,-10.388442,-2.171200,-6.507604
1006.898438,1.379245,-2.555994,-8.125692,-0.860066
1006.902344,0.435475,-8.028611,-0.547907,-2.902581
1006.906250,6.604573,3.771877,4.945251,0.669490
1006.910156,5.235607,4.874587,0.041699,7.308465
1006.914062,10.176852,3.185601,3.697438,5.595258
1006.917969,10.368721,5.094717,15.943669,11.212859
1006.921875,10.353399,13.409255,14.986785,-4.970792
1006.925781,4.681580,7.419101,6.970715,6.688847
1006.929688,12.931572,4.745542,7.185361,13.757761
1006.933594,7.023501,17.832398,13.617504,14.215827
1006.937500,12.893049,1.803676,8.933358,10.710537
1006.941406,11.163546,9.568208,3.136143,10.075971
1006.945312,4.791084,-2.042238,4.193351,-1.222760
1006.949219,1.014843,2.983562,-1.306144,4.028869
1006.953125,0.079215,-2.920343,0.521474,-2.591565
1006.957031,-3.807896,-3.481411,-5.209268,-9.153225
1006.960938,0.894690,-7.382142,-12.899628,-11.727664
1006.964844,-10.216384,-11.187022,-0.703256,-5.758618
1006.968750,0.594525,-12.019150,-0.547733,-2.610468
1006.972656,-8.825448,-11.825377,-10.716018,-10.532917
1006.976562,-3.936747,-9.266855,-0.634747,-14.094639
1006.980469,-4.553148,-18.872104,-9.596528,-6.282092
1006.984375,-15.193985,-14.796711,-7.525623,-2.999746
1006.988281,-5.143257,-4.367092,-7.923363,-14.004072
1006.992188,-5.471627,-6.078613,-8.357961,-6.183775
1006.996094,-4.965824,-7.168659,-2.206057,-3.090561
1007.000000,-4.706627,3.130359,-1.622201,-0.173607
1007.003906,-0.843303,0.112240,8.486457,7.164240
1007.007812,2.048469,0.602183,6.536711,18.068438
1007.011719,3.247206,0.367586,11.512735,0.904284
1007.015625,-0.131941,4.346721,13.746194,19.369414
1007.019531,10.153974,7.533377,9.854976,7.122508
1007.023438,1.622606,6.120882,7.297376,9.334458
1007.027344,14.445390,13.687371,8.196796,6.788605
1007.031250,10.240085,4.124887,10.398005,1.261983
1007.035156,7.980606,11.802848,7.049246,9.871087
1007.039062,11.878473,-0.761525,7.278010,11.505086
1007.042969,8.089083,0.316638,4.768961,1.132974
1007.046875,2.226886,9.708995,6.909997,0.394903
1007.050781,-3.064674,4.420242,5.034805,2.736339
1007.054688,-0.488140,1.347830,-12.628782,-7.481673
1007.058594,-8.856405,-3.343144,-4.808926,-7.691800
1007.062500,-11.466701,-6.425722,-8.982978,-8.132069
1007.066406,-8.224421,-9.575713,-3.114906,-9.621424
1007.070312,-7.255612,-15.654912,-8.400962,-8.839825
1007.074219,-7.493546,-8.584430,-11.932579,-6.669279
1007.078125,-13.846038,-12.843967,-5.663965,-4.527252
1007.082031,-11.794709,-9.544155,-6.251271,-1.506663
1007.085938,-9.666607,-2.607645,-7.960629,-9.897943
1007.089844,-2.480181,7.675072,-3.338385,-9.178038
1007.093750,-3.918383,0.293513,-4.214913,-8.934669
1007.097656,3.069677,0.506442,-5.075849,-4.963848
1007.101562,-2.737989,0.914536,-4.436537,1.879618
1007.105469,-2.380605,4.665734,-0.721734,0.391148
1007.109375,1.526582,3.701661,2.078720,8.939069
1007.113281,5.648510,3.730184,5.377609,15.060089
1007.117188,8.889590,11.623793,7.092616,12.341114
1007.121094,13.399519,9.651758,15.473053,6.648578
1007.125000,12.256867,4.198110,17.022895,11.383202
1007.128906,18.084880,8.992615,7.974796,4.222814
1007.132812,4.539989,7.873551,10.806659,5.344331
1007.136719,11.678320,5.310378,-1.732116,-1.180773
1007.140625,5.189604,15.298055,1.272020,5.984981
1007.144531,-1.402824,7.322944,4.672786,8.660090
1007.148438,-4.894959,-5.942042,-0.247662,2.007126
1007.152344,3.162036,-0.215297,-2.517243,-6.338312
1007.156250,0.446432,-6.090239,-6.228102,-8.682287
1007.160156,-7.918652,-3.912722,-6.503246,-12.005665
1007.164062,-5.543488,-6.924484,-4.146329,-12.009918
1007.167969,-4.826299,-12.211779,-4.770437,-7.824331
1007.171875,-9.219507,-10.322149,-7.188755,-9.090554
1007.175781,-9.453597,-13.280488,-7.138232,-6.863755
1007.179688,-9.371983,-6.680096,-7.836721,-4.885487
1007.183594,-12.278578,-12.567065,-7.836104,-13.406701
1007.187500,-6.770863,-7.026027,-8.276218,-3.289747
1007.191406,-2.652555,-2.086321,-6.154331,-5.988478
1007.195312,-3.675802,-4.991826,-0.337178,-5.828524
1007.199219,-2.673715,-3.106114,-5.947430,0.170101
1007.203125,-4.362373,4.834079,0.654497,0.941757
1007.207031,3.461906,5.117807,1.296130,6.313357
1007.210938,11.839898,3.687376,4.980822,15.389130
1007.214844,19.473536,10.934838,8.897440,11.819893
1007.218750,18.326790,2.944606,10.068997,12.132121
1007.222656,13.214914,12.035436,14.485154,7.350620
1007.226562,14.683166,9.371342,12.024946,12.788326
1007.230469,13.572007,8.252966,14.384433,17.639287
1007.234375,-4.325621,7.366593,17.285682,4.175675
1007.238281,9.944796,9.653030,5.486824,10.184099
1007.242188,0.906001,9.696010,7.422214,13.300861
1007.246094,8.310764,-2.240198,7.588753,2.791510
1007.250000,0.211267,-11.277839,4.959539,3.161543
1007.253906,-0.531120,-4.996289,-0.909742,-4.260353
1007.257812,-2.670287,-8.781359,-3.553306,-11.774378
1007.261719,-12.919203,-5.266848,1.956201,-6.277893
1007.265625,-7.958929,-10.456244,-0.929264,-7.587723
1007.269531,-13.430231,-2.395147,-14.235830,-9.755428
1007.273438,-11.719628,-7.081833,-8.490279,-8.920786
1007.277344,-8.638408,-6.644199,-10.973964,-12.516986
1007.281250,-14.338844,-1.489651,-9.839111,-6.991309
1007.285156,-3.632045,-11.978596,-9.201399,-9.351642
1007.289062,-8.571285,-5.556091,-3.217003,-9.771063
1007.292969,-2.189996,-3.188662,-3.690262,-12.362688
1007.296875,-7.213308,-1.328610,-7.188031,-0.330479
1007.300781,-5.758425,0.604408,0.525009,3.123068
1007.304688,3.208764,4.112323,2.843098,1.479594
1007.308594,10.717808,8.903092,1.781300,6.381451
1007.312500,9.265346,13.259873,16.840896,12.018256
1007.316406,12.827824,5.012168,6.627745,3.551586
1007.320312,4.376369,8.664111,15.193926,12.145781
1007.324219,8.585330,10.302775,6.578757,8.141313
1007.328125,9.975179,10.195033,17.720784,11.584097
1007.332031,6.949433,10.000481,7.640215,10.279404
1007.335938,8.977880,3.914707,8.556679,23.259430
1007.339844,7.537174,-2.179461,-0.183421,1.903233
1007.343750,5.896187,6.598454,7.903323,6.488514
1007.347656,-6.922594,3.991666,4.716523,-3.183926
1007.351562,-4.657046,-1.543166,-7.635504,4.642311
1007.355469,-1.959520,-4.061162,-10.560914,-5.249783
1007.359375,-6.250790,-6.819762,-2.752848,-6.807315
1007.363281,-9.071892,-3.230533,-14.686126,-7.531910
1007.367188,-12.118085,-11.100902,-9.514554,-10.204669
1007.371094,-11.016679,-13.043096,-14.039038,-9.660036
1007.375000,-17.837297,-1.149432,-8.632609,-18.102286
1007.378906,-6.613437,-10.728482,-11.672004,-5.952848
1007.382812,-3.578038,-7.551142,-6.127764,-8.050169
1007.386719,-6.207105,-10.055568,-13.787537,-9.826488
1007.390625,-4.363762,-0.663162,-1.249098,0.885415
1007.394531,-4.932377,-4.030245,-7.109650,1.065573
1007.398438,-4.808243,-5.965083,5.815471,5.159685
1007.402344,6.759949,6.477254,-0.203874,5.963325
1007.406250,2.173746,3.344407,4.526754,-0.539178
1007.410156,4.070518,2.267198,-0.954301,2.746551
1007.414062,4.622139,4.726539,3.266913,1.512548
1007.417969,5.382443,6.020223,8.424978,6.401537
1007.421875,11.512249,9.817739,8.467789,5.759466
1007.425781,7.686583,14.155248,9.130835,10.916279
1007.429688,6.664630,4.387997,20.736792,11.202185
1007.433594,5.910553,8.209206,7.942012,6.563715
1007.437500,1.386813,10.083984,6.466518,5.667605
1007.441406,2.165620,-0.284062,2.392841,3.180777
1007.445312,2.120522,3.217164,-1.130960,0.468605
1007.449219,2.571728,-0.036191,-4.351180,1.480174
1007.453125,-6.816438,-1.706196,-5.833257,-7.544379
1007.457031,-5.973856,-7.992151,0.339936,1.655707
1007.460938,-5.518098,-9.949994,-8.575420,-3.632372
1007.464844,-15.027223,-7.529845,-9.010000,-12.909307
1007.468750,-7.217298,-8.946117,-5.310940,-8.589197
1007.472656,-7.388470,-10.619145,-13.850412,-8.633276
1007.476562,-1.865811,-3.848398,-7.720809,-18.219220
1007.480469,-5.527768,-9.194683,-9.459137,-9.430076
1007.484375,-12.010364,-8.483255,-7.791912,-0.273809
1007.488281,-10.717396,-16.441351,-8.015803,-5.615733
1007.492188,-4.320871,1.192904,-10.503469,-6.904366
1007.496094,0.150572,0.956911,-1.020282,-0.544081
1007.500000,3.915012,-2.202854,1.836341,2.905597
1007.503906,10.988035,-0.801243,2.340778,-2.003132
1007.507812,6.575737,3.073040,6.141407,8.347193
1007.511719,6.812740,7.506527,6.703279,9.520438
1007.515625,7.457926,2.598652,21.876976,8.649467
1007.519531,9.616847,9.830084,6.977553,6.081525
1007.523438,10.651939,14.092285,6.099838,5.770296
1007.527344,10.425364,-2.344369,7.102483,5.336279
1007.531250,5.985591,10.399968,3.908849,10.404593
1007.535156,8.945155,10.127371,11.600657,5.790779
1007.539062,11.156596,8.284038,2.182827,2.501355
1007.542969,0.134687,8.745583,-2.209279,7.713705
1007.546875,5.321026,4.476924,2.743046,-3.408167
1007.550781,-0.657440,-4.068402,0.314907,-1.375816
1007.554688,-4.012163,-9.061375,-1.396419,-8.456931
1007.558594,-1.769127,-4.182865,-5.259487,-4.283579
1007.562500,-9.954189,-3.889313,-6.590364,-3.108660
1007.566406,-14.861020,-13.564952,-12.358604,-7.653525
1007.570312,-5.204844,-7.611999,-11.956322,-7.596982
1007.574219,-15.971972,-8.218656,-15.915494,-13.796977
1007.578125,-9.308909,-4.301183,-10.976743,-12.666211
1007.582031,-14.882634,-3.304603,-13.367254,-15.678565
1007.585938,-11.199576,-11.310889,-15.541243,-12.112209
1007.589844,-4.693836,-8.052533,1.748421,-4.785881
1007.593750,-7.582386,0.403994,-7.156708,-9.308075
1007.597656,3.337441,-6.174185,-4.213918,5.069123
1007.601562,-0.222559,-0.507448,1.203272,4.067995
1007.605469,10.423876,4.688980,-2.945190,-2.218407
1007.609375,7.398578,1.577278,5.830528,-4.393581
1007.613281,6.886904,4.917870,6.139490,5.885084
1007.617188,14.402089,5.074829,14.143622,10.112616
1007.621094,9.516605,9.235894,7.211900,12.143701
1007.625000,14.599875,6.788971,11.438582,17.243148
1007.628906,8.148869,8.981669,5.578253,23.101536
1007.632812,10.522513,10.649794,12.881387,6.980136
1007.636719,5.276426,6.198041,14.730038,3.498792
1007.640625,9.528762,9.497801,4.674242,10.847573
1007.644531,5.324693,8.055507,8.668559,7.452862
1007.648438,-3.946696,-1.109526,-2.132560,0.071484
1007.652344,-7.224965,0.957177,-5.772430,0.571930
1007.656250,-3.355928,-1.218607,-1.044419,1.566493
1007.660156,-3.613306,-7.300302,-8.050368,-7.132550
1007.664062,-14.431633,-6.086994,-8.572431,-12.451255
1007.667969,-3.018572,-11.824065,-13.283962,-17.028622
1007.671875,-12.740423,-6.179658,-7.932428,-10.191066
1007.675781,-7.813822,-7.268711,-11.198118,-16.877050
1007.679688,-17.212331,-17.826160,-13.292629,-9.462220
1007.683594,-7.696781,-6.865099,-10.683398,-14.869390
1007.687500,-5.660155,-7.192777,-8.543507,-5.885613
1007.691406,-13.786170,-1.598005,-2.478733,-3.528531
1007.695312,-3.360921,-4.327368,-2.154671,3.487269
1007.699219,-4.105551,-0.124716,2.111636,-6.558851
1007.703125,2.215018,-4.118613,-0.750050,-10.861860
1007.707031,-7.352680,7.603757,0.776153,6.954287
1007.710938,9.294894,7.926530,1.857175,4.714029
1007.714844,7.592431,9.386485,14.289249,8.086725
1007.718750,12.878742,10.955667,8.146296,13.095943
1007.722656,13.155214,7.523851,4.756622,8.923033
1007.726562,10.252491,7.022155,19.564516,10.116086
1007.730469,8.645099,4.727590,11.077133,12.405795
1007.734375,15.219131,10.980404,11.869149,-2.262717
1007.738281,1.552591,-1.271334,11.479595,3.652797
1007.742188,3.935598,2.352513,3.422575,7.956368
1007.746094,2.928740,-1.505329,3.054383,2.268800
1007.750000,1.024452,8.695597,-0.372348,0.103446
1007.753906,-4.591933,-4.593668,-5.492306,-4.748263
1007.757812,-3.822279,-4.455199,3.342176,-4.199250
1007.761719,-8.376744,-8.341583,-5.060376,-10.796639
1007.765625,-4.998524,-10.464895,-3.429427,-7.025076
1007.769531,-5.323518,-7.470623,-9.633627,-10.713309
1007.773438,-10.730403,-13.308772,-7.785632,-21.705910
1007.777344,-10.071935,-10.994379,-14.871871,-12.433399
1007.781250,-10.039271,-9.695689,-7.938088,0.159372
1007.785156,-11.513209,-14.646822,-5.116672,-4.275718
1007.789062,-4.924755,-9.820741,-9.429214,-2.284470
1007.792969,-3.827382,-0.851655,0.924897,-10.231294
1007.796875,-9.271664,4.593522,-6.572660,-8.863246
1007.800781,1.709986,-0.760853,4.026319,5.629793
1007.804688,3.537143,5.954319,3.627349,-0.521786
1007.808594,5.796101,6.793328,3.817383,2.405349
1007.812500,8.783434,10.734090,5.049175,0.273957
1007.816406,4.151056,0.817101,17.368860,2.025113
1007.820312,1.690151,20.024123,6.660633,11.490242
1007.824219,11.934262,8.692241,12.338719,10.334013
1007.828125,9.849756,6.970497,9.807921,3.350637
1007.832031,1.186518,6.043296,12.140119,7.415035
1007.835938,3.400759,8.084196,5.015186,7.631024
1007.839844,4.099033,0.914800,6.043722,-1.308861
1007.843750,1.342209,-1.406022,5.544867,7.362129
1007.847656,4.994269,0.688757,4.519460,-6.917395
1007.851562,4.069528,1.410534,-0.425212,2.356226
1007.855469,-3.961542,-9.071776,-1.490303,-7.789619
1007.859375,-9.141612,-5.386751,-5.240242,-4.825579
1007.863281,-12.860947,-4.598206,-13.362264,-5.423553
1007.867188,-3.716441,-7.237927,-13.966923,-1.028296
1007.871094,-9.302401,-8.659437,-9.043564,-15.914667
1007.875000,-7.586286,-5.266889,-6.700140,-4.759334
1007.878906,-0.783126,-10.954115,-14.353069,-8.046893
1007.882812,-8.642006,-6.261111,-7.863528,-9.889593
1007.886719,-11.593206,-9.374678,-4.320214,-9.937533
1007.890625,-4.816444,-2.837432,-11.820527,-5.027095
1007.894531,-1.511488,-0.085182,-2.026563,-4.978229
1007.898438,-3.955559,2.243225,-3.426184,-1.608443
1007.902344,6.923669,-1.071554,1.191294,0.995931
1007.906250,3.898195,8.806964,5.732328,2.821391
1007.910156,6.197315,6.820154,4.520716,7.909417
1007.914062,12.177223,-0.129551,6.980210,8.603731
1007.917969,7.656872,10.739435,4.468206,5.921453
1007.921875,7.645233,9.221832,5.200601,14.280132
1007.925781,6.740125,13.358284,12.119989,8.875641
1007.929688,6.378962,15.477577,13.393749,12.110121
1007.933594,9.002256,2.445061,3.072229,4.627315
1007.937500,12.192708,6.831316,8.392273,7.819245
1007.941406,10.711310,8.709111,4.927548,5.323288
1007.945312,1.602906,5.330067,1.249171,3.113626
1007.949219,-0.142380,8.315003,4.815940,3.292892
1007.953125,-3.942422,-6.806619,-1.895980,1.975495
1007.957031,-11.228378,-3.072884,-2.645867,-15.876075
1007.960938,-7.346127,-7.351437,-7.950951,-16.359990
1007.964844,-5.900145,2.104835,-8.314240,-5.521546
1007.968750,-10.623956,-10.507755,-3.878186,-5.905146
1007.972656,-5.209603,-16.587600,-5.938897,-17.638834
1007.976562,-7.649695,-9.204493,-14.355362,-12.749401
1007.980469,-10.703296,-7.509475,-9.422901,-7.843833
1007.984375,-6.368121,-6.403170,-4.746673,-15.456922
1007.988281,-3.619964,-9.469790,-0.546215,-9.931438
1007.992188,-8.989398,-2.704832,-7.968266,-8.929866
1007.996094,-1.979019,1.771564,-0.140246,2.090275
1008.000000,-3.264372,-1.728268,-2.542500,-0.275866
1008.003906,3.203855,-3.598139,-0.118374,-1.064343
1008.007812,10.888681,5.499529,1.132682,8.343160
1008.011719,6.088743,0.549301,6.391667,7.224108
1008.015625,3.056278,6.210241,5.412362,8.911938
1008.019531,1.417445,5.574421,9.796801,12.680071
1008.023438,6.247123,10.381407,11.638119,9.985946
1008.027344,9.981550,18.636751,11.264474,3.936498
1008.031250,8.227132,4.589801,9.057291,6.963659
1008.035156,8.430119,9.954558,10.586674,9.322855
1008.039062,11.162899,11.330103,6.386933,-0.191505
1008.042969,1.356927,5.813304,3.106756,4.386705
1008.046875,2.188818,5.332052,-5.029392,-0.170130
1008.050781,-1.674268,8.659248,-0.953469,-10.243899
1008.054688,-10.451998,-6.760734,3.625282,-12.356034
1008.058594,-3.218287,-2.929839,-8.016735,-0.337979
1008.062500,-4.681765,-5.609230,-11.227708,-16.196999
1008.066406,-9.890569,-5.187163,-6.678820,-11.492902
1008.070312,-10.001041,-13.105028,-3.513585,-7.447152
1008.074219,-11.594031,-3.315221,-11.343226,-16.228723
1008.078125,-13.297205,-11.022406,-14.624313,-4.100519
1008.082031,-7.937273,-9.540967,-4.644626,-2.567898
1008.085938,-15.948988,-8.570375,-8.685214,-1.561117
1008.089844,-4.392388,-5.710075,-2.995367,-2.914807
1008.093750,-3.778045,-2.126843,1.053405,3.992016
1008.097656,3.433285,-6.994563,4.554718,1.522903
1008.101562,-5.406719,6.848894,-2.224863,1.845832
1008.105469,1.233057,3.468763,5.274350,5.108906
1008.109375,1.140079,-1.979412,5.634380,0.607707
1008.113281,5.125991,12.400944,12.067678,1.162705
1008.117188,14.081018,5.812007,14.815415,4.886453
1008.121094,10.319449,12.696229,16.153112,11.056859
1008.125000,8.347724,9.144109,1.152172,9.599573
1008.128906,8.676742,18.578512,4.645521,1.235354
1008.132812,5.016894,15.607807,6.561249,13.814092
1008.136719,3.509314,7.872875,13.120719,3.820258
1008.140625,-0.009155,8.051679,2.729869,3.010767
1008.144531,-4.198160,6.028729,7.167593,1.163614
1008.148438,10.638245,4.143548,-0.618407,2.553980
1008.152344,3.612428,-6.374574,-7.219110,-4.051489
1008.156250,-2.206941,-6.246124,-4.195515,11.182893
1008.160156,-3.607884,-4.990139,-6.766697,-7.200688
1008.164062,-2.895162,-3.943658,-3.461153,-9.102845
1008.167969,-7.831867,-8.840766,-17.066080,-11.691342
1008.171875,-11.910951,-3.674558,-14.271968,-7.937434
1008.175781,-8.858136,-17.243325,-9.075693,-7.519187
1008.179688,-9.813454,-5.024458,-8.207536,-14.616320
1008.183594,-3.576635,-16.569560,-12.246268,-4.949541
1008.187500,-1.619131,-9.035854,-7.527104,-12.611723
1008.191406,-7.096895,-14.329809,-7.070425,-10.300344
1008.195312,-4.617900,5.753021,-7.579419,-3.175690
1008.199219,-6.601185,-0.104791,2.759296,0.916079
1008.203125,7.187870,9.574240,6.010618,-4.181454
1008.207031,1.733947,3.951893,2.178733,7.598616
1008.210938,6.303916,7.118774,13.320645,12.947291
1008.214844,4.857734,10.617725,4.736928,11.521510
1008.218750,16.321484,9.648274,10.306382,16.186284
1008.222656,15.960465,9.430425,6.981330,14.089031
1008.226562,7.033778,12.130701,10.245018,5.229372
1008.230469,11.137499,15.150715,7.931876,7.685236
1008.234375,10.722133,11.360389,7.820919,4.713502
1008.238281,10.366590,5.464322,10.403749,9.167514
1008.242188,6.455421,3.391022,6.504859,1.206886
1008.246094,3.525960,3.032648,1.661179,-0.279635
1008.250000,-5.107044,-4.200746,-0.530269,2.165298
1008.253906,3.363416,-3.038018,-9.842056,-8.794871
1008.257812,-5.380210,-8.501460,-1.259624,-4.669442
1008.261719,-7.729087,-16.539890,1.199635,0.018818
1008.265625,-4.542566,-12.974165,-9.011042,-10.930146
1008.269531,-12.813834,-13.847644,-10.490164,-11.863703
1008.273438,-8.918170,0.142567,-15.505683,-11.677133
1008.277344,-7.212622,-9.311781,-6.265537,-6.433942
1008.281250,-5.866617,-8.391501,-3.335418,-4.028547
1008.285156,-1.795861,-9.463993,-4.729609,-4.805883
1008.289062,-5.254365,-10.208448,-5.197425,-4.172682
1008.292969,-10.274381,-5.505668,-0.033189,-3.133798
1008.296875,-2.868913,6.525588,3.123353,-0.860077
1008.300781,0.804550,-0.192862,0.554249,1.653850
1008.304688,0.578431,-1.816018,10.741140,6.372369
1008.308594,3.976468,10.068870,5.187739,9.297626
1008.312500,8.137536,10.401787,7.603192,0.149352
1008.316406,6.618852,2.635427,9.543232,13.461921
1008.320312,18.303525,9.090555,9.184843,10.479655
1008.324219,6.433535,2.327462,13.054615,17.231290
1008.328125,16.165896,16.165809,4.055230,2.280233
1008.332031,9.478419,4.908588,11.262423,15.904176
1008.335938,10.024593,11.078967,4.423201,9.019731
1008.339844,3.519523,8.924386,6.800867,2.909622
1008.343750,0.216101,-1.371931,1.076263,3.626595
1008.347656,-4.576674,-1.913413,4.000247,5.056667
1008.351562,-5.326979,3.355255,2.237730,-0.583754
1008.355469,-5.513884,-1.474841,1.331626,8.166609
1008.359375,-5.653291,-2.613785,-8.800522,-4.909269
1008.363281,-3.020292,-9.261362,-9.224979,-10.897718
1008.367188,-4.688286,-10.901702,-5.625984,-13.213084
1008.371094,-4.841153,-9.871220,-9.527801,-8.771816
1008.375000,-5.851719,-9.586796,-13.795819,-10.010134
1008.378906,-9.076529,-5.894667,-16.438737,-3.916673
1008.382812,-3.670222,-6.293428,-9.418389,-6.574757
1008.386719,-7.201932,-9.546421,-9.304520,-5.250119
1008.390625,-6.785113,-7.771759,-4.837032,-1.251416
1008.394531,4.219889,5.921275,-8.580380,0.338555
1008.398438,-3.169381,-3.655113,-5.988054,-3.100174
1008.402344,4.934911,6.991082,-1.526947,7.779655
1008.406250,6.645201,2.596061,7.494098,2.146162
1008.410156,11.405741,10.729907,-1.534335,8.167418
1008.414062,7.409797,2.934076,3.344212,2.463600
1008.417969,9.928363,7.455925,6.378895,6.638941
1008.421875,9.374015,9.277467,10.999240,4.481813
1008.425781,15.617552,10.275362,4.938222,-1.894405
1008.429688,16.579211,6.286733,4.531046,5.237990
1008.433594,8.514417,0.630926,14.445249,12.748785
1008.437500,9.850263,13.805065,3.185617,5.465477
1008.441406,8.269167,2.496394,6.461363,-1.131704
1008.445312,-2.648424,3.490246,3.767201,4.501182
1008.449219,0.740602,2.952665,-1.919935,6.623007
1008.453125,-5.756456,-6.514358,0.378234,-0.664897
1008.457031,0.513745,0.606689,-4.766630,0.413210
1008.460938,-5.474787,-4.574304,1.033089,-4.184257
1008.464844,-6.632091,-8.942044,-9.263413,-8.322187
1008.468750,-9.321083,-6.658462,-8.316602,-7.502598
1008.472656,-13.610739,-2.977982,-12.408973,-10.031924
1008.476562,-8.139150,-12.571511,-4.857660,-10.154443
1008.480469,-13.972432,-4.927453,-11.080239,-10.053122
1008.484375,-8.449231,-2.525526,-5.403960,-11.113400
1008.488281,-5.449423,-7.360830,-14.982932,-11.171597
1008.492188,-4.790040,-3.736987,-7.495085,-3.947370
1008.496094,-4.090193,1.367152,-3.564922,-1.818613
1008.500000,4.669686,-4.576458,1.001954,5.766491
1008.503906,0.511917,2.698566,4.689579,6.925375
1008.507812,0.150566,4.609524,2.152423,6.276886
1008.511719,0.764012,3.339217,10.574048,3.185357
1008.515625,7.495000,7.428487,5.495674,4.122689
1008.519531,6.766813,5.893118,3.227137,5.629034
1008.523438,2.605523,8.630617,6.044819,8.577615
1008.527344,12.181598,12.786429,9.583494,8.424086
1008.531250,2.801590,7.892546,9.066243,7.477826
1008.535156,3.773126,9.791478,7.420310,7.602496
1008.539062,-5.053828,2.046610,12.849526,6.945518
1008.542969,11.384007,9.425742,3.455354,-0.926124
1008.546875,1.441393,8.022364,-3.412575,7.800443
1008.550781,-3.224561,-2.401162,0.231814,-0.889030
1008.554688,1.121462,-5.838178,-0.895603,-6.103542
1008.558594,-8.539740,0.210070,3.881295,-4.060241
1008.562500,-4.997537,-7.545273,-6.221229,-6.176691
1008.566406,-10.705250,-14.413189,-10.379748,-13.611626
1008.570312,-7.833585,-6.715696,-14.213561,-11.801799
1008.574219,-9.022901,-10.655418,-3.698942,-11.876232
1008.578125,-8.077539,-6.937084,-5.578522,-6.922599
1008.582031,-6.093283,-8.115362,-13.115074,-9.000978
1008.585938,-10.804206,-4.318035,-4.019692,-14.343050
1008.589844,-10.325588,-8.624882,-11.733175,-6.324112
1008.593750,-6.377391,1.781272,-1.045897,-3.306885
1008.597656,-0.447621,3.916989,-0.925796,-1.760524
1008.601562,1.309138,0.160340,-2.927745,-2.687548
1008.605469,6.327959,5.859411,5.799004,-1.094316
1008.609375,6.728424,3.881763,1.044724,1.539633
1008.613281,10.028684,4.687007,13.178325,6.026743
1008.617188,2.607439,11.099767,11.977321,7.225814
1008.621094,9.783480,4.755834,10.883861,8.745918
1008.625000,13.762463,13.127014,10.847143,16.812016
1008.628906,4.631478,6.474382,9.174268,10.946521
1008.632812,7.964457,2.566060,10.184676,9.931949
1008.636719,8.660320,6.382685,10.429859,6.600036
1008.640625,5.749023,5.653849,3.700369,5.065324
1008.644531,9.795370,4.011905,1.118140,8.760810
1008.648438,-0.607762,-2.631557,1.740017,-0.444861
1008.652344,0.365301,-0.539617,0.782713,-1.587436
1008.656250,-4.447950,-2.562994,-3.866713,-4.805490
1008.660156,-7.661614,-5.922787,4.375712,-5.289071
1008.664062,-1.498755,-6.289472,-8.600069,-6.835325
1008.667969,-9.464135,-12.804932,-9.959534,-4.118627
1008.671875,-11.870535,-10.240570,-6.952332,-14.609466
1008.675781,-14.374803,-15.372315,-9.032384,-10.769742
1008.679688,-4.146988,-7.257431,-5.395014,-15.561937
1008.683594,-7.133856,-6.582990,-3.591444,-7.185319
1008.687500,-10.363116,-2.606068,-5.998042,-6.139991
1008.691406,2.406769,-0.829682,-1.987469,-1.116000
1008.695312,8.231455,0.086525,-1.170518,0.314613
1008.699219,-7.952007,-2.099037,-5.815614,-0.149398
1008.703125,8.297025,3.551049,-2.316592,0.877060
1008.707031,4.435909,4.685894,3.030849,-0.689574
1008.710938,8.185274,7.329182,3.465559,6.727751
1008.714844,7.634890,7.305715,7.590125,5.415387
1008.718750,8.313846,10.184900,11.231128,13.015371
1008.722656,7.608703,14.488707,10.646549,11.272927
1008.726562,9.835056,10.267965,11.426993,6.888057
1008.730469,10.008193,10.061054,10.424046,6.387026
1008.734375,13.336538,9.319866,5.571824,8.435236
1008.738281,1.501213,11.497557,4.480372,13.868325
1008.742188,8.702709,7.889598,4.952991,0.257958
1008.746094,2.069701,3.194255,5.141236,2.403870
1008.750000,-5.058258,-6.026137,3.765594,6.272690
1008.753906,-3.760854,-2.529010,-4.307296,-5.208241
1008.757812,-3.617401,-2.378187,-9.854042,1.780352
1008.761719,-9.549569,-4.624880,-10.970645,-7.887861
1008.765625,-9.417510,-15.619883,-11.281651,-7.720662
1008.769531,-10.810124,-8.009771,-11.713774,-12.032775
1008.773438,-7.906115,-3.401152,-12.392179,-7.707954
1008.777344,-16.342926,-7.030379,-6.341403,-13.172285
1008.781250,-7.428928,-6.961906,-9.318502,-11.230218
1008.785156,-15.429413,-10.271739,-4.985628,-13.212839
1008.789062,-10.131477,-4.634302,-5.279683,-14.641267
1008.792969,-6.915692,-6.975663,-9.639912,-10.007588
1008.796875,1.086033,-4.925859,-7.235151,-3.146743
1008.800781,-0.705538,-2.459870,4.675482,3.928292
1008.804688,2.697916,0.452865,2.139408,4.282098
1008.808594,1.858474,-0.799524,5.490537,8.098512
1008.812500,7.008562,3.556893,1.644642,6.396602
1008.816406,8.996663,-0.253869,6.635082,17.382648
1008.820312,3.933027,14.637796,9.698960,6.195137
1008.824219,8.148610,7.034632,5.613812,8.866885
1008.828125,9.288627,9.756665,10.458345,7.786637
1008.832031,7.599901,5.755748,12.197462,1.749823
1008.835938,2.511726,7.487038,2.791023,14.634026
1008.839844,6.080944,4.403076,16.939336,1.415785
1008.843750,-1.630911,-0.288176,7.039431,0.060900
1008.847656,1.683339,-6.396733,-5.522853,3.897721
1008.851562,4.763782,2.401649,0.578079,-3.090155
1008.855469,-1.410068,-1.105977,-6.688985,0.965558
1008.859375,-2.231255,-12.788775,-2.770753,-5.353204
1008.863281,-7.219615,-9.639718,-10.786374,-0.942709
1008.867188,-11.004033,-8.436867,-9.638889,-12.991885
1008.871094,-10.929610,-14.546379,-20.731359,-10.948741
1008.875000,-10.033396,-9.500546,-12.918108,-1.699447
1008.878906,-7.598522,-6.399616,-2.567485,-14.609208
1008.882812,-10.200216,-10.639464,-19.813577,-10.720421
1008.886719,-12.655559,-7.010191,-8.710391,-15.499658
1008.890625,-8.137894,-5.543631,-7.506703,-10.833202
1008.894531,0.426065,-2.866192,-4.665007,-2.716598
1008.898438,-6.711860,-1.518275,-7.254866,-1.702448
1008.902344,5.369365,-0.305307,5.797208,13.838115
1008.906250,6.773048,7.886217,-2.701795,0.915765
1008.910156,17.357586,3.575644,0.895102,2.823536
1008.914062,0.552658,8.787068,7.351986,9.940168
1008.917969,10.327242,4.645044,10.819802,12.458462
1008.921875,11.441837,9.914310,14.905458,8.291489
1008.925781,-1.468517,9.261060,7.518617,12.226929
1008.929688,16.727030,11.700314,13.366738,3.994791
1008.933594,13.905049,14.259146,14.392856,8.628534
1008.937500,16.606240,3.099056,8.756606,2.001330
1008.941406,2.338050,1.159494,5.772435,0.605781
1008.945312,1.605678,1.926102,3.974941,11.872592
1008.949219,-1.714247,0.811946,-4.715166,-1.183752
1008.953125,-2.715265,-6.890194,-5.573754,1.589574
1008.957031,-1.383206,-1.198106,0.673032,-5.283899
1008.960938,-4.959350,-14.762346,-4.586273,-10.619838
1008.964844,-8.720539,-9.557627,-10.599355,-12.187112
1008.968750,-10.070898,-4.246438,-10.338847,-8.550098
1008.972656,-11.128040,-11.738137,-10.042183,-11.214307
1008.976562,-7.900164,-6.745340,-9.626479,-13.127945
1008.980469,-4.511506,-9.374650,-8.847845,-15.855187
1008.984375,-5.742138,-2.726537,-5.692181,-10.497327
1008.988281,-12.208391,-6.599549,-5.654636,0.483437
1008.992188,-6.552229,4.801149,-2.623717,-4.749668
1008.996094,-7.152128,3.156456,-1.420485,-3.314544
1009.000000,-4.738444,-3.955670,-2.743700,5.171574
1009.003906,1.169182,4.641476,-1.198235,0.585482
1009.007812,1.219687,3.744842,-0.409037,7.538541
1009.011719,8.136771,5.427915,6.187400,9.006363
1009.015625,14.467403,9.396282,19.599448,0.661033
1009.019531,16.376999,6.928011,7.737428,10.602509
1009.023438,5.975448,13.711688,11.066285,18.201886
1009.027344,12.877405,5.555884,9.873183,11.310795
1009.031250,11.832617,11.945105,0.290036,3.823122
1009.035156,10.461073,8.347410,7.505614,9.185060
1009.039062,10.990552,-2.077797,4.589987,0.754056
1009.042969,8.757652,3.673461,3.306627,0.537787
1009.046875,-2.353567,3.741016,3.323819,10.431374
1009.050781,-7.432644,3.579506,0.637767,-2.110232
1009.054688,5.069820,-6.781058,-4.430352,-1.043154
1009.058594,-2.787465,1.423955,-4.382550,-7.115038
1009.062500,-7.669975,0.082761,-13.440482,-8.477035
1009.066406,-12.020973,-6.221366,-10.533116,-10.977518
1009.070312,-2.484214,-9.643080,-4.160065,-10.941444
1009.074219,-4.827305,-5.080693,-12.425621,-18.935092
1009.078125,-15.835941,-9.076507,-8.552070,-9.834145
1009.082031,-8.770854,-8.201773,-11.410493,-11.352069
1009.085938,-11.340207,-5.800929,-12.583023,-13.769258
1009.089844,-8.723424,-6.829647,-1.109209,-2.169598
1009.093750,-2.460684,1.077065,-3.163990,-1.991623
1009.097656,0.841189,-2.644306,-7.575741,-1.500879
1009.101562,-3.956323,1.619118,-3.160308,1.154157
1009.105469,0.950712,2.536982,-1.324099,1.104121
1009.109375,4.225059,-1.422020,7.957526,2.623549
1009.113281,0.150849,5.216860,9.899414,7.573324
1009.117188,7.251565,11.580213,7.972428,6.804891
1009.121094,9.547218,8.614892,13.900155,14.336504
1009.125000,11.121821,7.104580,14.652013,9.587828
1009.128906,13.062647,10.578651,13.374489,2.717843
1009.132812,11.071758,2.613347,13.621499,13.841962
1009.136719,17.525961,11.190299,-0.152348,6.791900
1009.140625,-2.170955,6.049427,4.665590,9.895163
1009.144531,-0.283544,4.825610,-1.005019,6.350306
1009.148438,5.566987,-0.632906,-4.114225,7.341975
1009.152344,0.317849,-5.853877,1.158902,1.593764
1009.156250,-2.410430,-1.745234,-2.907866,-14.317332
1009.160156,-8.904174,-1.972605,-3.723920,-4.450200
1009.164062,-4.695038,-4.608276,-5.664610,-13.215569
1009.167969,-6.769352,-7.235421,-6.439272,-5.723710
1009.171875,-12.793211,-6.773125,-6.734541,-6.809954
1009.175781,-10.953105,-8.656098,-8.067364,-15.724752
1009.179688,-7.310761,-5.550395,-5.720435,-10.066704
