timestamp,TP9,AF7,AF8,TP10
1000.000000,2.236621,-4.444946,0.765030,5.023365
1000.003906,-2.102845,2.147149,4.571532,12.591083
1000.007812,4.615162,7.386569,1.881596,2.660624
1000.011719,8.466384,5.188807,12.579693,10.028810
1000.015625,2.135268,5.458371,8.645743,10.867160
1000.019531,13.882160,3.488542,11.278977,12.806876
1000.023438,8.189144,14.262808,15.794165,9.226137
1000.027344,8.883247,14.810318,4.444136,15.166095
1000.031250,15.824700,14.366387,5.621987,9.871659
1000.035156,7.187163,2.167177,4.009566,6.736834
1000.039062,6.038998,0.990157,4.596664,0.372570
1000.042969,4.652901,0.388785,3.129419,3.043963
1000.046875,0.360673,4.266417,-0.578172,-3.628589
1000.050781,-5.413019,2.618800,-4.905473,1.969959
1000.054688,-9.199223,-12.095888,-6.760100,0.839939
1000.058594,-7.236716,-6.582329,-6.934846,-3.447418
1000.062500,-4.915982,-7.358910,-8.547045,-6.102692
1000.066406,-13.801703,-8.954782,-6.885651,-10.942250
1000.070312,-8.783746,-10.498520,-11.945990,-11.315701
1000.074219,-10.060624,-10.124484,-14.579081,-5.642010
1000.078125,-8.983299,-11.796878,-11.376853,-17.611681
1000.082031,-10.316563,-1.917537,-0.183672,-5.225687
1000.085938,-8.609649,-13.939450,-5.965984,-3.551704
1000.089844,-11.919601,-3.430779,-1.219246,-6.014883
1000.093750,-5.145439,-1.315730,0.288752,-5.009876
1000.097656,2.783186,-4.655073,-7.136861,-2.076351
1000.101562,0.897075,-0.985252,1.216785,6.621094
1000.105469,3.023832,6.671874,5.624386,6.258019
1000.109375,3.683904,3.379140,3.110686,8.493439
1000.113281,5.670788,11.154770,4.993064,3.773911
1000.117188,7.488742,6.028727,18.292529,6.742302
1000.121094,13.884065,12.558444,15.836646,16.032251
1000.125000,13.840446,15.464889,10.832354,13.611663
1000.128906,5.297278,11.049151,6.344001,8.571952
1000.132812,13.318113,9.977340,9.840784,9.229935
1000.136719,12.774059,8.496558,9.219988,4.486241
1000.140625,6.545984,7.351206,8.834392,4.509938
1000.144531,-2.339862,2.244373,3.299689,9.266040
1000.148438,-5.110795,-1.717422,-0.497222,7.493082
1000.152344,1.139138,1.005055,4.099056,-12.850219
1000.156250,6.057278,-4.168295,0.654831,-8.757906
1000.160156,-8.186871,-14.733479,-7.406860,-4.277881
1000.164062,-7.548697,-4.899055,-9.057845,-10.146812
1000.167969,-7.253446,-12.968795,-9.373997,-13.678239
1000.171875,-9.027251,-11.297259,-6.860157,-17.744800
1000.175781,-13.891469,-4.520413,-13.747336,-6.964355
1000.179688,-11.259140,-11.804045,-14.833669,-4.482261
1000.183594,-6.309536,-4.412800,-9.076625,-9.621808
1000.187500,-12.873882,4.297725,-7.832478,-7.830363
1000.191406,-3.394307,-7.836567,-6.514771,-6.233504
1000.195312,2.057299,-4.494133,-4.812893,-1.007595
1000.199219,-1.900019,-3.438895,1.146470,3.397655
1000.203125,4.229021,5.455258,4.164548,9.035198
1000.207031,1.147551,2.955956,0.622747,5.324076
1000.210938,5.412887,12.674345,4.853266,5.256736
1000.214844,9.040632,10.693111,13.764853,6.321160
1000.218750,3.615709,9.536539,4.932495,2.703272
1000.222656,8.844518,12.373008,6.102036,15.218009
1000.226562,10.525829,20.184156,12.625455,14.547517
1000.230469,14.457714,9.271441,14.739247,13.344588
1000.234375,0.355065,9.485028,10.843251,6.735290
1000.238281,11.455333,6.696423,6.335021,8.507880
1000.242188,-1.988547,8.564399,4.765115,10.998525
1000.246094,3.165958,-1.556010,3.463152,5.786860
1000.250000,-3.015258,-4.537105,8.805055,1.636745
1000.253906,3.321006,-1.542308,-6.270987,5.010074
1000.257812,-6.378692,-3.391633,-4.366254,-2.157249
1000.261719,-6.448268,-7.685508,2.957019,-3.165642
1000.265625,-13.955436,-11.600825,-9.321339,-7.950363
1000.269531,-14.609326,-6.416761,-8.179919,2.504644
1000.273438,-9.128911,-8.566108,-7.469467,-7.482884
1000.277344,-2.840289,-7.168946,-8.302722,-3.915104
1000.281250,-9.222173,-9.099036,-6.357328,-8.877921
1000.285156,-3.392863,-5.494717,-10.089090,-6.866831
1000.289062,-2.580724,0.235204,-10.080427,-0.477326
1000.292969,-0.746758,-6.196875,-1.469633,-4.071701
1000.296875,-0.669795,-6.127109,3.372010,-9.901403
1000.300781,-4.148136,-0.075372,5.119972,0.512744
1000.304688,-1.046334,7.009301,1.318654,-0.990337
1000.308594,0.559070,5.230629,3.274788,7.800409
1000.312500,6.400332,8.808153,9.680406,5.639506
1000.316406,7.191449,8.208417,16.523513,5.592615
1000.320312,5.511270,20.742602,14.540548,6.318655
1000.324219,7.993525,15.488953,16.852373,16.377935
1000.328125,12.694227,5.588335,8.268025,12.867629
1000.332031,13.514679,6.308896,11.485670,5.233441
1000.335938,7.528541,13.503370,0.844896,4.615489
1000.339844,5.181415,8.667423,6.820313,1.529626
1000.343750,6.102319,3.289990,8.913885,18.163704
1000.347656,-2.388293,-3.208257,6.431987,-1.186004
1000.351562,-4.766873,-5.002042,-5.545258,-2.093111
1000.355469,-1.346433,-1.297242,-8.951487,-1.838535
1000.359375,-7.792817,2.796300,-4.365821,-6.121265
1000.363281,1.300210,-3.280991,-5.871486,-5.277662
1000.367188,-8.429905,-9.556027,-6.582315,-11.616918
1000.371094,-5.942465,-10.583705,-15.834748,-2.907379
1000.375000,-13.247911,-15.039935,-4.047259,-9.908123
1000.378906,-13.197582,-12.933914,-12.021987,-10.825777
1000.382812,-9.447963,-7.316789,-9.251767,-10.727784
1000.386719,-7.863113,-4.763080,-10.270073,-11.113191
1000.390625,-7.516154,0.977522,-5.934804,-11.273991
1000.394531,-6.684271,-3.426811,1.269550,-5.589410
1000.398438,6.731956,-2.899231,-2.168704,-4.569860
1000.402344,5.582070,1.133034,-1.935578,-0.090472
1000.406250,-1.659123,1.504863,4.911586,2.141833
1000.410156,9.004710,1.865425,5.864913,0.774201
1000.414062,7.394204,4.949895,5.306362,12.982229
1000.417969,16.956809,7.932590,6.635160,10.555428
1000.421875,11.834427,11.943405,4.250019,4.985097
1000.425781,10.733251,11.247719,12.133991,7.356728
1000.429688,1.476868,16.936946,11.072546,-2.322704
1000.433594,6.732599,7.744793,6.632350,10.573146
1000.437500,5.811972,8.102859,11.080553,7.220667
1000.441406,7.475877,10.380217,6.453895,4.424431
1000.445312,3.567957,-1.584446,8.309621,6.395214
1000.449219,-10.473080,-1.360112,3.704662,-2.017508
1000.453125,-4.820220,4.270873,-2.654838,2.620801
1000.457031,-5.930596,-0.449665,-1.911720,0.069119
1000.460938,-6.806223,-9.233651,-8.900835,-2.675822
1000.464844,-5.663261,-7.693414,-6.679874,0.787820
1000.468750,-9.118781,-8.411761,-11.434192,-14.685934
1000.472656,-14.360708,-15.108565,-5.056110,-8.744906
1000.476562,-12.059198,-4.105001,-11.081748,-8.987375
1000.480469,-5.646148,-3.918226,-8.337586,-3.730080
1000.484375,-12.861417,-13.438385,-5.541796,-5.599013
1000.488281,-10.229799,-4.428849,-2.900145,-9.061932
1000.492188,-5.420444,-2.609913,-4.831456,0.981238
1000.496094,2.894431,-3.715692,-4.387187,-2.574700
1000.500000,-5.485946,4.247321,-1.583999,2.966144
1000.503906,-1.729954,-7.434670,11.343732,14.144954
1000.507812,10.969308,2.508046,5.175038,5.634985
1000.511719,7.840038,6.446343,9.607419,4.346956
1000.515625,7.362079,-0.446936,11.300279,7.650587
1000.519531,10.188663,16.719372,11.415183,9.737047
1000.523438,13.368521,15.426910,12.657708,10.836653
1000.527344,7.134573,10.191183,7.731490,8.383091
1000.531250,12.063803,7.902509,12.298313,3.659773
1000.535156,1.844833,-1.799794,6.649939,16.283961
1000.539062,7.094329,5.704515,6.031582,9.524569
1000.542969,-1.424867,0.498367,-0.738122,7.362072
1000.546875,-0.960581,1.336914,-8.680806,-7.766691
1000.550781,5.415815,5.252391,-0.389179,0.724593
1000.554688,-9.271814,1.574238,0.568875,-2.038821
1000.558594,-7.715745,-5.391547,-2.630728,-5.452339
1000.562500,-8.425170,-7.845201,-2.678123,-12.532685
1000.566406,-7.026626,-11.354390,-3.533860,-12.367450
1000.570312,-7.940760,-4.685018,-6.999857,-16.592155
1000.574219,-13.928637,-8.431447,-11.800878,-12.030936
1000.578125,-4.404020,-11.037574,-9.495981,-10.460959
1000.582031,-3.332015,-6.555603,-11.909729,-9.569266
1000.585938,-2.404485,-8.933643,-2.923476,-15.628367
1000.589844,-3.735933,-4.122289,-5.988163,-10.528220
1000.593750,-6.439851,-8.180761,-2.626474,-3.890546
1000.597656,-5.200192,-2.431612,-0.286328,1.440321
1000.601562,-1.708260,-4.245684,-1.548918,-0.753658
1000.605469,7.658206,2.247085,4.266363,-0.057249
1000.609375,8.465014,2.027415,15.414377,2.799865
1000.613281,2.531840,7.462946,14.094587,8.933460
1000.617188,7.523599,8.218383,11.878627,7.346166
1000.621094,14.150632,7.421815,12.221756,13.041961
1000.625000,9.916160,12.408228,8.750663,11.106346
1000.628906,6.962126,8.652609,11.880384,16.448923
1000.632812,3.845683,8.835421,-0.430443,5.424115
1000.636719,8.782992,8.239170,10.228234,8.963154
1000.640625,1.197178,1.901978,4.332545,6.240540
1000.644531,10.569295,5.246470,-0.093838,0.239610
1000.648438,0.621888,-4.192654,-6.468355,-4.881495
1000.652344,-4.355658,-2.970608,-4.225186,-9.079534
1000.656250,-2.110628,-2.401543,0.900992,-3.928231
1000.660156,-6.869212,-6.133958,-4.646773,-0.050369
1000.664062,-9.223937,-2.090604,-6.468658,-8.994746
1000.667969,-8.419765,-6.427434,-7.408380,-15.717839
1000.671875,-17.048162,-11.743814,-6.656455,-9.118520
1000.675781,-9.463865,-15.929744,-7.873315,-9.840337
1000.679688,-15.448731,-8.088496,-9.850597,-10.991202
1000.683594,-12.455946,-13.926137,-4.810372,-15.358720
1000.687500,-0.524965,-2.247017,-9.704859,-9.561475
1000.691406,-6.514744,-2.817241,-13.166224,-6.712170
1000.695312,0.818159,-2.259087,-5.690710,-4.494133
1000.699219,-3.852160,5.641004,-0.161018,3.059556
1000.703125,3.033640,3.504247,0.182032,1.831318
1000.707031,4.433306,0.704617,7.585116,3.686500
1000.710938,7.905396,8.582372,10.428300,5.042234
1000.714844,1.053626,6.931132,7.268508,1.515206
1000.718750,15.018491,4.539823,12.994221,8.033497
1000.722656,11.622879,15.742494,8.309177,13.408715
1000.726562,7.126793,12.748656,17.030803,7.270665
1000.730469,7.620713,7.324056,5.968040,12.306681
1000.734375,8.819732,7.231891,7.781371,11.607256
1000.738281,18.469125,10.241449,8.195305,2.877793
1000.742188,0.571399,7.766373,5.377806,6.701116
1000.746094,5.368612,-0.684462,3.742993,5.682541
1000.750000,4.843509,-3.129410,2.608237,9.547606
1000.753906,-2.231994,1.738713,-1.536153,-8.144601
1000.757812,-5.322124,-1.211835,-6.720694,-0.517526
1000.761719,-9.749436,-6.508450,-3.179836,-0.294264
1000.765625,-2.486624,-8.261308,-6.150069,-4.412565
1000.769531,-7.583236,-7.052675,-8.778224,-8.441260
1000.773438,-4.352587,1.635046,-14.525000,-11.821778
1000.777344,-10.299486,-9.191475,-11.087396,-9.997858
1000.781250,-7.035723,-9.189338,-12.557884,-11.759121
1000.785156,-6.723415,-10.332650,-6.378633,-13.161202
1000.789062,-7.156757,-6.158618,-6.459230,-9.806866
1000.792969,-2.895416,-2.909559,4.334307,-10.138293
1000.796875,1.059783,-6.255841,-5.115210,-3.279834
1000.800781,0.122949,4.720054,0.966653,0.080550
1000.804688,-0.057860,0.720942,3.867626,-2.896246
1000.808594,9.233193,0.774592,8.385056,6.102128
1000.812500,5.992456,3.842257,4.086112,8.678259
1000.816406,6.020698,10.735083,7.423009,6.822250
1000.820312,12.879001,6.583021,10.747711,12.296987
1000.824219,8.723719,17.260428,13.846770,3.447988
1000.828125,13.526830,9.713534,9.322156,8.448186
1000.832031,5.139244,10.763211,8.407168,12.548134
1000.835938,8.981963,7.390972,6.165596,11.325533
1000.839844,7.334279,1.529536,13.444617,13.402654
1000.843750,-2.017204,5.568958,3.991669,8.322655
1000.847656,4.506300,-1.132658,-1.020975,-1.773708
1000.851562,0.548553,0.186134,1.331071,1.319035
1000.855469,0.098878,-13.116610,-5.871747,-2.520310
1000.859375,-9.239696,-3.613186,-0.410172,-7.777003
1000.863281,-9.462665,-8.250669,-9.615749,-2.731065
1000.867188,-5.767594,-16.147523,-3.098344,-7.787016
1000.871094,-15.506062,-4.733522,-3.089063,-7.045287
1000.875000,-12.174818,-14.640937,-7.229885,-7.254449
1000.878906,-4.927240,-13.326702,-7.580826,-4.647897
1000.882812,-5.447200,-7.187449,-7.081673,-3.007447
1000.886719,-9.184969,-2.882305,-4.930367,-4.804813
1000.890625,-5.009186,-9.159882,-8.437630,-3.373882
1000.894531,-6.344121,0.491546,-10.359389,-3.525996
1000.898438,0.498249,-3.543549,-5.721314,-2.053106
1000.902344,5.701613,0.209992,2.761237,4.373764
1000.906250,-1.436814,4.856082,-0.770259,4.090338
1000.910156,0.848153,4.450228,4.239483,0.014761
1000.914062,11.456911,12.182471,1.170191,11.922724
1000.917969,19.433133,3.222796,10.414899,0.309446
1000.921875,10.964298,10.572437,12.519938,6.982582
1000.925781,11.538347,7.499357,15.140682,17.232883
1000.929688,9.841934,11.965565,7.757069,16.153621
1000.933594,9.613559,8.627254,9.775118,10.594620
1000.937500,3.536557,9.006680,7.779247,1.332499
1000.941406,3.995536,-0.691383,1.430809,-0.413139
1000.945312,3.811663,0.014239,0.024421,-7.709849
1000.949219,4.604325,-7.758917,-2.339029,-6.443789
1000.953125,-3.472618,-3.408142,-1.738981,2.339955
1000.957031,-8.114056,-2.928664,-5.209572,-2.849724
1000.960938,-10.762962,-14.285507,-1.629805,-3.991348
1000.964844,-6.009842,-6.849652,-2.005910,-3.336694
1000.968750,-0.522774,-7.178956,-17.832464,-4.092949
1000.972656,-8.934858,-3.308958,-6.945775,-10.061180
1000.976562,-12.565532,-7.373113,-11.546417,-8.570834
1000.980469,-7.056195,-11.488512,-8.763012,-18.878987
1000.984375,-13.057553,-8.006479,-2.200746,-11.924531
1000.988281,-0.779105,-8.848507,-4.109066,-9.525377
1000.992188,-6.319089,-4.820162,-9.752172,-6.722766
1000.996094,-5.569027,-3.202877,-4.940886,0.157364
1001.000000,-5.554156,-3.821827,-4.381847,4.162245
1001.003906,9.863470,-8.339959,-1.725546,8.035266
1001.007812,5.221557,11.140098,7.117042,8.923914
1001.011719,4.427620,3.115916,11.164581,4.309154
1001.015625,9.641252,7.684568,11.887218,8.514631
1001.019531,9.407845,8.196467,10.996501,7.784453
1001.023438,7.060464,5.625179,11.090674,0.853776
1001.027344,9.328368,14.712792,12.485871,8.997012
1001.031250,12.445858,7.960602,3.844653,15.732082
1001.035156,11.442980,13.894311,13.823484,8.555232
1001.039062,5.502069,9.909845,4.764855,6.016211
1001.042969,-2.836020,12.035748,10.070839,13.128049
1001.046875,0.893911,3.116935,3.093489,1.864620
1001.050781,-2.121303,-5.053539,-3.988060,7.951167
1001.054688,-4.644563,2.952793,-3.936118,-5.295793
1001.058594,-1.989350,-9.103771,-9.010486,-10.376920
1001.062500,-2.617626,-3.380731,-2.315808,-7.603673
1001.066406,-10.393865,-7.461940,-2.992666,-13.701750
1001.070312,-2.768361,-4.997860,-7.185600,-14.417830
1001.074219,-7.494054,-8.670211,-14.273139,-15.161778
1001.078125,-17.546606,-11.345266,-11.713764,-15.264436
1001.082031,-2.079656,-11.766218,-19.369775,-8.602436
1001.085938,-4.997489,-5.992501,-3.480197,-7.980911
1001.089844,-2.645575,-7.407449,-7.917342,2.921125
1001.093750,-2.554476,-4.062854,-3.974476,-4.680213
1001.097656,1.508434,2.516804,1.872216,-1.694552
1001.101562,-2.156638,0.675902,6.877655,-4.689494
1001.105469,2.538369,0.186122,5.998717,-4.323696
1001.109375,6.209913,4.691099,7.536933,7.214492
1001.113281,4.307599,12.501263,4.227453,3.672878
1001.117188,4.103886,7.858753,10.835765,11.048727
1001.121094,8.598862,9.313432,6.913637,8.856277
1001.125000,3.495457,19.187576,6.017656,12.547176
1001.128906,11.941299,5.891320,9.074417,10.139228
1001.132812,12.272308,4.226690,5.457739,5.930761
1001.136719,2.315089,10.529500,6.585172,9.898717
1001.140625,8.771119,6.360706,1.567954,4.371930
1001.144531,4.579709,1.823453,8.525156,7.861398
1001.148438,2.195687,2.900719,3.595292,6.284146
1001.152344,5.225320,-2.979743,-6.048034,-0.607096
1001.156250,-13.247026,-2.165034,-4.022775,-1.153046
1001.160156,-11.343585,-7.420755,-6.516661,-7.518478
1001.164062,-9.529209,6.315013,-6.710035,-11.650587
1001.167969,-12.075200,-14.419797,-4.590185,-14.934561
1001.171875,-5.037419,-17.147770,-7.815980,-6.140031
1001.175781,-5.031020,-5.768046,-6.519998,-6.082944
1001.179688,-13.325773,-10.646432,-11.261872,-10.902211
1001.183594,-7.494960,-14.136110,-5.842590,-3.503199
1001.187500,-5.592618,-10.519187,-7.811547,-8.861369
1001.191406,-1.424639,-0.699282,-4.325046,-9.079844
1001.195312,2.247133,3.091358,-3.672699,-3.811329
1001.199219,0.260998,1.145031,0.156239,2.105881
1001.203125,1.922442,4.685217,-2.994297,4.083409
1001.207031,-4.271275,2.026448,5.252386,0.680812
1001.210938,5.113327,-3.736625,0.484900,9.208103
1001.214844,8.362876,9.823851,3.643045,9.223118
1001.218750,9.421862,15.028191,7.185025,9.977686
1001.222656,7.295877,9.511210,9.817356,4.225859
1001.226562,7.685574,6.918874,2.892576,14.394703
1001.230469,6.491825,15.021268,1.452459,15.515337
1001.234375,9.774062,10.921986,13.687133,7.243209
1001.238281,10.078582,9.442371,-1.285500,9.935197
1001.242188,9.994678,6.256600,10.703313,0.450296
1001.246094,1.033278,-2.033940,11.836364,6.021991
1001.250000,2.583887,-0.693285,-4.596330,-2.284372
1001.253906,3.726285,3.034062,1.079107,-5.104194
1001.257812,-5.250177,-4.738107,1.196801,-5.460283
1001.261719,-5.429793,-1.957202,-1.365165,-7.756546
1001.265625,-14.516584,-14.567335,-12.876766,-9.201432
1001.269531,-16.793855,-5.874253,-0.096574,-18.490502
1001.273438,-6.852385,-6.351774,-7.270457,-12.715991
1001.277344,-2.450612,-10.830875,-2.706536,-9.927242
1001.281250,-14.165412,-4.319826,-13.093311,-10.058367
1001.285156,-12.202798,-2.025255,-3.353409,-11.469922
1001.289062,-10.034123,-6.810107,-10.942181,-6.525904
1001.292969,-2.910343,-5.486965,-3.618902,-1.560682
1001.296875,-0.148477,4.007680,1.022176,2.649818
1001.300781,3.221105,-0.781780,-1.862901,-0.960603
1001.304688,-8.655199,6.111244,3.053562,3.681289
1001.308594,2.811760,7.109384,6.025126,6.710807
1001.312500,3.700340,12.696914,3.914795,17.783639
1001.316406,1.018767,-0.436749,14.481879,12.921945
1001.320312,7.021221,14.852530,9.551206,10.588865
1001.324219,13.591912,7.944408,9.730700,16.125708
1001.328125,9.748937,5.315798,11.644788,13.372674
1001.332031,7.605858,11.247937,6.271368,9.744322
1001.335938,0.673239,6.997797,8.355265,9.894608
1001.339844,5.137940,4.532453,8.211486,4.833705
1001.343750,8.832090,8.047432,2.810971,2.684856
1001.347656,1.825013,6.335882,-1.861968,2.114680
1001.351562,-5.203182,-6.600183,5.725337,-0.678625
1001.355469,-2.053326,-5.505425,5.269703,-1.432256
1001.359375,-12.244945,-5.195723,-4.788997,-7.256536
1001.363281,-3.879126,-8.299913,-10.363554,-6.605017
1001.367188,-15.054405,-8.263247,-5.990120,-9.680217
1001.371094,-9.486087,-5.366444,-7.944279,-1.300362
1001.375000,-13.486749,-10.639134,-7.924517,-13.413793
1001.378906,-21.657406,-5.389773,-7.906110,-13.546943
1001.382812,-8.170454,-11.385700,-11.817211,-6.415226
1001.386719,-0.356983,-4.559027,-9.137973,-3.887056
1001.390625,-3.938069,-9.088537,-9.500141,0.535872
1001.394531,1.591075,-2.004061,-6.885328,2.109029
1001.398438,-4.560665,3.425217,-2.998607,-3.801206
1001.402344,2.370175,2.062967,-0.754219,2.341344
1001.406250,8.673638,-0.865616,11.219270,6.327283
1001.410156,5.284871,7.566271,3.804436,8.076812
1001.414062,7.791179,4.787568,10.134168,8.539646
1001.417969,9.605366,2.746422,19.114116,14.877342
1001.421875,7.702065,9.688043,9.010195,11.930194
1001.425781,12.990631,4.102641,7.460729,12.268331
1001.429688,17.642219,2.502659,18.164594,17.098604
1001.433594,11.797980,10.229491,4.245523,13.997685
1001.437500,6.063360,6.638251,9.699522,13.182084
1001.441406,1.952342,5.620117,3.210464,0.866640
1001.445312,-2.833911,6.492110,2.044221,2.933212
1001.449219,1.158139,4.788954,-1.712038,1.807136
1001.453125,4.151037,3.331475,-7.357554,-6.991488
1001.457031,-12.503491,-3.321784,-7.986090,3.550233
1001.460938,-2.995924,-7.522236,-4.275015,-4.999354
1001.464844,-1.639997,-1.084511,-9.183459,-13.652969
1001.468750,-6.101254,-14.387483,-10.166479,-6.993202
1001.472656,-13.009813,-13.081138,-9.966032,-8.048863
1001.476562,-5.547842,-10.706271,-15.647207,-11.821988
1001.480469,-12.984145,-9.972030,-16.537628,-9.218533
1001.484375,-9.633532,-2.860015,-11.907903,-6.310928
1001.488281,-10.903286,-8.365975,-4.342956,-5.532419
1001.492188,1.147885,-4.602475,-6.188122,-0.388550
1001.496094,-0.033052,-3.772802,-7.785657,5.496803
1001.500000,4.109331,-2.821176,-1.189825,-2.917972
1001.503906,-2.149733,3.521170,6.050404,4.426371
1001.507812,2.235243,4.517579,-1.823436,7.398890
1001.511719,4.169800,0.702930,10.051251,4.125508
1001.515625,10.427105,9.129713,12.891990,4.716384
1001.519531,8.854356,11.944694,6.549656,13.462017
1001.523438,8.809043,12.798261,11.947257,5.391467
1001.527344,10.120987,7.852443,17.599501,11.361386
1001.531250,4.082099,16.749516,8.216947,14.639021
1001.535156,5.411331,3.156311,8.777447,12.647325
1001.539062,8.055307,8.375420,-0.631903,7.470993
1001.542969,-0.250204,6.164481,-0.088799,7.892030
1001.546875,4.734824,2.879981,5.305376,-4.617079
1001.550781,-6.825610,-1.709478,1.704187,-2.320718
1001.554688,-5.035670,4.220097,-0.806218,-7.066225
1001.558594,-8.762874,-7.357760,-0.012613,-2.145992
1001.562500,-11.003442,-11.059656,-5.234399,-5.717883
1001.566406,-14.754354,-10.960739,-9.647434,-9.996668
1001.570312,-4.063922,-4.115340,-7.436958,-5.151571
1001.574219,-11.708256,-14.279961,-12.836956,-6.582998
1001.578125,-8.649009,-14.821860,-4.142984,-11.969277
1001.582031,-6.995032,-11.131297,-18.510137,-7.566661
1001.585938,-2.846853,-5.088679,-6.340159,-8.427932
1001.589844,-2.570597,-10.497714,-8.320316,-4.867853
1001.593750,1.304926,-0.735429,-2.351771,-4.679732
1001.597656,-3.424783,-4.734668,1.149908,-3.091270
1001.601562,-0.224775,6.379162,7.074253,7.310135
1001.605469,2.607911,5.357348,6.823462,4.029337
1001.609375,-2.815928,-0.012848,0.895213,17.058404
1001.613281,4.971268,3.555047,9.199852,6.502217
1001.617188,6.826187,7.915929,8.384968,10.932732
1001.621094,8.150781,12.640482,15.232555,2.838635
1001.625000,7.480643,14.465034,8.114074,8.839934
1001.628906,9.469440,6.138788,14.722156,9.428049
1001.632812,6.797543,8.514280,8.742255,10.136001
1001.636719,8.541938,5.650478,10.504138,7.247868
1001.640625,4.941221,0.409253,14.558365,1.189048
1001.644531,0.545286,10.078335,3.681747,1.813257
1001.648438,-2.843086,-0.574481,-1.054238,0.653555
1001.652344,-1.034202,-4.475478,8.225403,-0.357491
1001.656250,-2.623521,-0.953244,-2.817225,-9.069648
1001.660156,3.855551,-7.018935,-9.460133,-8.777322
1001.664062,-3.839590,-3.119294,-11.805420,-2.262256
1001.667969,-10.521281,-7.892309,-4.015246,-8.243462
1001.671875,-5.309116,-6.313632,-8.860777,-10.465820
1001.675781,-13.762974,-9.804583,-7.457782,-6.731306
1001.679688,-9.798450,-16.444750,-11.459432,-9.695918
1001.683594,-3.984584,-6.846230,-11.788515,-13.500458
1001.687500,-6.104480,-7.501964,-8.077227,1.011565
1001.691406,-4.244631,-13.044809,-9.248113,-8.907664
1001.695312,-4.634495,-6.901312,1.577139,0.046289
1001.699219,8.247171,0.422469,-0.070643,-1.125244
1001.703125,2.443771,-4.070090,2.724362,1.151267
1001.707031,3.748418,9.701441,9.540455,6.093392
1001.710938,3.597287,7.469754,4.948464,5.767203
1001.714844,17.449119,7.608551,10.634286,10.343077
1001.718750,1.407126,12.488368,12.249291,-1.666891
1001.722656,14.475464,8.498526,8.188169,13.051951
1001.726562,11.459123,9.427071,9.638553,9.847838
1001.730469,9.157484,5.434044,10.554927,8.669949
1001.734375,10.965239,6.084416,8.756656,10.281144
1001.738281,9.464572,1.292666,9.252803,12.955007
1001.742188,9.132209,7.063941,2.007884,6.772442
1001.746094,1.307241,1.210719,3.331532,-1.575531
1001.750000,0.290888,0.512593,-5.646487,-0.170951
1001.753906,6.880199,3.314846,-7.609294,0.069194
1001.757812,-3.868243,2.732157,-0.222701,-9.854211
1001.761719,-9.144935,-8.633196,-11.575460,-8.048880
1001.765625,-12.045336,-6.960985,-12.383318,-7.071088
1001.769531,-5.268978,-12.657408,-5.108061,-11.766037
1001.773438,-1.422974,-9.866406,-15.637433,-16.387273
1001.777344,-13.168413,-11.304371,-9.886346,-9.236886
1001.781250,-5.304377,-6.307516,-7.939484,-12.723843
1001.785156,-13.680335,-7.360674,-8.412328,-11.965888
1001.789062,-6.494430,2.022275,-7.692897,1.331287
1001.792969,-6.978346,-9.514726,-0.525050,-1.802637
1001.796875,-0.824619,4.316308,0.427922,3.513283
1001.800781,2.372811,-5.107686,-1.334902,-0.625912
1001.804688,0.940694,3.205593,1.801165,0.229935
1001.808594,10.804371,13.547329,6.708479,2.708037
1001.812500,8.471628,10.773858,10.671366,-0.325402
1001.816406,5.035343,5.769957,8.391909,11.350553
1001.820312,7.537476,6.921633,11.026190,5.666109
1001.824219,7.165575,10.363809,4.059754,13.290802
1001.828125,10.562541,5.160711,5.382330,12.158299
1001.832031,12.817771,15.860158,12.699689,8.473087
1001.835938,8.980947,11.044540,10.502726,9.523006
1001.839844,-4.360125,8.294936,13.394906,-0.668985
1001.843750,8.687156,1.295069,5.534059,-0.709974
1001.847656,0.336466,-2.779685,0.656433,2.219025
1001.851562,-0.384325,-1.678205,-3.991497,-6.320626
1001.855469,-6.859700,4.595844,-10.464075,5.084897
1001.859375,-2.966698,-7.987181,-6.372948,-8.604624
1001.863281,-6.218596,-10.541561,-9.660892,-5.425961
1001.867188,-8.163701,-2.517234,-9.718309,-11.751965
1001.871094,-13.174671,-11.766856,-13.104432,-6.064643
1001.875000,-14.609650,-11.266410,-16.940004,-9.876993
1001.878906,-14.965220,-6.650163,-2.758474,-12.054422
1001.882812,-6.967985,-11.579501,-15.978754,-7.444651
1001.886719,-11.932998,-9.949770,3.702089,-4.123241
1001.890625,-5.817756,-5.573701,-2.911731,-1.602451
1001.894531,-2.318569,-9.981956,1.026149,-3.096853
1001.898438,-4.013674,1.089401,-7.541114,-3.050871
1001.902344,0.121113,-1.082404,3.251146,4.679640
1001.906250,3.833574,1.511200,8.212351,6.432396
1001.910156,11.616395,6.468402,4.623316,10.420742
1001.914062,10.647171,7.682460,8.496890,6.526157
1001.917969,12.157032,10.828035,6.851014,10.165414
1001.921875,15.955788,6.542948,12.182381,0.765780
1001.925781,16.701365,14.679994,8.970722,4.939355
1001.929688,9.983696,4.168498,9.401716,13.808705
1001.933594,8.036349,2.288413,10.830161,9.921650
1001.937500,5.489727,8.226296,11.854702,2.985082
1001.941406,3.633610,6.622740,5.846462,9.342353
1001.945312,-0.916220,2.262195,-3.217393,0.434065
1001.949219,-5.690251,-7.926417,0.206983,-5.473951
1001.953125,-0.889402,3.247368,-2.385093,4.821585
1001.957031,-5.468613,-0.864223,-9.316312,-1.461896
1001.960938,-4.840946,-6.134320,-9.958149,-7.190600
1001.964844,-8.978874,-5.054663,-9.025648,-5.665676
1001.968750,-7.149594,-5.926764,-10.782961,-6.521554
1001.972656,-4.530896,-12.065075,-6.555446,-7.284968
1001.976562,-14.894557,-14.072891,-10.150799,-10.321615
1001.980469,-2.445469,-10.947550,-6.859042,-9.020855
1001.984375,-4.560057,-5.485440,-8.924818,-3.054567
1001.988281,-3.985722,-4.358411,-5.219533,-13.537888
1001.992188,-5.675782,-3.484578,-6.734744,1.783401
1001.996094,-6.863920,2.290052,-1.140024,-4.041661
1002.000000,2.436750,1.272266,-3.505225,5.919134
1002.003906,4.125776,5.514826,-3.802701,1.822750
1002.007812,-4.514212,2.019031,8.017329,7.199172
1002.011719,3.189290,4.477059,3.398927,8.106410
1002.015625,13.672059,6.924975,10.129581,9.786165
1002.019531,15.530125,13.393677,8.148096,2.333156
1002.023438,18.648166,4.305505,9.882443,7.611284
1002.027344,12.681754,3.070408,7.594559,7.929426
1002.031250,9.375424,3.594486,10.591442,11.455554
1002.035156,4.914380,7.833008,14.646042,4.208804
1002.039062,5.692713,11.876093,7.127563,9.425143
1002.042969,1.834418,0.812785,2.415024,7.140979
1002.046875,-2.437129,2.614754,2.566138,6.717303
1002.050781,3.773181,-5.404235,-5.775144,-5.347933
1002.054688,-4.108403,0.906990,-4.267129,4.136820
1002.058594,-9.543181,-2.859066,-10.646625,-3.442915
1002.062500,-5.050396,-0.394844,-14.412325,-13.147529
1002.066406,0.556320,-14.269355,-11.793442,-9.554214
1002.070312,-9.872556,-10.960097,-10.483725,-5.988135
1002.074219,-10.501992,-6.591987,-6.836527,-5.235564
1002.078125,-8.837365,-12.342740,-7.838960,-5.710923
1002.082031,-6.076250,-9.237159,-7.691751,-6.275957
1002.085938,1.924941,-1.927188,-10.036285,-13.188126
1002.089844,-9.393096,-1.724037,-4.005421,-7.099841
1002.093750,-4.076762,-0.788641,-10.351513,-2.822830
1002.097656,-5.004592,2.196232,0.752323,-4.210996
1002.101562,-3.911209,-0.453091,0.645051,-1.052243
1002.105469,-0.807207,2.101977,7.744086,1.757604
1002.109375,0.366784,5.383031,5.504460,4.020902
1002.113281,6.612203,13.737149,9.133193,13.565762
1002.117188,-1.485635,11.454730,15.430608,4.746546
1002.121094,9.987220,6.987969,12.780412,9.691287
1002.125000,11.886866,1.115821,12.067792,13.877291
1002.128906,5.940147,10.838735,20.875224,7.018168
1002.132812,12.554818,14.442133,8.606637,16.142158
1002.136719,7.219289,6.803303,6.665170,4.730643
1002.140625,6.653357,1.608170,5.132372,10.471994
1002.144531,3.184611,4.376946,6.866941,1.344737
1002.148438,0.495942,-9.538987,10.163737,4.493625
1002.152344,-3.922656,-8.967773,-0.791973,3.078078
1002.156250,-1.836753,-0.092997,1.178863,0.899219
1002.160156,-8.436943,-9.116960,-14.174527,-12.880443
1002.164062,-8.630223,-4.008557,-3.091330,-10.991814
1002.167969,-7.878256,-6.680280,-7.288856,-8.326312
1002.171875,-10.885655,-8.989378,-9.546275,-7.222907
1002.175781,-8.441219,-15.356496,-6.840993,-12.145625
1002.179688,-8.946768,-11.280537,-15.783650,-15.327895
1002.183594,-5.856504,-6.597335,-6.251640,-8.610470
1002.187500,0.536821,-10.593782,-9.402605,-8.582377
1002.191406,-7.397615,-9.800547,-5.118740,-10.731206
1002.195312,-4.134300,2.213583,-3.041984,-8.030284
1002.199219,5.057964,6.469181,5.185981,-1.802814
1002.203125,-0.764798,-8.721413,-0.814314,-6.111572
1002.207031,4.667564,2.879194,6.096865,1.636972
1002.210938,2.323349,-5.517800,-3.459498,6.130193
1002.214844,10.886808,4.058599,7.232045,8.825482
1002.218750,17.853164,11.269114,8.806521,12.082513
1002.222656,5.066118,14.721314,16.472874,18.219326
1002.226562,6.428238,13.405950,13.551056,13.334693
1002.230469,10.636405,9.285120,8.140947,12.605803
1002.234375,6.820215,9.502907,7.160653,3.083937
1002.238281,2.587690,5.157629,0.115710,3.727422
1002.242188,8.461544,5.424535,6.362727,6.056119
1002.246094,8.481885,-0.024613,2.416056,11.046909
1002.250000,2.581217,6.494837,-5.264113,1.841607
1002.253906,-0.997003,-8.693740,-11.713187,-1.069542
1002.257812,1.737780,-4.180557,-3.964991,-6.738131
1002.261719,-3.980616,-9.435122,-3.899521,-8.236937
1002.265625,-8.354854,-7.357514,-8.857779,-6.940752
1002.269531,-12.056477,-10.603167,-16.684702,-17.396229
1002.273438,-13.830089,-15.867622,-5.864168,-9.356364
1002.277344,-9.796459,-9.338484,-8.602223,-10.240716
1002.281250,-4.724371,-19.477051,-4.218250,-4.489258
1002.285156,-10.522479,-6.231195,-11.112294,-4.677099
1002.289062,-8.620837,-5.973478,-5.681353,-12.370711
1002.292969,0.206057,-6.520046,-10.057055,-4.898568
1002.296875,-1.209431,-6.957614,-3.103701,-1.477271
1002.300781,5.018784,0.663584,-5.270151,-0.922402
1002.304688,2.323961,5.227029,6.123050,6.663421
1002.308594,-0.785432,7.158165,0.503891,5.782600
1002.312500,5.218695,11.638805,7.633320,12.842088
1002.316406,2.688283,8.266433,8.734216,11.038819
1002.320312,2.222301,10.752351,2.526034,7.677197
1002.324219,1.739439,6.705915,8.399834,11.520394
1002.328125,12.921594,17.125431,10.294944,12.380745
1002.332031,10.582227,9.624128,3.467539,15.182254
1002.335938,8.375275,9.618920,15.531883,2.236194
1002.339844,9.815010,-0.851119,4.770716,9.127347
1002.343750,2.986338,5.312916,-0.204741,1.146102
1002.347656,1.237011,2.556497,-1.272770,-1.318054
1002.351562,-2.789905,2.201237,-1.579763,2.724910
1002.355469,-9.696658,-6.487582,-2.945606,2.160370
1002.359375,-4.845750,0.218297,-11.715702,-6.036982
1002.363281,-6.542598,-7.079556,-7.257195,-2.131249
1002.367188,-6.013756,0.131468,-12.189391,-7.399572
1002.371094,-12.792499,-13.781707,-12.388447,-14.275368
1002.375000,-14.608986,-13.935590,-12.888669,-16.385861
1002.378906,-4.326794,-10.554740,-1.363046,-8.166829
1002.382812,-11.232110,-10.645956,-6.431401,-12.938955
1002.386719,-8.842585,-4.212301,-8.362799,-4.325804
1002.390625,-7.710223,-1.158398,-3.147822,-3.458397
1002.394531,-0.614167,-2.283529,-3.793747,-1.403055
1002.398438,-2.050920,-2.423327,-5.474769,2.795893
1002.402344,-5.134490,1.288610,3.950002,4.653945
1002.406250,3.242881,1.098714,-2.221426,-4.768335
1002.410156,2.981725,6.922020,4.520777,8.293314
1002.414062,8.641867,13.206327,12.135502,4.216660
1002.417969,6.518950,5.771402,4.563365,12.562468
1002.421875,7.750937,14.944460,1.122936,9.067242
1002.425781,10.215072,7.520507,11.838055,7.767568
1002.429688,7.518497,15.003184,6.972609,12.442892
1002.433594,1.852338,1.815578,10.976649,8.611164
1002.437500,4.238532,6.638704,10.541428,7.104266
1002.441406,2.468574,5.886718,-0.861612,4.618257
1002.445312,7.666041,6.894955,2.054914,1.163999
1002.449219,2.666216,10.358504,-1.523681,-1.239790
1002.453125,-7.189873,0.077443,-2.501268,-3.526386
1002.457031,0.735632,0.920519,0.527245,-3.205092
1002.460938,-7.826895,-6.300837,-9.419503,-3.953334
1002.464844,-7.896384,-12.888333,-8.417331,-6.262581
1002.468750,-12.824830,-7.426839,-6.421717,-1.733339
1002.472656,-13.249990,-15.374418,-9.018782,-13.806664
1002.476562,-11.329091,-10.544370,-10.207995,-10.062555
1002.480469,-13.339988,-9.432461,-7.463832,-10.947230
1002.484375,-12.201169,-9.525098,-3.590353,-7.085508
1002.488281,-12.056250,-3.788675,-15.866114,-3.039642
1002.492188,-7.608586,-2.697802,-4.491575,-8.053209
1002.496094,4.618443,-0.455707,-1.688123,7.954168
1002.500000,-0.159402,0.208291,-8.119007,0.942911
1002.503906,3.560542,0.529520,1.413906,0.164205
1002.507812,-0.681798,4.711689,5.597433,5.563861
1002.511719,3.026865,10.374590,5.464592,-0.901767
1002.515625,13.018586,7.797687,4.604476,8.353031
1002.519531,8.867223,11.972063,8.687497,8.672738
1002.523438,13.880812,4.992559,13.875120,9.587737
1002.527344,14.727239,7.232550,13.240329,12.165942
1002.531250,8.719623,10.755250,9.016511,6.580191
1002.535156,11.721410,5.333335,6.664933,8.389525
1002.539062,7.581419,6.720859,2.552549,7.096657
1002.542969,-1.863960,-1.236731,7.733500,1.389098
1002.546875,-1.688584,5.182977,6.262167,-7.950547
1002.550781,2.658590,4.823064,0.320923,-1.802383
1002.554688,-5.911035,-1.626890,-3.219377,-3.208860
1002.558594,-7.881476,-7.672988,-2.511282,-6.822527
1002.562500,-9.697978,-9.779880,-4.419703,0.541064
1002.566406,-9.808348,-9.833552,-2.449645,-6.534720
1002.570312,-6.130231,-3.687914,-17.050192,-9.646898
1002.574219,-5.148067,-23.589460,-11.741185,-7.009374
1002.578125,-8.479619,-9.201601,-4.204971,-9.041958
1002.582031,-7.279474,-17.526123,-5.367602,-9.277192
1002.585938,-10.081606,-7.799223,-11.139456,0.906528
1002.589844,-8.169888,-0.921734,-0.771534,-1.206275
1002.593750,-5.625658,1.070298,-3.475460,0.737656
1002.597656,3.320548,1.515846,-6.070005,-1.969513
1002.601562,0.915588,-1.209685,-5.977000,0.911820
1002.605469,1.422586,1.535344,2.304502,-1.721572
1002.609375,2.851366,7.111192,10.232516,15.932931
1002.613281,7.338886,7.387746,13.925246,4.492976
1002.617188,11.354418,3.450400,9.437027,4.770893
1002.621094,11.490078,15.847760,12.008742,9.423895
1002.625000,13.921245,8.825458,14.035672,14.842574
1002.628906,9.205395,11.332630,12.101479,8.624046
1002.632812,9.711232,14.056776,3.342546,10.047466
1002.636719,13.188280,9.562313,6.525108,7.467901
1002.640625,0.967575,11.446332,6.094263,4.675073
1002.644531,2.510211,-1.582681,-1.272852,0.961284
1002.648438,1.004009,4.512848,0.936891,-0.066756
1002.652344,-5.813875,-9.999990,-4.181042,-3.524986
1002.656250,-4.630506,-1.334062,-7.680178,-2.022151
1002.660156,-6.179727,1.879654,-3.361867,-10.336565
1002.664062,-5.952127,-10.323014,-8.084780,-2.168875
1002.667969,-10.008005,-9.574335,-4.481146,-7.490555
1002.671875,-10.075972,-9.621116,-10.775548,-3.779446
1002.675781,-9.046578,-6.855709,-7.367547,-8.184281
1002.679688,-0.065839,-8.468781,-10.484326,-12.933416
1002.683594,-11.124278,-8.299287,-17.016545,-6.868324
1002.687500,-4.383592,-1.370885,0.521394,-1.842498
1002.691406,-8.911372,-5.231056,6.026463,-8.804646
1002.695312,-6.676889,-3.820182,3.799048,0.087138
1002.699219,-1.902526,4.793598,7.529388,-11.058373
1002.703125,3.874694,4.039001,-7.166261,1.216064
1002.707031,2.301063,8.289965,8.121446,3.747741
1002.710938,6.938600,5.616931,-1.211779,-3.502159
1002.714844,7.126653,4.301177,11.692753,4.212662
1002.718750,17.614736,9.446434,8.436407,12.314055
1002.722656,19.351840,11.532427,10.385056,16.379971
1002.726562,3.048590,13.830370,18.090812,8.910071
1002.730469,6.930023,13.382608,8.460678,11.877576
1002.734375,8.699834,8.503875,13.814244,8.635009
1002.738281,13.541278,4.013262,5.067915,13.778505
1002.742188,4.415558,2.444210,-0.087943,2.773785
1002.746094,2.755279,7.497243,2.176750,3.157086
1002.750000,-0.012244,2.773600,-0.932588,-1.603640
1002.753906,-7.732327,-6.526293,-2.738067,-3.780868
1002.757812,-2.759905,1.424196,0.045612,-2.910691
1002.761719,-9.799966,-5.407754,-1.306888,-5.553899
1002.765625,-0.702700,-8.135738,-7.743125,-7.426580
1002.769531,-9.223348,-10.292353,-4.101008,-6.064656
1002.773438,-12.952863,-8.709201,-3.174320,-7.603802
1002.777344,-12.796272,-8.011710,-7.232236,-8.630595
1002.781250,-18.204736,-4.024741,-11.019804,-4.944316
1002.785156,-7.173151,-2.300186,-3.803114,-13.766340
1002.789062,-7.207430,-6.127459,3.352795,-3.522763
1002.792969,-2.575472,-7.589425,-7.339030,-1.570791
1002.796875,-3.471276,-10.885185,-1.969352,-4.858725
1002.800781,5.323635,-3.922234,-1.543370,-3.256794
1002.804688,2.215602,3.235828,5.315067,5.473458
1002.808594,11.517736,1.729547,7.199744,5.759609
1002.812500,3.058818,11.852619,1.217442,12.969362
1002.816406,9.267894,7.661420,12.841511,6.214781
1002.820312,11.710202,5.409449,13.483566,15.716543
1002.824219,12.664769,9.864124,4.051891,9.405665
1002.828125,7.978767,9.394894,8.589275,12.350427
1002.832031,6.536107,4.396978,12.950525,8.581639
1002.835938,2.713772,9.015120,10.509824,5.487383
1002.839844,12.482149,4.376068,4.267895,-0.138294
1002.843750,-2.674216,4.000530,4.480438,1.282815
1002.847656,2.840687,-2.330615,-2.516753,4.630631
1002.851562,0.700338,-0.683776,-2.797186,0.025892
1002.855469,-9.102054,-9.166882,-5.069338,-0.707636
1002.859375,-13.649719,1.793026,-7.695563,-3.797836
1002.863281,-8.453649,-8.096403,-2.048137,-7.155814
1002.867188,-11.969615,-13.487800,-5.144396,-14.342023
1002.871094,-8.410525,-13.081474,-9.330893,-5.202783
1002.875000,-16.314115,-9.492286,-9.985299,-5.836191
1002.878906,-9.660927,-17.077085,-14.036491,-8.010997
1002.882812,-5.254323,-17.509267,-11.491327,-15.538470
1002.886719,-6.693853,-13.684797,-5.104665,-10.003104
1002.890625,-6.473889,-7.157467,0.266076,2.388043
1002.894531,-8.935546,-2.544007,-7.623424,-8.743459
1002.898438,-1.376811,1.842446,-1.120233,4.125473
1002.902344,-6.103941,1.691819,-4.533114,-6.011143
1002.906250,2.587488,9.688095,0.504187,8.456797
1002.910156,6.218870,6.595162,4.409990,10.173650
1002.914062,2.501760,8.339496,11.126566,10.290722
1002.917969,3.451675,3.043113,11.107117,4.483975
1002.921875,9.884216,8.503761,5.734689,11.072485
1002.925781,9.386126,7.302529,3.710998,11.683578
1002.929688,4.701241,9.104828,14.950205,16.472107
1002.933594,13.123981,12.306138,2.685984,8.232181
1002.937500,7.126147,4.230659,4.469194,3.645221
1002.941406,-0.263649,3.938438,2.044504,0.504199
1002.945312,5.793055,6.391614,-3.515907,7.575601
1002.949219,-6.189522,-4.626986,1.988536,1.989463
1002.953125,-4.584432,-4.555093,-3.339586,-2.284385
1002.957031,-8.332021,-5.445158,-7.327262,5.783943
1002.960938,1.633527,-2.048484,-9.495247,-10.697074
1002.964844,-11.715586,-7.960697,-10.887074,-9.895547
1002.968750,-7.150746,-10.450482,-15.532710,-4.633907
1002.972656,-10.812894,-8.110611,-9.293053,-13.757620
1002.976562,-15.748510,-10.025434,-7.961274,-8.143932
1002.980469,-15.907009,-7.355684,-16.591699,-8.634622
1002.984375,-4.604661,-8.123475,-3.007730,-4.952870
1002.988281,-6.839952,-7.233168,-8.815469,-4.296276
1002.992188,-8.630186,-5.335016,-6.414294,-0.782013
1002.996094,-9.690954,-7.575477,-5.634740,-2.758552
1003.000000,-0.432231,-11.973892,1.000047,-1.243217
1003.003906,3.898314,-3.031665,-0.098759,1.280970
1003.007812,8.653647,9.842265,7.558476,3.394208
1003.011719,3.909882,1.251260,4.867649,7.163039
1003.015625,4.548678,5.989361,5.174913,9.051113
1003.019531,7.938729,11.809454,8.810123,5.650361
1003.023438,15.067855,16.039376,1.042972,5.063210
1003.027344,3.995578,10.711644,11.214680,6.305934
1003.031250,8.821622,9.667890,8.715357,3.867543
1003.035156,7.192967,3.770319,10.827154,8.670869
1003.039062,-0.090932,10.467743,9.484490,10.984512
1003.042969,5.374557,6.511387,8.618387,9.226322
1003.046875,2.093343,-5.318210,1.528903,1.732419
1003.050781,-6.982967,0.238577,-4.842338,-0.385541
1003.054688,-1.439720,-4.602155,-3.568885,-9.414145
1003.058594,-7.485609,-2.571055,-3.891819,-11.899528
1003.062500,-5.216887,-6.081243,-7.231334,-8.505356
1003.066406,-12.647536,-9.792347,-10.136353,-10.012744
1003.070312,-7.101936,-12.234716,-12.113738,-6.867748
1003.074219,-8.140427,-7.868883,-8.533206,-13.844381
1003.078125,-7.610654,-11.122272,-3.200715,-3.450376
1003.082031,-12.405151,-8.133631,-11.884175,-8.276851
1003.085938,-5.302775,-7.292834,-8.000657,-8.418780
1003.089844,-4.585400,-7.081949,-1.008366,-4.272287
1003.093750,-1.030560,-3.825244,-2.697953,-3.055244
1003.097656,-6.734487,-0.154826,-3.137786,0.213087
1003.101562,1.085591,5.783801,-4.761582,-2.969342
1003.105469,0.068461,-1.116132,9.410286,1.861416
1003.109375,7.644176,8.470956,0.412578,3.370418
1003.113281,7.657825,8.574505,11.113917,7.185387
1003.117188,7.773656,7.976019,10.990371,11.101449
1003.121094,7.606147,5.798644,12.520208,8.948926
1003.125000,6.573500,11.027573,13.124066,8.201820
1003.128906,10.152232,18.026211,6.450449,11.579496
1003.132812,5.679151,8.278527,6.616500,11.164322
1003.136719,3.354930,8.013577,12.559187,14.546340
1003.140625,2.471467,7.097776,9.948260,16.185439
1003.144531,2.842474,-1.463879,9.667361,5.597220
1003.148438,3.947940,3.463447,-0.220422,-0.011221
1003.152344,2.637902,-11.061275,-5.287232,-5.481285
1003.156250,-8.834050,-1.813758,-8.486872,-7.059772
1003.160156,-3.189901,-8.438297,2.973509,-1.690017
1003.164062,-3.073067,-9.891108,-9.827731,-9.677225
1003.167969,-3.463492,-3.985983,-11.304546,-10.405663
1003.171875,-4.351216,-2.207481,-10.668675,-14.662378
1003.175781,-7.899473,-13.975867,-13.094884,-11.761391
1003.179688,-11.496662,-5.969152,-10.042944,-8.467055
1003.183594,-11.736920,-10.348856,-4.200384,-9.249485
1003.187500,-8.762539,-14.205886,-14.897399,-0.478021
1003.191406,-2.131651,-7.243347,-1.728296,-7.075575
1003.195312,-7.664450,2.548093,-3.488673,-10.023961
1003.199219,3.687429,4.360624,0.986839,-3.275342
1003.203125,1.520415,4.057837,7.941217,3.581504
1003.207031,-3.713242,-1.571895,6.109837,3.050724
1003.210938,12.447373,9.364232,4.804851,9.918850
1003.214844,9.029239,4.434396,4.909259,12.014614
1003.218750,9.518927,9.820953,10.366628,11.849770
1003.222656,17.688518,12.407737,11.608514,9.566965
1003.226562,8.524645,10.012785,11.561961,12.185045
1003.230469,8.299253,5.038078,4.215351,16.866535
1003.234375,7.481887,3.385900,17.979746,3.426476
1003.238281,7.717856,5.072503,5.854958,-3.026187
1003.242188,3.655637,3.293227,-2.069639,9.086762
1003.246094,0.284525,-4.008918,-4.353830,-3.081355
1003.250000,6.816437,1.597574,6.025717,-6.877471
1003.253906,-0.400620,-7.929512,0.226404,-0.976179
1003.257812,-0.265545,-5.606357,-5.609252,0.087527
1003.261719,-11.957325,-1.731585,-11.096284,-14.122152
1003.265625,-11.581322,-9.696396,-6.328232,-10.924568
1003.269531,-6.421303,-3.257116,-9.779440,-10.768296
1003.273438,-9.846523,-8.906262,-6.878806,-11.352133
1003.277344,-8.970079,-6.864812,-9.458018,-9.034012
1003.281250,-11.044802,-9.415973,-12.243772,-7.003420
1003.285156,-13.057923,-8.295592,-12.086214,-12.114536
1003.289062,-12.211201,-11.936419,-5.260109,-0.262690
1003.292969,-8.245354,-4.262805,-12.601227,-5.436357
1003.296875,-3.521451,-1.877555,1.201524,-9.029381
1003.300781,-0.669115,5.564139,1.255316,3.282845
1003.304688,8.485932,6.519370,2.762359,4.765455
1003.308594,9.635272,-4.128734,6.149176,4.234115
1003.312500,13.825696,9.230784,8.172254,3.450369
1003.316406,5.044517,8.775039,6.405998,5.623566
1003.320312,6.300855,14.420112,13.286144,4.782767
1003.324219,13.632011,13.554299,8.381404,18.874675
1003.328125,3.936376,8.795469,5.264096,8.062159
1003.332031,8.256336,4.910688,12.074971,7.798112
1003.335938,7.772852,9.949341,9.917879,9.389865
1003.339844,13.256974,3.728038,1.074746,13.833514
1003.343750,0.374445,4.096009,0.415215,0.078473
1003.347656,0.803807,2.113412,2.482092,-4.037365
1003.351562,-9.891840,-2.530732,-5.789757,-7.817986
1003.355469,-12.955090,3.032914,-11.702975,-3.505859
1003.359375,-1.913103,-10.018077,-6.808263,-4.063924
1003.363281,-6.496703,-8.750011,-8.825544,-1.705639
1003.367188,-12.711751,-17.262259,-3.740591,-1.012869
1003.371094,-8.913026,-14.903984,-3.211414,-6.751454
1003.375000,-15.436945,-1.098800,-15.296396,-6.219255
1003.378906,-12.639113,-7.997615,-2.373074,-9.128906
1003.382812,-7.472128,-3.745815,-0.068785,-6.259052
1003.386719,-14.417440,-4.358863,-7.623125,-8.097709
1003.390625,-3.466699,-6.087815,-2.300486,-4.830805
1003.394531,-6.422940,-5.630840,-2.872615,-3.492867
1003.398438,1.030488,-2.113295,-6.860976,2.896723
1003.402344,1.333617,0.599325,-0.464280,-0.541900
1003.406250,0.635366,4.413446,7.753728,0.287110
1003.410156,2.846022,3.947201,3.303924,10.895150
1003.414062,7.753276,-5.821269,10.355220,4.576450
1003.417969,10.368587,16.632522,15.100515,6.130136
1003.421875,13.959529,9.521432,5.723982,7.713561
1003.425781,7.086117,9.467942,11.787338,11.670631
1003.429688,13.501513,8.924613,5.431798,8.271503
1003.433594,4.702151,10.337305,14.208227,1.471676
1003.437500,15.126844,12.791696,0.683067,-0.397177
1003.441406,5.476848,11.383798,-1.955201,13.858152
1003.445312,10.219058,3.461897,5.194075,4.589491
1003.449219,-5.907325,-8.965087,-4.092624,1.937976
1003.453125,-4.539671,2.620189,7.700956,-1.185451
1003.457031,-4.772314,1.750634,-2.848519,-7.847598
1003.460938,-12.772619,-9.240979,-2.297896,-6.721588
1003.464844,-6.339778,-11.842873,-8.212172,-10.810510
1003.468750,-14.912846,-9.224425,-11.088306,-12.752351
1003.472656,-16.018837,-9.441927,-11.641582,-10.033063
1003.476562,-10.769197,-12.308813,-10.872024,-8.022779
1003.480469,-10.651289,-11.669108,-12.305272,-9.660392
1003.484375,-13.560416,-13.402947,-9.261335,-7.458276
1003.488281,-2.258494,-10.379263,-8.753664,-6.832004
1003.492188,-3.944663,-6.810274,-7.097489,-6.370736
1003.496094,4.193038,4.012903,-0.891740,4.750345
1003.500000,-9.064171,2.177653,5.688991,-0.471932
1003.503906,1.009718,-2.117734,1.628840,-1.725656
1003.507812,13.607378,3.598724,10.102658,2.457235
1003.511719,8.294857,11.838275,11.682814,11.061070
1003.515625,2.575766,7.561263,11.588977,7.635206
1003.519531,13.732419,7.054816,2.542101,3.116461
1003.523438,9.214990,10.990979,19.357204,9.725844
1003.527344,5.569987,1.177797,8.852528,5.822888
1003.531250,6.759639,8.982672,6.602364,17.254927
1003.535156,13.486694,10.649242,6.579879,4.496572
1003.539062,6.874574,9.044288,8.367409,12.713712
1003.542969,-2.502930,0.901857,0.514603,3.771696
1003.546875,4.372206,5.825730,10.004670,4.780756
1003.550781,-1.064762,3.208075,-1.740059,0.733974
1003.554688,-1.784016,-3.554099,2.677301,-0.404720
1003.558594,-0.531331,-12.592877,3.588832,-8.498117
1003.562500,-9.917531,-7.009806,-12.158355,-12.919828
1003.566406,-0.406439,-7.468402,-6.732323,-11.570562
1003.570312,-6.716805,-10.304204,-11.279107,-9.833858
1003.574219,-13.289811,-9.901350,-10.813411,-5.660317
1003.578125,-8.854665,-4.833523,-17.201815,-10.360111
1003.582031,-11.807727,-9.121192,-9.509003,-13.063085
1003.585938,-7.450033,-11.099486,-12.816473,-4.573701
1003.589844,-5.848329,-7.987437,0.145387,-0.799294
1003.593750,-5.318432,5.036743,-0.230477,-7.952220
1003.597656,-1.793125,-2.105733,1.823293,-5.912411
1003.601562,8.634955,7.961095,6.086422,2.832988
1003.605469,6.218836,1.880495,11.142218,4.964050
1003.609375,8.197007,3.301524,3.087170,5.827492
1003.613281,7.036569,11.541840,9.269348,7.241641
1003.617188,5.813380,11.172354,7.223042,13.103536
1003.621094,10.398889,6.400947,4.557689,3.771133
1003.625000,4.157321,11.825845,8.993298,5.068988
1003.628906,5.985575,8.358240,2.611430,4.826672
1003.632812,14.591203,8.067419,3.455109,6.958325
1003.636719,9.864518,10.946778,11.671886,0.633821
1003.640625,11.428761,8.644883,12.766034,0.348591
1003.644531,2.037454,3.523199,3.155982,-3.785541
1003.648438,-8.387010,2.305701,2.544937,0.503389
1003.652344,4.730160,-2.848884,-3.666113,-7.661797
1003.656250,-0.529904,-6.091226,-3.375110,-6.752932
1003.660156,-5.067988,-1.707178,-8.735218,-0.353215
1003.664062,-15.495863,-0.148630,-7.729031,-13.811238
1003.667969,-5.294284,-10.391086,-12.195297,-6.185683
1003.671875,-5.927597,-11.155697,-10.390062,-11.365528
1003.675781,-4.120470,-14.202998,-6.642758,-13.132796
1003.679688,-12.389344,-11.614400,-9.083012,-7.405866
1003.683594,-11.354595,-11.675688,-5.466154,-11.444191
1003.687500,-7.934390,-3.518346,0.164416,-9.673260
1003.691406,-13.127658,-7.611207,-8.516842,-9.968183
1003.695312,0.944339,-13.943560,-6.203878,-2.867977
1003.699219,1.845979,-3.902664,-5.562530,-0.790790
1003.703125,-0.614978,-2.633931,2.583705,3.569537
1003.707031,2.019364,3.451369,0.327870,1.266107
1003.710938,8.912363,2.766029,5.470057,0.990766
1003.714844,13.717725,9.875535,6.911733,6.230285
1003.718750,6.234362,5.547145,9.600577,7.047008
1003.722656,6.108635,11.123504,4.185610,14.447223
1003.726562,11.173456,7.395514,7.179248,14.048651
1003.730469,11.691544,8.930063,5.752387,8.636945
1003.734375,4.065667,15.987296,11.882719,15.902966
1003.738281,9.621876,1.887816,8.026850,6.627581
1003.742188,11.090869,9.181004,2.215253,-0.058186
1003.746094,7.373746,5.320016,5.392060,0.539030
1003.750000,-3.058343,-6.920779,-1.408825,-6.325275
1003.753906,-1.507531,1.772033,2.363851,-1.617261
1003.757812,-10.385490,-4.345118,-4.649356,-3.110148
1003.761719,-8.130384,-6.637312,-12.633705,-5.951808
1003.765625,-19.408023,-6.061497,-12.096779,-6.720207
1003.769531,-13.907583,-12.255927,-12.313080,-12.618568
1003.773438,-9.377799,-14.404400,-11.980895,-7.312860
1003.777344,-8.280295,-17.604751,-11.209144,-14.181265
1003.781250,-12.285376,-1.475904,-12.163619,-7.167051
1003.785156,-9.870110,-6.400997,-10.604182,-10.508417
1003.789062,-7.009185,-4.437572,-8.639610,-11.030315
1003.792969,-3.877785,-4.108267,-1.919155,-2.849342
1003.796875,0.830533,1.851775,0.344004,0.018039
1003.800781,5.548152,-3.189022,4.471266,-3.181895
1003.804688,2.320847,8.119522,3.615697,-0.785421
1003.808594,-0.936527,3.488188,4.672904,4.950795
1003.812500,12.600410,7.213204,10.118343,8.220086
1003.816406,4.483769,7.856249,6.460744,6.328541
1003.820312,10.811959,9.270045,5.358264,6.038014
1003.824219,11.084305,13.907681,8.759381,3.711684
1003.828125,12.335751,10.445318,14.788220,2.471902
1003.832031,5.152391,6.799247,11.787069,10.080701
1003.835938,4.584687,15.224371,9.749150,13.340643
1003.839844,6.646435,6.501395,10.031670,7.133577
1003.843750,6.934446,1.166467,10.192576,9.946591
1003.847656,-0.469717,-0.076838,6.047540,9.394480
1003.851562,-1.399689,-3.683559,-6.996291,0.046231
1003.855469,1.923107,-2.475023,2.158429,-3.906376
1003.859375,-6.793680,-8.283756,-2.303806,-9.990867
1003.863281,-8.393280,-8.998906,-11.243080,-9.613055
1003.867188,-9.439553,-11.874839,-18.684227,-15.381667
1003.871094,-10.888020,-6.698584,-9.729505,-8.599590
1003.875000,-3.844496,-3.844830,-7.740531,-6.861002
1003.878906,-8.135737,-7.500204,-3.214360,-5.176626
1003.882812,-13.565568,-11.582645,-7.769398,-5.811948
1003.886719,-10.608872,-5.704652,-10.209399,-11.041542
1003.890625,-11.552857,-9.543837,-11.951026,-5.493526
1003.894531,-1.800475,-0.839908,-5.070811,-5.698564
1003.898438,7.249063,-1.960516,-1.186788,3.758084
1003.902344,6.273320,-1.546833,0.825247,4.735129
1003.906250,1.444604,3.042018,2.057153,4.892893
1003.910156,4.730959,6.029344,0.244724,10.169266
1003.914062,6.755545,1.281959,8.957528,14.850217
1003.917969,6.405927,5.393903,7.579660,4.544257
1003.921875,13.056474,10.653153,14.090144,11.729098
1003.925781,11.980594,7.869542,7.621395,13.852774
1003.929688,7.109136,4.847050,4.110515,12.414955
1003.933594,4.627917,13.058544,12.758009,13.613597
1003.937500,8.148148,11.495350,7.398991,8.774498
1003.941406,3.855348,7.782698,8.717998,0.977045
1003.945312,5.101607,3.349111,-5.728578,4.733256
1003.949219,3.315490,-1.700169,0.944634,1.757846
1003.953125,-0.510960,-10.945190,0.554973,-3.110955
1003.957031,-6.209570,-4.174206,-3.047919,-6.350548
1003.960938,3.085613,-11.735602,-2.700437,-11.649893
1003.964844,-0.096430,-1.631095,-15.384984,-8.359953
1003.968750,-7.418599,-13.491244,-5.267285,-7.840927
1003.972656,-16.960552,-7.532239,-17.285312,-8.475243
1003.976562,-10.915338,-3.129885,-7.770672,-8.379564
1003.980469,-13.469529,-18.282929,-6.995539,-8.699257
1003.984375,-5.547738,-7.415939,-2.224835,-6.623922
1003.988281,-8.316679,-4.936253,-4.796955,-10.134119
1003.992188,2.973732,-11.234217,-5.840514,-4.640579
1003.996094,-3.493756,-5.864347,-0.853261,-6.498295
1004.000000,-5.588208,4.588696,4.279684,-2.717368
1004.003906,-6.190854,2.197662,-3.683295,1.939730
1004.007812,0.488197,1.703771,10.233446,6.903255
1004.011719,0.906456,11.883692,4.741572,6.165706
1004.015625,9.080927,5.190668,9.884963,8.006768
1004.019531,10.325057,11.107275,8.486389,6.635699
1004.023438,10.961500,14.965508,5.676058,8.181698
1004.027344,7.705638,6.921799,7.875105,14.560358
1004.031250,8.462073,7.929428,12.592717,7.202726
1004.035156,10.253592,5.186409,8.051493,-2.477147
1004.039062,6.830080,10.598499,5.617941,12.036568
1004.042969,2.718652,4.030392,1.758354,0.549065
1004.046875,-6.830589,-7.586512,-2.158767,1.890796
1004.050781,-3.205138,7.330946,2.344698,1.554760
1004.054688,-8.071234,1.925309,-0.079523,-4.337722
1004.058594,0.458280,-2.950631,-2.553778,-4.554550
1004.062500,-6.121445,-6.409302,-10.373086,-8.545636
1004.066406,-13.485786,-14.566844,-10.635416,-10.689979
1004.070312,-6.288812,-14.895292,-7.950604,-8.600440
1004.074219,-7.296779,-2.498172,-14.228403,-6.442958
1004.078125,-7.062774,-10.454084,-6.922180,-11.868341
1004.082031,-12.656066,-4.910005,-7.853590,-3.847164
1004.085938,-10.053745,-1.825036,-7.049348,-7.311425
1004.089844,-4.470665,-6.932154,-3.143806,-4.049093
1004.093750,-0.659613,-7.350034,-0.229849,-6.692148
1004.097656,-5.357221,0.177054,1.473681,-4.282397
1004.101562,1.653728,2.896035,3.711138,6.068118
1004.105469,5.695514,3.442093,1.685648,3.854310
1004.109375,8.655652,-0.441670,3.040899,1.013709
1004.113281,10.605757,4.893017,4.103054,10.375446
1004.117188,7.928999,6.815012,12.307655,3.700980
1004.121094,9.022862,10.035332,2.681567,5.568220
1004.125000,5.791984,5.902801,14.510037,14.061771
1004.128906,14.697584,15.951322,6.275700,6.707562
1004.132812,6.936960,3.406568,8.943130,0.708957
1004.136719,1.461337,6.626546,11.023726,10.068840
1004.140625,-1.602216,4.043404,2.210272,1.638876
1004.144531,-2.997787,8.122584,1.634867,1.851761
1004.148438,2.638916,-2.889817,-3.550197,-0.274475
1004.152344,-1.804397,-2.038615,-6.651630,0.171834
1004.156250,-7.492177,-2.076052,-6.545677,-7.844876
1004.160156,-1.610969,-10.449955,-4.360917,-11.702576
1004.164062,-12.568295,-11.305030,-8.491791,-9.250527
1004.167969,-18.239113,-8.333781,-2.941849,-11.837948
1004.171875,-16.328297,-15.808378,-11.228487,-6.286064
1004.175781,-13.062893,-7.392620,-6.537144,-7.102564
1004.179688,-9.556521,-13.874306,-11.472671,-14.454922
1004.183594,-8.031777,-3.579899,-4.060892,-2.757150
1004.187500,-13.660958,-3.568189,-14.520242,-1.557116
1004.191406,-11.601434,-12.384502,-11.832322,-2.730637
1004.195312,0.694206,-9.317594,1.453317,-4.733558
1004.199219,0.533172,-8.140266,6.561695,3.259374
1004.203125,9.000538,1.279201,3.020040,-2.678297
1004.207031,0.665558,0.820711,7.326907,2.001141
1004.210938,8.306779,11.380930,12.999629,11.794330
1004.214844,6.235457,7.826292,7.313604,7.011530
1004.218750,3.329911,5.451427,6.631893,5.491832
1004.222656,7.897249,11.557460,8.036369,11.893262
1004.226562,6.903018,10.232662,8.334392,10.027990
1004.230469,10.593181,10.105795,11.774793,6.646112
1004.234375,15.846651,10.642631,8.643349,10.516207
1004.238281,4.876126,8.289673,10.299807,10.433723
1004.242188,6.720284,4.712285,8.897785,0.345137
1004.246094,3.278745,0.585611,2.024497,-6.615135
1004.250000,0.925180,-4.700673,3.094394,-2.937648
1004.253906,-0.673562,-3.500615,-8.135345,-1.633966
1004.257812,7.072980,-1.214065,-0.824987,0.156935
1004.261719,-3.104107,-3.886503,-8.936045,-3.893984
1004.265625,-7.571780,-4.735680,-8.131586,-4.968351
1004.269531,-10.116883,-2.739866,-11.582648,-10.645220
1004.273438,-10.426366,-14.060119,-16.493260,-7.812116
1004.277344,-17.191075,-6.954937,-9.100266,-14.821986
1004.281250,-10.566345,-14.835832,-7.187735,-14.460532
1004.285156,-10.116267,-7.667727,-10.923597,-13.881153
1004.289062,-5.529546,-15.681483,-0.016425,-9.384609
1004.292969,-5.497360,-5.819931,2.047798,-11.735600
1004.296875,-0.661191,-0.800227,-1.970149,-0.062146
1004.300781,4.576520,2.543819,0.665929,-0.216278
1004.304688,1.821636,3.418825,7.226157,3.263792
1004.308594,-1.208967,-0.075733,7.764130,6.758409
1004.312500,5.546983,11.845554,6.849574,12.214351
1004.316406,9.823746,8.722270,8.613438,10.576688
1004.320312,7.529062,7.895770,9.517165,8.702670
1004.324219,8.620731,14.286366,7.212778,2.071769
1004.328125,9.997754,5.961098,7.045043,6.565932
1004.332031,6.389185,9.513438,7.097490,8.867633
1004.335938,15.795261,14.208255,12.917409,0.250307
1004.339844,5.486867,7.795363,3.287454,8.025962
1004.343750,5.249965,0.687245,10.143613,-1.851993
1004.347656,2.879128,0.656032,-0.315708,1.725289
1004.351562,1.716367,4.693080,-4.495360,-2.477344
1004.355469,-7.934439,-6.153233,-0.364681,-3.818731
1004.359375,-1.934211,-1.185356,-1.148376,-12.159440
1004.363281,-6.470187,-14.991717,-9.957421,-6.403793
1004.367188,-19.523767,-11.244314,-11.291118,-14.198286
1004.371094,-10.394003,-10.089222,-12.658212,-13.913106
1004.375000,-6.987042,-14.286490,-6.012740,-11.558779
1004.378906,-6.598635,-4.270124,-9.404964,-9.537993
1004.382812,-8.668656,-7.496038,-7.699712,-8.184388
1004.386719,-5.580214,-12.978140,-7.995086,-6.399895
1004.390625,-9.406875,-5.309346,-7.940466,-5.808875
1004.394531,-2.182451,-8.794227,3.594686,-10.139639
1004.398438,-8.729355,-8.573883,1.532075,-3.376000
1004.402344,8.605571,2.550905,4.393967,-2.803618
1004.406250,5.542146,-2.360140,-0.683578,1.069509
1004.410156,3.199304,6.324377,4.970427,2.353400
1004.414062,8.101849,1.767286,7.127904,11.920287
1004.417969,5.193560,9.869426,11.762142,8.331053
1004.421875,10.285027,10.971381,11.247849,3.140524
1004.425781,11.349984,13.125370,10.599963,10.664438
1004.429688,17.099243,11.269341,8.879711,8.812735
1004.433594,4.437231,10.446333,9.639182,6.198291
1004.437500,3.013155,10.660365,10.004959,8.746521
1004.441406,7.663382,-1.037763,8.324915,5.048517
1004.445312,10.008143,-2.693572,7.345342,11.668183
1004.449219,0.388529,-2.507153,-10.084825,1.223044
1004.453125,-3.309587,-5.071031,-2.219113,-9.731218
1004.457031,-14.068259,-5.770225,4.656950,-9.279825
1004.460938,-10.551832,-3.448301,-5.748777,-11.906465
1004.464844,-6.093749,-8.433074,-7.885768,-12.052855
1004.468750,-15.018322,-11.896925,-10.619240,-1.574498
1004.472656,-4.787082,-15.169405,-9.539666,-13.716291
1004.476562,-14.155368,-10.628608,-4.714465,-0.631112
1004.480469,-16.306464,-9.653680,-14.293323,-5.882896
1004.484375,-5.657419,-7.780489,-12.348743,-7.913768
1004.488281,-9.744666,-8.296860,-1.223964,-9.246906
1004.492188,-1.961169,-6.372669,-1.417752,-7.355856
1004.496094,-1.178767,2.646490,1.925995,-2.782605
1004.500000,9.048845,-4.438193,-7.972917,-1.984313
1004.503906,7.101946,4.031775,3.170809,2.212371
1004.507812,3.784897,6.095012,8.036084,-1.882425
1004.511719,15.491772,4.891570,4.862451,13.037415
1004.515625,11.212368,6.944427,1.369756,11.995562
1004.519531,8.213116,12.108730,4.553857,2.744956
1004.523438,3.180748,6.387743,12.500892,12.309667
1004.527344,8.786177,15.875419,15.048942,6.628187
1004.531250,3.960208,12.038934,5.885209,8.392203
1004.535156,15.438443,12.835360,2.894914,6.228879
1004.539062,12.858927,7.942091,9.495830,9.421210
1004.542969,0.119317,-1.032162,8.391475,4.969194
1004.546875,10.360971,9.131003,9.026890,-1.029076
1004.550781,4.285856,1.832381,-1.728673,1.595486
1004.554688,-2.259736,3.104740,-8.731061,-0.442861
1004.558594,-6.636915,-17.611995,-1.650905,-10.740340
1004.562500,-8.225321,-2.653635,-1.967057,-1.139775
1004.566406,-11.382836,-10.450203,-16.462639,-9.202429
1004.570312,-5.375905,-11.589224,-13.505730,-6.019213
1004.574219,-15.903581,-7.086703,-7.637496,-19.737013
1004.578125,-4.031852,-15.489894,-9.831144,-14.401933
1004.582031,-8.352291,-14.400001,-13.874314,-6.366517
1004.585938,-9.216221,-6.908344,-1.854836,-15.240321
1004.589844,-11.246900,2.350487,-6.063771,-5.585695
1004.593750,-0.296977,0.289067,0.198757,-5.574530
1004.597656,-1.909278,-1.061895,6.352970,-2.450256
1004.601562,6.065626,2.826917,4.480916,-1.061398
1004.605469,-0.026477,0.734014,0.411419,5.655481
1004.609375,4.893450,5.685304,10.132532,3.511244
1004.613281,9.549055,10.336941,11.846576,4.178187
1004.617188,11.830725,8.847790,10.868767,8.499161
1004.621094,11.886477,14.185763,13.678105,7.319188
1004.625000,7.413475,14.780102,8.207143,11.859213
1004.628906,6.343539,6.903331,8.080367,4.782613
1004.632812,11.931879,11.768313,17.880642,14.079827
1004.636719,13.529838,11.038769,4.149084,-3.551160
1004.640625,4.017353,3.597789,4.842241,8.429921
1004.644531,3.730574,7.417099,-4.382726,7.011110
1004.648438,0.619944,-2.882678,-0.331480,-3.712802
1004.652344,-4.478751,-3.379221,-1.990248,-1.174216
1004.656250,-7.441504,-5.597720,-6.750945,-6.780081
1004.660156,-4.670020,-9.163488,-4.432693,-0.045167
1004.664062,-8.735477,-10.703043,-15.480413,-9.318632
1004.667969,-11.872379,-1.873239,-12.048433,-10.860364
1004.671875,-12.501471,-11.197585,-9.075821,-3.216636
1004.675781,-5.831299,-10.805581,-3.617690,-16.250431
1004.679688,-12.686193,-17.175034,-5.761815,-5.018053
1004.683594,-1.230289,-12.773520,-6.095253,-12.603712
1004.687500,-3.774843,-10.519457,-5.978386,-11.681433
1004.691406,-7.784822,-9.436847,-2.587966,-0.354090
1004.695312,-10.797980,0.855258,-7.571043,-4.153278
1004.699219,5.991801,-0.363722,-2.027197,0.688816
1004.703125,0.316282,-0.092290,-4.533122,-3.185113
1004.707031,7.259681,10.924006,-0.454166,4.393266
1004.710938,14.090066,5.945236,6.901648,10.482200
1004.714844,7.490723,11.080259,9.221429,12.472263
1004.718750,4.293609,8.022436,9.341916,12.241999
1004.722656,5.671944,6.780014,12.910434,9.695924
1004.726562,14.927670,15.000469,10.149071,12.971087
1004.730469,7.873922,3.597225,2.888381,2.770338
1004.734375,9.966032,7.840542,13.234051,6.441906
1004.738281,-4.245445,4.446368,3.270158,9.919415
1004.742188,5.805210,5.805215,0.227377,9.757214
1004.746094,-3.646290,1.264403,1.864147,7.325022
1004.750000,-2.802028,-0.742558,1.664064,5.366824
1004.753906,2.242596,-2.434433,-5.889379,-5.206963
1004.757812,-6.783244,0.783254,-1.466043,-0.250053
1004.761719,-5.830922,-0.367773,-7.402191,-15.995569
1004.765625,-4.326354,-8.756252,-9.338140,-7.252336
1004.769531,-14.011457,-9.745451,-11.626344,-3.069199
1004.773438,-8.743020,-14.850351,-15.081712,-5.345271
1004.777344,-14.313413,-14.003041,-12.128910,-12.594529
1004.781250,-10.602163,-11.679585,-10.406228,-7.642263
1004.785156,-7.905263,-11.471829,-6.463392,-11.736541
1004.789062,-13.941564,-4.231709,-2.254890,-9.637226
1004.792969,-8.769895,-11.588907,-4.189599,-4.756144
1004.796875,0.833708,-4.583749,-2.660101,-4.656461
1004.800781,4.906065,-6.841384,4.900311,-3.066549
1004.804688,-0.656693,-3.450266,4.955413,8.096334
1004.808594,-4.434682,6.877034,9.554156,-1.471590
1004.812500,6.606687,15.261220,8.593016,11.396081
1004.816406,9.799682,7.253077,4.681620,9.590126
1004.820312,8.602491,9.929642,15.832030,-1.025976
1004.824219,10.126249,9.834312,8.407043,8.468604
1004.828125,11.810968,9.994392,13.005591,5.690429
1004.832031,11.301291,8.878757,8.360016,13.616920
1004.835938,8.397827,13.088840,4.310505,6.756939
1004.839844,2.935964,-1.152049,7.616700,4.355232
1004.843750,2.296932,1.215624,10.648649,1.750407
1004.847656,5.425233,-1.147338,8.419387,7.830419
1004.851562,1.495167,-1.512074,-4.390495,-7.487094
1004.855469,-2.288474,3.371756,-4.703592,-0.344093
1004.859375,-1.575073,-16.430169,-1.317707,-3.424437
1004.863281,-10.649638,-2.765611,-11.619864,-7.977148
1004.867188,-8.933652,-6.556296,-6.472696,-11.472793
1004.871094,-12.080759,-5.005829,-5.072227,-13.704605
1004.875000,-4.862336,-13.057660,-2.385730,-8.881703
1004.878906,-13.550416,-6.228667,-7.473733,-9.505944
1004.882812,-6.758840,-5.100191,-5.756222,-3.685613
1004.886719,-6.700067,-9.961915,-9.850693,-4.286628
1004.890625,-2.301922,-9.683179,-5.301307,-7.804836
1004.894531,-1.882647,-0.438911,-3.380113,-3.619623
1004.898438,-2.825190,2.730792,-1.686382,-0.984887
1004.902344,6.952129,-1.006843,4.174785,2.362955
1004.906250,4.903019,-0.603925,5.278720,9.881738
1004.910156,10.405935,10.283250,5.700018,6.953036
1004.914062,1.976274,12.603722,9.376004,10.281450
1004.917969,12.552114,13.603911,0.444510,10.955524
1004.921875,5.503058,6.868172,3.915144,3.425112
1004.925781,8.150779,14.712904,8.039328,11.170338
1004.929688,15.909600,8.743516,14.805956,14.820486
1004.933594,9.332621,3.216062,7.643108,4.087223
1004.937500,12.901914,5.421887,13.043640,-3.036996
1004.941406,5.471639,9.423643,4.489020,2.489601
1004.945312,7.070812,1.669891,1.821096,2.004029
1004.949219,6.063867,4.655450,-0.679074,-0.669538
1004.953125,2.132513,-7.690907,3.067498,-6.156525
1004.957031,-9.129518,-7.865477,-5.100767,-6.289647
1004.960938,-8.672023,-4.016426,-9.705559,-3.693670
1004.964844,-2.684142,-9.114593,-7.943580,-10.700606
1004.968750,-5.807127,-9.185288,-14.862235,-12.194565
1004.972656,-6.148426,-11.941334,-11.284062,-8.652600
1004.976562,-4.213777,-7.968874,-11.157123,-12.184939
1004.980469,-6.610838,-6.529862,-9.316767,-16.958576
1004.984375,-14.796419,-10.298834,-6.148319,-8.645040
1004.988281,-6.970307,-3.800064,-7.366353,-3.943737
1004.992188,-1.382901,-5.213970,-6.733848,-3.606043
1004.996094,-1.339429,-0.206943,2.360194,0.591904
1005.000000,-5.282409,0.827112,-0.265245,-5.331363
1005.003906,-4.456700,0.877221,-2.782888,5.251840
1005.007812,0.332930,2.323411,0.402627,-1.022866
1005.011719,3.933245,4.988360,4.068783,8.722741
1005.015625,11.283236,13.281629,2.066423,6.380092
1005.019531,10.440134,12.242118,9.878178,5.297712
1005.023438,8.076269,6.163483,9.295258,10.045711
1005.027344,5.144795,10.269334,6.735644,6.131252
1005.031250,10.690906,8.939806,4.680214,10.255822
1005.035156,3.806120,8.024941,12.205014,15.691436
1005.039062,10.014676,10.904037,10.044421,1.001826
1005.042969,1.076411,6.661697,12.877433,4.908985
1005.046875,10.032751,4.486335,4.766874,8.781398
1005.050781,5.261239,-4.468074,3.405587,-0.442362
1005.054688,-7.444618,1.521229,6.495273,0.912866
1005.058594,-0.520169,-15.096742,-7.067250,-8.213587
1005.062500,-8.338124,-6.984631,-7.934701,-5.799462
1005.066406,-6.079653,-8.272259,-10.332019,-11.617464
1005.070312,-15.948021,-9.617699,-13.332852,-8.432595
1005.074219,-8.548039,-5.660526,-7.615425,-9.583431
1005.078125,-8.074227,-8.474196,-10.773492,-7.561489
1005.082031,-8.750686,-12.922736,-10.883666,-12.725989
1005.085938,-6.955557,-4.300809,-4.345757,-7.914428
1005.089844,-1.532877,-5.112072,-4.299736,-7.554492
1005.093750,0.758621,-3.748187,-2.007384,-4.695399
1005.097656,-2.413226,-1.158751,3.283130,-1.104273
1005.101562,1.762387,0.726262,-0.884850,1.376824
1005.105469,2.588374,1.478206,2.547722,-3.712545
1005.109375,-0.024302,8.236829,-0.122236,12.355264
1005.113281,9.378881,6.289925,9.712974,-0.968567
1005.117188,4.398951,7.415431,2.615183,6.777323
1005.121094,2.895938,12.640801,9.995404,9.661924
1005.125000,4.707659,6.473629,11.661548,13.799992
1005.128906,1.333109,1.614303,5.867807,10.231571
1005.132812,8.254427,9.091215,13.688299,8.802239
1005.136719,9.926303,4.694124,5.630426,6.341250
1005.140625,1.755103,9.607132,-0.086923,16.987178
1005.144531,5.750248,3.229374,6.631167,-0.194081
1005.148438,-2.471733,0.893892,4.547848,-2.458362
1005.152344,-1.187704,1.828094,-1.123690,-2.500082
1005.156250,-6.801201,-0.384406,-1.394269,-8.212365
1005.160156,-16.690074,-1.793482,-9.831529,-7.988609
1005.164062,-10.762429,-3.898175,-12.512273,-7.730532
1005.167969,-1.195725,-11.451339,-10.071095,-10.788496
1005.171875,-10.714992,-12.302161,-12.479942,-15.088296
1005.175781,-14.653874,-2.719569,-4.624507,-9.848671
1005.179688,-12.633876,-7.816363,-9.850122,-10.603809
1005.183594,-9.973623,-12.173448,-12.565108,-7.653853
1005.187500,-8.311902,-12.409325,-10.883062,-10.163424
1005.191406,-1.921071,-2.582086,-10.938220,-4.841247
1005.195312,-9.224517,-2.643383,3.126185,-4.611814
1005.199219,-6.041664,-1.742435,-1.532284,3.597985
1005.203125,2.100765,0.642354,3.226378,3.346287
1005.207031,9.672098,2.026354,1.094466,9.810720
1005.210938,5.051798,6.837134,3.163064,5.800841
1005.214844,7.394506,3.913549,1.618563,10.232140
1005.218750,9.567457,5.769481,7.434141,9.671528
1005.222656,4.100614,11.750094,10.970510,13.458994
1005.226562,17.523084,8.080603,6.252622,11.268337
1005.230469,7.546368,8.188388,8.529088,15.347310
1005.234375,12.517805,5.173852,8.714191,11.793490
1005.238281,7.010076,3.207353,11.569449,13.209027
1005.242188,3.135257,10.427041,6.293763,5.523901
1005.246094,3.373564,2.971801,-2.478160,-3.405033
1005.250000,-7.226048,1.951041,6.333631,0.214531
1005.253906,5.552064,-4.817979,-2.711836,2.075369
1005.257812,-9.618727,-11.862219,-8.007370,-2.278317
1005.261719,-1.181690,-7.599851,-6.724648,-9.360522
1005.265625,-1.412774,-2.674086,-9.448080,-2.790539
1005.269531,-12.006704,-8.481985,-6.884928,-13.264556
1005.273438,-10.251681,-13.697527,-13.617551,-12.257204
1005.277344,-9.270055,-8.380156,-12.744574,-7.827198
1005.281250,-11.016308,-10.145150,-8.327664,-15.688313
1005.285156,-1.734997,-8.507771,-0.442898,-9.048880
1005.289062,-3.424041,-10.254580,-15.713110,-6.813310
1005.292969,-2.049474,4.269639,-2.271193,-2.120882
1005.296875,-10.310473,1.233082,-5.287416,1.060583
1005.300781,0.668699,9.970303,3.125563,-0.547778
1005.304688,8.158642,3.650803,1.132749,-0.773852
1005.308594,8.840768,0.605823,10.046074,8.546654
1005.312500,13.443707,3.462321,4.946876,10.030429
1005.316406,6.908990,13.250631,17.659038,8.165804
1005.320312,8.258158,4.384111,13.533197,9.204660
1005.324219,15.821502,8.445611,10.225826,13.408082
1005.328125,13.085767,12.746935,7.669571,5.414900
1005.332031,10.600679,10.244538,7.805259,15.908945
1005.335938,8.872371,4.789180,2.540881,6.696323
1005.339844,7.559869,7.914025,12.456473,4.760781
1005.343750,0.878561,7.188646,1.445907,-1.289524
1005.347656,-0.347499,7.554316,5.691985,2.516220
1005.351562,-3.167901,-3.962430,-0.332292,7.167079
1005.355469,0.176665,-2.634243,-4.909903,-6.800224
1005.359375,-6.830940,-10.830601,-1.341585,-7.816049
1005.363281,-9.273943,-11.685891,-9.937994,-3.719065
1005.367188,-6.259608,-12.403423,-9.028128,-10.164061
1005.371094,-6.324417,-7.327124,-12.698084,-9.626600
1005.375000,-11.581033,-12.610316,-9.516304,-6.139419
1005.378906,-10.258703,-6.425044,-15.073253,-13.965719
1005.382812,-3.604080,-7.001921,-7.320128,-11.045639
1005.386719,-9.432773,-11.269217,-3.598972,-8.923733
1005.390625,-11.300308,-9.281895,-10.709190,-6.787416
1005.394531,-11.269750,-2.867473,-2.689601,1.784479
1005.398438,0.173125,0.131754,1.741506,2.546980
1005.402344,-0.622747,3.625878,-2.040963,3.192790
1005.406250,2.548886,8.938966,4.737263,9.321684
1005.410156,9.478435,0.532815,2.089687,2.385472
1005.414062,10.846660,7.659351,8.781630,8.299015
1005.417969,8.424698,8.116016,20.224039,9.510837
1005.421875,7.394515,8.856902,3.233906,12.442913
1005.425781,10.395984,13.074127,2.267750,13.447728
1005.429688,7.722288,9.405388,10.701674,7.584302
1005.433594,4.906284,2.626608,5.786624,6.186738
1005.437500,1.410498,11.150050,0.745139,6.424502
1005.441406,0.528178,7.963962,6.088835,7.179344
1005.445312,6.774254,3.114742,7.216738,5.253313
1005.449219,0.756743,-0.772617,5.538181,-1.161553
1005.453125,-7.526189,-1.716637,1.495097,-4.182821
1005.457031,3.074648,-5.088643,0.000203,-1.938889
1005.460938,-2.797287,-4.095785,-10.952034,-6.367856
1005.464844,-9.780313,-8.254564,-4.986626,-7.967079
1005.468750,-14.209462,-10.810464,-6.818828,-14.152343
1005.472656,-17.973745,-5.771219,-9.605078,-14.877454
1005.476562,-7.751604,-15.661285,-10.906139,-6.893724
1005.480469,-16.665161,-8.578596,-13.954257,-11.406503
1005.484375,-6.910240,-4.537112,-14.668681,-10.779325
1005.488281,-3.860397,-2.604499,-3.569797,-5.744982
1005.492188,0.789220,-6.975928,-8.711894,-4.197950
1005.496094,0.307856,3.232247,1.252887,-2.093903
1005.500000,-1.323059,-10.200410,-2.906020,-7.683825
1005.503906,8.442248,-0.601515,8.051281,2.684435
1005.507812,10.501766,9.205459,5.995827,4.242934
1005.511719,3.869326,8.674178,6.249752,8.763409
1005.515625,8.645401,7.996978,8.641935,11.045498
1005.519531,10.938172,5.643993,6.701194,9.672702
1005.523438,10.443500,-1.699790,6.592077,4.003823
1005.527344,8.038532,15.257273,8.135714,14.709054
1005.531250,12.038501,8.890280,9.331873,12.073533
1005.535156,7.174393,10.395362,9.462399,8.434449
1005.539062,8.192916,6.425678,9.813626,10.490501
1005.542969,10.173708,-3.451071,5.072233,1.804083
1005.546875,5.825125,0.210458,-5.827597,3.879742
1005.550781,1.381297,4.625805,-0.975127,-1.407283
1005.554688,-9.697700,-6.091962,-5.706558,-6.047293
1005.558594,-4.886742,-2.330777,-2.634724,-8.421300
1005.562500,-6.526131,-13.042100,-8.447411,-9.961188
1005.566406,-7.037880,-8.043878,-14.551835,-11.897673
1005.570312,-17.783457,-6.363688,-5.715022,-11.537123
1005.574219,-8.193440,-10.056818,-14.361994,-5.052910
1005.578125,-2.046671,-11.872416,-12.059927,-9.573171
1005.582031,-11.179646,-15.400190,-8.300899,-6.492224
1005.585938,-9.594722,-4.020294,-14.691318,-7.523711
1005.589844,-5.488082,-7.456722,-7.147316,-2.634732
1005.593750,-7.733292,-0.976870,-2.896225,-0.390256
1005.597656,-3.617503,2.393966,-7.512987,4.168913
1005.601562,0.642743,-2.303684,-0.897382,5.578023
1005.605469,6.861832,3.836837,1.268270,7.436985
1005.609375,2.755455,11.641637,4.755517,4.476301
1005.613281,8.737603,4.356691,8.414743,8.753841
1005.617188,10.084950,4.955760,11.930556,8.429102
1005.621094,15.691561,7.781366,15.396706,11.004098
1005.625000,6.946485,15.058222,6.663227,9.824256
1005.628906,11.634693,4.834630,9.560517,12.668668
1005.632812,7.842884,4.157326,5.610399,8.325592
1005.636719,15.111497,7.021583,6.020280,4.884959
1005.640625,3.595407,4.415697,7.569007,4.580196
1005.644531,3.664460,5.514656,-0.678045,9.525114
1005.648438,1.945487,5.017618,0.174572,5.831815
1005.652344,3.019776,-3.268978,-2.793908,-6.353191
1005.656250,-5.581587,-6.542403,0.829849,1.200874
1005.660156,-10.895757,-10.110680,-4.933321,-5.530042
1005.664062,-5.001642,-8.985507,-6.424449,-3.239353
1005.667969,-7.887032,-1.237108,-14.080305,-8.204835
1005.671875,-8.747800,-11.516302,-11.402549,-7.269982
1005.675781,-4.650841,-17.839580,-16.053982,-9.680681
1005.679688,-3.330992,-7.091852,-12.927569,-5.714761
1005.683594,-3.623823,-8.350790,-11.319642,-9.105818
1005.687500,-7.855011,-7.064845,-17.639487,-6.971942
1005.691406,-4.692327,-5.672901,-4.436345,-4.411950
1005.695312,-3.853730,-1.791383,-3.686058,-1.879953
1005.699219,-8.770038,-2.487799,4.598069,-1.151157
1005.703125,4.284713,0.941072,4.582278,3.767556
1005.707031,1.301106,3.573297,-2.769577,-0.873856
1005.710938,8.674546,1.225450,5.408978,5.061413
1005.714844,11.969531,10.652365,2.725998,12.892471
1005.718750,10.113887,9.921633,10.297006,13.122229
1005.722656,4.084251,6.877630,13.602491,10.441739
1005.726562,7.938679,11.895942,11.752332,5.132358
1005.730469,12.504126,11.997443,13.198550,1.375585
1005.734375,7.595210,6.606826,7.910450,8.047921
1005.738281,7.622200,13.431260,8.016436,8.779151
1005.742188,8.798638,13.716868,7.199200,8.469808
1005.746094,2.565697,1.570223,0.518306,-0.443207
1005.750000,-1.153288,-0.058896,-1.598390,0.378179
1005.753906,-5.795831,3.130457,-7.836158,-3.739431
1005.757812,-3.990892,-1.688470,-0.589767,-3.419958
1005.761719,-9.209473,-4.388132,-4.706960,-7.511652
1005.765625,-9.829296,-14.401270,-8.418014,-11.259728
1005.769531,-19.145830,-8.932025,-9.755291,0.825155
1005.773438,-21.774489,-9.135331,-11.750072,-17.534785
1005.777344,-10.800987,-15.736272,-7.950671,-13.238148
1005.781250,-9.201137,-10.555158,-10.067845,-10.597824
1005.785156,-14.496637,-5.543181,-7.549399,-11.411306
1005.789062,-7.121546,-7.114842,-4.202038,-3.355489
1005.792969,-6.785069,-3.868689,-1.903607,-7.074794
1005.796875,-9.033761,-5.062611,-5.336652,-1.582496
1005.800781,1.498286,3.981325,-11.533520,1.925205
1005.804688,-2.426245,5.533316,1.595439,-0.452996
1005.808594,3.000379,8.125149,4.572428,7.147316
1005.812500,9.443885,10.405919,7.041987,6.934970
1005.816406,12.143306,6.557022,8.234869,9.511380
1005.820312,7.346664,-0.710809,4.431003,5.705334
1005.824219,12.650361,7.045089,4.364608,11.073154
1005.828125,6.189061,8.824607,9.139359,13.904974
1005.832031,7.369609,12.017772,1.108945,10.618782
1005.835938,14.049977,7.846666,7.796594,11.820461
1005.839844,5.682434,9.071020,6.302530,4.532139
1005.843750,-4.203824,-9.469612,0.639996,3.485829
1005.847656,8.884919,1.087849,3.393124,-0.668041
1005.851562,-6.766483,3.881621,5.186560,-1.197634
1005.855469,0.776109,-8.832959,-9.074509,-4.547506
1005.859375,1.503912,-4.903055,-8.836875,-5.270601
1005.863281,-3.546709,0.693757,-10.385414,-14.165483
1005.867188,-8.206013,-8.339489,-2.483798,-6.744049
1005.871094,-9.712127,-2.962119,-7.909128,-17.211852
1005.875000,-12.668661,-4.534231,-8.332815,-7.936008
1005.878906,-11.908902,1.739260,-14.566055,-7.774253
1005.882812,-2.030956,-8.563413,-9.930851,-7.381504
1005.886719,-4.638713,-5.479838,-10.751672,-17.023955
1005.890625,2.723054,-13.617238,-5.935865,-5.790277
1005.894531,-2.099472,-9.122631,-5.629758,-6.697696
1005.898438,-6.743171,-0.402465,1.827436,2.047690
1005.902344,0.294823,8.294846,2.933645,1.505036
1005.906250,2.086663,10.521791,5.587925,9.309203
1005.910156,5.042133,11.590411,10.757173,10.728341
1005.914062,5.250155,8.983714,6.994250,0.395097
1005.917969,15.546083,12.592298,13.502702,10.544880
1005.921875,10.108488,17.626263,10.351238,13.460170
1005.925781,10.780332,12.470648,11.454804,12.529575
1005.929688,11.888690,10.081957,12.343033,14.160634
1005.933594,5.837029,11.665241,11.239678,9.572683
1005.937500,3.877184,0.192072,6.112410,9.809894
1005.941406,4.089404,3.047108,1.451623,7.814907
1005.945312,-0.050542,12.046133,-0.423325,4.954064
1005.949219,3.005271,1.043944,0.390038,9.073534
1005.953125,-1.432768,-0.424615,-3.150949,-3.906613
1005.957031,-3.083134,3.692145,-4.008594,-6.102093
1005.960938,-7.084011,-3.730082,-2.263576,-5.251256
1005.964844,-5.668249,-8.762868,-5.485404,-8.147465
1005.968750,-12.816960,-8.956666,-10.516892,-8.295802
1005.972656,-14.529331,-10.891927,-17.307663,-12.405608
1005.976562,-10.910496,-3.371924,-12.212688,-12.093835
1005.980469,-13.160973,-2.121070,-9.825960,-9.160223
1005.984375,-10.500499,-2.567907,-5.072679,-8.016923
1005.988281,-9.477480,-4.420837,-7.396961,-10.190777
1005.992188,-9.637136,-7.476908,-9.153050,-6.605012
1005.996094,-4.884156,-4.358774,-1.950360,-4.036507
1006.000000,-4.190901,-4.866917,8.097836,2.243129
1006.003906,4.747420,7.708064,5.567096,0.901564
1006.007812,-1.973881,-4.049003,6.859246,4.179919
1006.011719,6.292909,9.434819,8.454098,1.476691
1006.015625,10.985967,7.038124,12.983886,4.795772
1006.019531,14.135405,7.698234,7.707527,10.860723
1006.023438,12.713181,9.513271,17.217762,1.284160
1006.027344,10.781716,16.103908,18.103493,9.663524
1006.031250,11.780138,4.819861,5.117696,15.770207
1006.035156,10.018921,12.477058,4.176238,2.974967
1006.039062,2.223269,5.468627,11.683128,13.347046
1006.042969,1.282296,6.771132,7.619544,8.839927
1006.046875,2.204095,1.042542,4.046550,-4.517618
1006.050781,-2.292402,0.493374,3.408489,-4.808565
1006.054688,-4.337448,-5.554401,-10.101981,-6.670986
1006.058594,-13.964317,-8.721495,-4.847157,0.910510
1006.062500,-6.264766,-9.692179,-9.276356,-4.770866
1006.066406,-7.131635,-11.091204,-5.843733,-12.829399
1006.070312,-10.534592,-12.534547,-9.487897,-8.480137
1006.074219,-8.325739,-11.050428,-10.649802,-7.254531
1006.078125,-7.893368,-3.172150,-8.866391,-5.513121
1006.082031,-5.445803,-11.078414,-7.535242,-4.701955
1006.085938,-7.287793,-6.015397,-2.618021,-3.645113
1006.089844,-8.091789,-2.881002,-8.453478,-5.608864
1006.093750,-3.366076,-3.569731,-5.363767,-3.436548
1006.097656,-3.918040,-2.244929,0.305927,-0.984995
1006.101562,8.138820,-3.901765,5.471797,-2.768328
1006.105469,0.188603,4.140617,8.020692,2.976254
1006.109375,2.010238,6.518839,5.020755,6.846341
1006.113281,3.268873,9.443582,-1.057565,13.442418
1006.117188,1.861141,7.216174,8.036960,8.558745
1006.121094,8.674168,13.603698,9.195127,4.965501
1006.125000,8.583958,13.026675,4.135324,15.884732
1006.128906,13.252278,10.462006,5.959288,7.241443
1006.132812,4.577918,9.346811,8.552531,16.885356
1006.136719,4.417315,0.297327,14.223851,3.054184
1006.140625,-0.512048,11.955996,7.560528,6.696584
1006.144531,4.207972,2.564841,4.791350,3.617526
1006.148438,-3.940126,5.616188,6.455611,0.445946
1006.152344,-3.936171,-1.559852,-3.660925,2.953660
1006.156250,0.664395,-4.981521,-5.564926,-12.431417
1006.160156,-9.610790,-12.321772,-1.294926,-6.291183
1006.164062,0.582151,-5.813168,-8.076198,-4.738686
1006.167969,-13.134224,-11.584359,-6.510711,-10.389636
1006.171875,-3.176664,-9.090711,-14.232304,-10.192431
1006.175781,-11.804209,-12.528872,-16.701847,-16.867089
1006.179688,-12.052540,-11.012912,-12.548544,-10.055832
1006.183594,-8.146461,-7.770999,-13.327366,-9.749814
1006.187500,-2.112989,-6.390681,-9.975155,-9.388248
1006.191406,3.624941,-7.176004,-2.430456,-6.662283
1006.195312,-0.087991,1.302550,-1.420719,-5.035054
1006.199219,-1.920347,2.174365,-4.823660,-4.478154
1006.203125,3.820133,-1.538011,4.417447,-0.763320
1006.207031,7.854467,11.485345,-0.784474,2.311280
1006.210938,2.023498,10.575846,2.299446,9.979617
1006.214844,12.578178,5.748527,10.884515,6.681009
1006.218750,8.214513,14.381377,9.736145,14.222618
1006.222656,5.863442,13.106480,12.893842,12.034501
1006.226562,4.310208,10.401494,6.660163,1.226595
1006.230469,12.725909,6.494444,10.272677,7.570198
1006.234375,13.251610,15.160350,11.286807,8.685002
1006.238281,9.464631,7.573986,4.174127,2.712094
1006.242188,2.841030,5.733041,0.802648,6.117457
1006.246094,5.138343,-4.073061,-1.189379,3.825827
1006.250000,-4.773069,-0.976385,-0.190660,-4.165043
1006.253906,-2.825019,-8.402974,-2.215922,-2.735451
1006.257812,-5.206602,-2.204819,-3.951472,4.407486
1006.261719,-8.870294,-13.249776,-9.457304,-6.871082
1006.265625,-11.373467,-6.289558,-9.272702,-9.377483
1006.269531,-15.659511,-12.504205,-2.462413,-6.934310
1006.273438,-11.185622,-9.715869,-14.580237,-14.091485
1006.277344,-7.912062,-12.113369,-11.728366,-5.988072
1006.281250,-10.099573,-8.192785,-12.609067,-7.262632
1006.285156,-6.347565,-6.147422,-13.418115,-2.467757
1006.289062,-8.339564,-1.794754,-11.047239,-8.454745
1006.292969,-1.198268,-2.432069,-9.970300,7.619038
1006.296875,-3.005414,-6.675025,-4.730109,3.664349
1006.300781,-2.420817,2.546610,3.681579,-2.002627
1006.304688,-9.425603,6.638798,5.553814,3.798768
1006.308594,5.045273,3.408260,2.674254,15.733454
1006.312500,11.714698,11.541730,4.444484,14.148831
1006.316406,-1.643164,14.149156,8.002106,10.007618
1006.320312,11.049302,0.383057,6.659546,12.935522
1006.324219,13.197016,10.484063,15.562686,8.534882
1006.328125,7.696242,13.548771,15.466342,12.736768
1006.332031,13.507157,11.457499,6.086897,10.797185
1006.335938,11.874391,8.172544,15.983533,5.992271
1006.339844,14.263977,6.053266,9.347324,3.207271
1006.343750,11.209645,-0.543781,4.650660,4.286059
1006.347656,-0.147498,-2.708594,1.284315,-2.258346
1006.351562,-4.470467,0.163985,-1.964368,-6.662028
1006.355469,2.340042,-6.049516,-1.397930,-1.386233
1006.359375,-10.100171,-6.169357,-4.636203,-6.854969
1006.363281,-11.657450,-4.353515,-4.311847,-3.715467
1006.367188,-7.302569,-10.864425,-11.776146,-8.136118
1006.371094,-5.229712,-12.361914,-4.340008,-5.646653
1006.375000,-15.361375,-9.005477,-5.911920,-14.902789
1006.378906,-9.417278,-0.743044,-10.345399,-13.061491
1006.382812,-12.445522,-12.261798,-11.553171,-1.698624
1006.386719,-1.394940,-8.994900,-3.957624,-4.955113
1006.390625,-0.839838,-13.305954,-2.913703,-8.545444
1006.394531,-2.769643,-10.816276,-7.074670,-8.371011
1006.398438,-6.988441,-4.718699,-0.854842,-3.066534
1006.402344,5.737683,5.954880,0.270860,3.310983
1006.406250,7.992838,3.147474,11.437502,4.904811
1006.410156,6.233326,10.832177,6.723785,5.432976
1006.414062,8.883988,0.662173,6.660935,10.293711
1006.417969,12.746979,11.702589,0.102121,11.197881
1006.421875,9.563366,9.999459,6.298373,12.526074
1006.425781,7.581864,5.979963,7.211985,12.389113
1006.429688,11.559709,11.408718,9.708826,10.144323
1006.433594,8.244325,6.099079,4.759663,12.420471
1006.437500,11.862850,5.014285,0.927959,11.276319
1006.441406,5.110984,8.422212,8.544463,9.314477
1006.445312,-0.246115,2.349754,4.435033,4.370221
1006.449219,-3.499065,-2.501844,-0.631011,1.004780
1006.453125,-1.198529,3.914054,-2.552572,1.487800
1006.457031,-1.343276,3.652078,-3.497881,-5.115880
1006.460938,2.077506,-4.488175,-9.950154,-2.461858
1006.464844,-7.460098,-15.179425,-5.291726,-4.278123
1006.468750,-7.171665,-1.170072,-12.792648,-9.613374
1006.472656,-3.388605,-5.732689,-11.381026,-5.929135
1006.476562,-13.975944,-10.077149,-10.943098,-13.168768
1006.480469,-11.996304,-6.231065,-5.832592,-6.365200
1006.484375,-10.023264,-5.649872,-4.300308,-7.765112
1006.488281,-8.023042,-5.183957,-9.113082,-3.149523
1006.492188,-6.266472,-3.054629,-5.075001,-4.120203
1006.496094,-0.577802,3.685120,5.044087,-0.085623
1006.500000,1.226052,-0.902490,2.363039,2.560572
1006.503906,7.376689,-5.979270,4.557750,5.697877
1006.507812,5.873539,14.484945,0.156565,5.035635
1006.511719,2.036913,8.828279,6.585855,5.955214
1006.515625,4.020452,5.254482,13.143060,4.896497
1006.519531,8.370350,11.509995,13.724297,9.643162
1006.523438,9.681609,13.217136,5.094744,9.954624
1006.527344,10.693475,14.112433,5.910496,7.686720
1006.531250,2.710593,5.905230,9.608227,3.453358
1006.535156,4.978938,10.089082,6.989450,3.915835
1006.539062,6.726871,7.436722,0.881205,-2.529486
1006.542969,5.380473,4.368349,14.567486,6.291858
1006.546875,6.356250,3.014571,-1.686638,-2.100447
1006.550781,1.852468,-4.673020,1.743551,0.524759
1006.554688,-3.688865,-5.428137,-0.077707,-1.791353
1006.558594,-9.975297,0.113289,-7.787505,-6.381878
1006.562500,-10.595457,-6.317323,-0.725022,-7.737640
1006.566406,-12.131250,-6.821966,-12.606953,-14.575426
1006.570312,-9.026257,-10.829718,-6.712340,-11.755265
1006.574219,-11.013386,-8.038824,-6.755380,-14.396218
1006.578125,-1.231334,-11.200210,-17.320935,-17.143786
1006.582031,-6.284795,-11.058077,-13.110486,-10.958113
1006.585938,-6.815374,-4.767018,-8.299388,-8.245004
1006.589844,-5.307322,-0.551519,-14.346251,-9.568236
1006.593750,3.077794,-8.224870,0.774188,-4.245199
1006.597656,3.409477,-0.729318,-4.872318,-2.050444
1006.601562,5.000986,-2.446114,-3.289236,6.778533
1006.605469,4.023298,11.322876,-5.391501,3.413325
1006.609375,7.339125,7.930587,6.896129,3.773413
1006.613281,6.679959,6.446222,5.574822,16.070068
1006.617188,7.501825,9.569048,10.932436,4.564984
1006.621094,15.789973,10.465132,11.367380,8.923374
1006.625000,9.818556,6.397858,8.955197,17.632315
1006.628906,15.258963,5.134481,9.202382,13.426623
1006.632812,8.969362,7.033953,12.067582,10.233402
1006.636719,8.924229,3.726259,-1.652814,4.086158
1006.640625,7.183148,6.790871,11.070551,8.431070
1006.644531,2.734995,2.363631,-2.610218,0.845560
1006.648438,-5.487121,1.666817,3.140307,4.756583
1006.652344,4.038076,-1.850069,-4.195282,-3.683787
1006.656250,-3.884592,-6.608786,-0.409925,-2.708563
1006.660156,-2.453388,-2.505955,-5.313017,-6.758790
1006.664062,-9.489524,-11.439993,1.425640,-10.253097
1006.667969,-10.479891,-4.746148,-3.695292,-12.479902
1006.671875,-13.612623,-7.227326,-4.370907,-7.593535
1006.675781,-6.741442,-18.596775,-16.287357,-15.368286
1006.679688,-12.110069,-8.934833,-10.526899,-8.203375
1006.683594,-9.920112,-9.743594,0.048293,-5.806736
1006.687500,-7.173803,-7.769561,-4.168430,-5.618309
1006.691406,-1.832675,-5.530086,-1.835460,-5.130028
1006.695312,-2.868787,-3.549767,2.630598,2.523233
1006.699219,-1.645587,-0.627975,-4.404757,6.101958
1006.703125,-3.270563,1.004107,0.207411,7.020607
1006.707031,2.404075,-0.924647,9.227075,1.268969
1006.710938,2.992848,6.679563,3.736428,4.015056
1006.714844,2.883719,7.899508,9.577088,9.298726
1006.718750,10.256092,5.861656,9.436682,11.708505
1006.722656,19.167639,14.765275,15.852043,12.764936
1006.726562,3.780313,5.963536,10.386973,8.522792
1006.730469,8.040152,7.590578,2.895686,18.720642
1006.734375,3.772822,2.195234,3.823298,5.816008
1006.738281,5.055256,11.850729,10.779008,-1.678521
1006.742188,18.624386,1.016698,1.122107,13.062119
1006.746094,-3.992344,3.044421,1.831470,4.734784
1006.750000,0.030586,0.648872,-4.585355,-5.479254
1006.753906,-7.013643,0.510018,-4.498904,-0.854481
1006.757812,-0.169500,-2.469879,-9.131330,-3.083217
1006.761719,-5.013458,-7.874223,-5.388077,-8.663408
1006.765625,-7.601199,-2.123664,-1.361310,-16.352421
1006.769531,-7.902305,-12.671607,-9.320176,-4.485720
1006.773438,-6.118806,-5.624695,-13.361815,-4.121354
1006.777344,-10.660418,-6.648279,-9.726131,-3.348060
1006.781250,-12.903886,-13.494235,-10.545480,-6.447772
1006.785156,-9.090888,-12.845922,-8.145733,-6.122227
1006.789062,-2.526048,-14.523584,-7.659876,-9.146991
1006.792969,-4.560079,-2.633854,-2.310191,-2.438697
1006.796875,-3.353082,-0.290781,-1.561536,0.086261
1006.800781,-2.396910,3.395485,-2.664577,8.228979
1006.804688,8.773265,2.923347,-0.749578,2.483615
1006.808594,8.204601,6.211686,1.193085,5.084085
1006.812500,6.271448,4.477636,7.274778,10.361975
1006.816406,14.737143,7.192930,6.953563,8.103653
1006.820312,9.442688,3.684460,9.698292,4.525992
1006.824219,14.426469,5.096334,10.306414,11.688969
1006.828125,14.337257,13.170137,6.975148,4.265948
1006.832031,4.035121,17.299389,6.062461,7.601510
1006.835938,6.856910,9.474936,9.199532,13.123997
1006.839844,8.196184,6.370244,10.073357,6.703340
1006.843750,7.141543,7.142206,5.865693,0.585306
1006.847656,0.027232,0.556965,3.269684,0.742769
1006.851562,2.780996,-9.628766,-2.139712,-2.674095
1006.855469,-1.023939,-3.519235,-4.631973,-10.533415
1006.859375,-5.468610,2.722855,-8.542173,-9.367497
1006.863281,-8.961398,-4.731515,-15.219189,-8.003424
1006.867188,-8.454941,-11.666908,-11.983843,-9.531176
1006.871094,-12.485421,-7.666215,-10.576709,-7.811562
1006.875000,-9.994521,-7.249013,-11.188080,-12.193982
1006.878906,-19.128874,-10.694117,-13.981302,-19.236117
1006.882812,-11.099601,-9.129597,-3.103985,-6.867016
1006.886719,-3.784552,-4.053946,-4.525793,-1.987412
1006.890625,3.742295,-4.002037,-6.225672,-8.365256
1006.894531,4.061353,-1.427138,1.992769,-4.308677
1006.898438,8.921835,-5.132519,-9.262042,-4.936043
1006.902344,-3.550360,2.636779,1.757106,-2.597846
1006.906250,7.273376,-0.144098,6.455267,6.091196
1006.910156,1.871584,9.667187,10.230640,7.485398
1006.914062,8.395009,10.582511,4.518155,4.911974
1006.917969,10.203175,5.385360,8.879857,12.853522
1006.921875,12.148757,12.205942,8.627039,7.541544
1006.925781,13.075066,2.966038,5.018487,9.317542
1006.929688,9.473022,8.311465,9.006751,9.457244
1006.933594,7.028244,4.035575,8.678414,4.407624
1006.937500,4.109482,5.482978,4.744368,-4.290349
1006.941406,6.473095,5.863419,5.089978,6.079106
1006.945312,1.289328,0.722712,2.150611,6.109732
1006.949219,0.674150,4.060009,1.326281,2.810877
1006.953125,-3.651582,7.520806,0.228981,1.457664
1006.957031,-7.683432,-2.628709,-5.621008,1.998128
1006.960938,-8.675070,-6.582247,-5.032388,0.129245
1006.964844,-6.033486,-3.758106,-3.947006,-1.484402
1006.968750,0.290764,-17.138922,-10.172090,-4.142263
1006.972656,-7.839707,-9.538792,-14.733482,-7.146547
1006.976562,-12.439257,-10.441769,-9.531222,-13.422971
1006.980469,-2.059599,-14.957739,-7.422119,-7.729533
1006.984375,-14.052788,-3.329226,-18.879513,-11.905247
1006.988281,-6.970980,-5.395136,-7.768066,-5.603301
1006.992188,-11.144482,-5.131009,-5.285030,-6.131948
1006.996094,-1.580999,-6.144101,-1.110753,-0.157522
1007.000000,4.290038,-5.359643,-8.587499,-9.972536
1007.003906,6.760921,-3.254353,0.032582,3.511706
1007.007812,5.457099,6.311422,6.119001,11.292087
1007.011719,1.723207,9.932974,5.956681,8.029810
1007.015625,14.506943,3.651912,3.075068,7.325143
1007.019531,4.104760,10.718685,8.442528,9.607973
1007.023438,6.055214,14.199675,10.695650,14.873076
1007.027344,17.855203,6.999532,5.851628,2.906913
1007.031250,12.949435,15.423677,3.295471,11.153030
1007.035156,3.478253,4.316281,3.320868,6.562605
1007.039062,3.637379,8.676091,9.492713,0.374930
1007.042969,2.444629,0.757671,0.426012,-2.818970
1007.046875,-0.708921,1.300783,1.757825,9.310747
1007.050781,2.102343,2.254286,-5.105847,-2.082906
1007.054688,-6.721027,1.201030,-9.039989,-1.102041
1007.058594,-4.542022,-4.919177,-6.248767,2.109439
1007.062500,-7.463766,-12.504383,-2.987507,-4.240491
1007.066406,-7.153920,-6.165333,-13.328454,-7.588420
1007.070312,-6.822699,-7.740628,-12.463782,-5.783556
1007.074219,-9.228217,-6.852290,-11.583931,-6.788835
1007.078125,-7.180017,-13.260768,-3.329312,-14.710535
1007.082031,-12.048767,-9.370478,-12.325687,-11.361859
1007.085938,-7.373589,-3.911853,-10.933649,-6.063574
1007.089844,-1.368584,-2.170764,-6.060623,-7.551331
1007.093750,-7.657093,3.991299,-2.016264,-7.316548
1007.097656,-1.274077,-5.325454,3.574383,-3.759528
1007.101562,-1.842908,0.856229,-1.330880,0.543265
1007.105469,2.119972,1.654183,-2.807196,3.979635
1007.109375,5.325279,8.754176,-1.965980,5.683901
1007.113281,8.051469,13.534707,9.066614,22.082001
1007.117188,3.034215,12.291674,7.644267,11.351242
1007.121094,8.961890,6.681621,22.043399,13.021562
1007.125000,14.688535,14.661481,10.454553,12.210959
1007.128906,14.140862,8.997840,11.332822,11.400634
1007.132812,2.576802,7.641890,8.726034,8.789871
1007.136719,8.298651,3.225762,2.529345,10.322216
1007.140625,6.409067,-1.641365,8.358209,5.642534
1007.144531,2.236416,0.187493,-2.847865,4.370623
1007.148438,0.853941,-1.288117,5.702407,-3.762202
1007.152344,3.012719,-5.267166,4.442547,-0.379525
1007.156250,-3.990111,-0.297927,-5.275591,-9.214036
1007.160156,-0.207341,-9.176663,-3.243748,-6.750375
1007.164062,-6.365746,-8.166077,-10.639771,-11.480005
1007.167969,-9.100813,-12.384079,-9.986686,-8.920942
1007.171875,-7.006313,-15.077275,-7.263200,-15.311511
1007.175781,-16.811672,-7.269612,-12.619057,-8.385912
1007.179688,-8.091805,0.449116,-14.689157,-3.599282
1007.183594,-6.457131,-12.329166,-2.668066,-0.079285
1007.187500,-7.072492,-5.302096,-7.750547,-10.051008
1007.191406,-0.387552,-8.688815,2.233193,-2.811917
1007.195312,0.183931,-3.482321,-1.801106,-1.021680
1007.199219,-5.047485,-4.845302,6.753759,-4.646030
1007.203125,-1.719294,6.380299,6.901209,-3.650035
1007.207031,6.495702,5.554435,2.868951,8.234108
1007.210938,12.358035,7.713008,3.402532,7.111400
1007.214844,8.548402,7.279287,10.695421,1.515274
1007.218750,11.699924,10.393398,8.833496,11.179221
1007.222656,9.635411,11.410688,11.674782,13.587687
1007.226562,14.452343,13.705027,10.310045,11.486354
1007.230469,14.182623,11.418772,5.215141,8.064556
1007.234375,-1.929427,-1.598238,3.566691,18.827693
1007.238281,-1.068829,11.416783,13.144681,5.642403
1007.242188,2.908938,-1.693103,11.815700,8.442924
1007.246094,-1.019697,2.900121,7.666663,8.728119
1007.250000,-1.773700,-1.422715,0.518120,5.721912
1007.253906,-5.110854,-2.497641,1.941418,-2.033012
1007.257812,-6.714741,-6.112808,-4.530940,-3.080751
1007.261719,-9.447881,1.869604,0.034663,-7.839061
1007.265625,-13.904944,-11.000114,-5.786625,-9.877446
1007.269531,-9.583594,-9.723650,-11.642306,-8.995364
1007.273438,-5.244850,-15.833636,-10.425670,-10.898145
1007.277344,-8.209230,-5.824659,-11.589739,-11.098401
1007.281250,-5.780438,-9.377364,-10.212628,-15.615899
1007.285156,-2.372690,-6.909382,-11.304752,-5.717498
1007.289062,-12.027022,-9.981410,-2.519156,-3.239307
1007.292969,-9.666829,-2.146245,-0.586655,-3.236244
1007.296875,-5.858866,-3.597452,3.341539,3.444691
1007.300781,4.697720,-1.653518,4.841957,1.852208
1007.304688,2.605085,9.754860,3.511397,5.337879
1007.308594,6.863321,10.110457,3.528485,0.082471
1007.312500,4.275653,10.166856,0.653021,10.254665
1007.316406,7.276692,8.142727,6.623681,5.233608
1007.320312,12.256742,11.512486,11.757785,16.282659
1007.324219,11.394093,7.317937,17.041432,9.517599
1007.328125,11.536703,5.803062,5.238579,7.929847
1007.332031,6.098485,11.244739,9.091822,7.783007
1007.335938,5.563035,7.937783,6.856011,-1.397497
1007.339844,1.741225,8.373238,1.384002,2.956749
1007.343750,6.677084,-0.801832,0.764423,8.462437
1007.347656,-1.129378,-0.560624,-3.117140,0.024928
1007.351562,-0.081355,-2.035037,0.575917,-7.360634
1007.355469,-1.112399,-1.413092,3.790843,-0.839110
1007.359375,-2.866233,-8.837577,-0.739805,-7.886050
1007.363281,-4.608200,-1.463631,-8.010627,-0.595150
1007.367188,-4.178047,-12.152197,-10.296363,-4.252957
1007.371094,-8.247152,-8.827837,-7.413951,-16.654571
1007.375000,-4.586165,-17.028167,-13.304830,-6.990728
1007.378906,-9.255158,-17.590468,-11.717785,-13.706888
1007.382812,-9.415979,-11.725942,-14.013342,-11.522361
1007.386719,-12.558163,-9.936894,-9.762957,-9.698205
1007.390625,-4.978091,-0.059712,-5.665389,-7.235396
1007.394531,3.384368,-2.312825,-3.082882,-10.272019
1007.398438,-2.054967,4.500162,-7.827842,2.000129
1007.402344,0.616223,-0.577125,3.480253,-0.216881
1007.406250,2.906744,7.464120,1.040119,8.973473
1007.410156,9.424587,7.508911,10.783120,10.652793
1007.414062,9.185714,-0.988425,7.018343,7.601883
1007.417969,7.731342,13.670475,8.463450,6.353021
1007.421875,6.140774,13.825481,4.732824,7.263625
1007.425781,11.260812,17.826956,12.971814,9.789467
1007.429688,5.815547,10.912845,17.992991,4.557006
1007.433594,9.120144,8.206154,12.555990,12.939174
1007.437500,8.613364,11.194032,20.155268,6.877315
1007.441406,6.358282,12.444769,5.349576,1.631163
1007.445312,-2.987246,9.793445,4.415187,-0.502203
1007.449219,1.257024,0.799984,4.830207,1.055279
1007.453125,-0.941493,1.206827,-16.199805,-0.444853
1007.457031,-1.913610,-3.087633,-0.001427,-6.791861
1007.460938,-7.527861,-2.926207,-2.174184,-6.208496
1007.464844,-12.010253,-10.657603,-7.531925,-11.887451
1007.468750,-12.510442,-3.865894,-4.796576,-3.911051
1007.472656,-10.902210,-14.656259,-14.020360,-13.082515
1007.476562,-9.300962,-5.007821,-11.548439,-10.506120
1007.480469,-7.954363,-9.485521,-14.001813,-6.468687
1007.484375,-12.091145,-1.865741,-11.741590,-6.880739
1007.488281,-5.882091,-14.472309,-6.796233,-5.745640
1007.492188,0.994499,-2.775528,-11.924649,0.429452
1007.496094,-3.316150,-0.605621,-2.743641,4.175538
1007.500000,3.999917,4.294807,1.943135,-3.907299
1007.503906,5.079564,4.599188,-1.494817,6.216757
1007.507812,6.485193,6.117593,3.499183,-2.466485
1007.511719,14.130394,12.672779,4.377941,9.256156
1007.515625,3.475800,13.797462,11.002959,8.899833
1007.519531,6.475310,9.364984,10.710767,11.644224
1007.523438,10.682789,1.469370,9.237139,8.271957
1007.527344,8.865512,14.172304,3.799074,2.552474
1007.531250,5.413120,9.858180,15.067048,2.112064
1007.535156,6.145154,10.577034,9.786971,6.532474
1007.539062,6.476500,7.676904,2.990966,0.250018
1007.542969,2.917574,9.071917,4.427649,4.537130
1007.546875,1.281837,8.772663,2.793262,-5.832523
1007.550781,-0.047836,-3.689776,0.471862,-10.878023
1007.554688,-6.717790,-1.840059,3.576404,-5.635849
1007.558594,0.702791,-8.490569,-3.524987,-6.993315
1007.562500,-1.484499,-7.783842,-7.866516,-10.608717
1007.566406,-12.925045,0.688275,-2.213738,-6.286293
1007.570312,-1.815404,-10.103983,-8.871706,-11.008077
1007.574219,-11.798574,-6.874358,-9.661960,-8.212492
1007.578125,-3.813580,-8.393231,-3.482646,-13.718071
1007.582031,-1.304941,-7.765487,-7.232002,-7.698583
1007.585938,-12.886380,4.163940,-6.406818,-13.794810
1007.589844,-8.960955,-3.873168,-4.139219,-5.479077
1007.593750,2.536767,-5.485011,-0.820664,0.523305
1007.597656,-0.454553,2.152234,-6.048848,-9.162161
1007.601562,0.470058,5.517339,2.777086,6.634395
1007.605469,-9.367304,1.829048,0.578681,4.014548
1007.609375,4.490692,1.165216,5.363013,6.804780
1007.613281,15.020161,12.533000,20.543854,3.266641
1007.617188,12.383972,8.619970,7.404850,7.466156
1007.621094,3.440507,5.935453,16.049939,14.508684
1007.625000,11.428140,11.411008,9.220555,7.382122
1007.628906,8.155996,16.580209,11.114500,3.809025
1007.632812,8.846013,9.539092,12.401907,6.634788
1007.636719,5.952577,12.845785,11.251586,15.845591
1007.640625,7.365200,2.889342,4.021091,7.007096
1007.644531,1.953014,6.392899,1.605069,-2.292165
1007.648438,-3.408888,8.775517,3.311023,-8.305613
1007.652344,-6.348029,1.915787,3.564907,-0.177260
1007.656250,-9.378021,-3.639544,7.241986,-0.671653
1007.660156,2.314235,-1.295645,-5.409897,-8.029431
1007.664062,-7.557279,-9.269367,-8.151966,-12.046713
1007.667969,-8.975276,-8.706137,-6.653922,-3.997098
1007.671875,-7.540882,-8.629228,-4.724477,-8.321704
1007.675781,-3.118049,-3.620385,-6.750869,-10.743746
1007.679688,-12.666957,-11.211172,-8.557007,-12.875370
1007.683594,-7.236803,-11.381454,-5.288088,-13.492427
1007.687500,-10.528566,-1.302116,-8.887314,-5.391179
1007.691406,-6.939274,-5.785328,-0.827357,-2.707110
1007.695312,0.887780,-1.259975,-0.365228,3.062922
1007.699219,3.157639,-0.899208,-5.816407,0.610201
1007.703125,2.933219,10.590000,-1.792023,-0.526977
1007.707031,8.073191,-0.303084,8.345598,3.371836
1007.710938,6.160117,13.392692,5.225958,9.200715
1007.714844,7.275932,10.304410,8.849278,4.468681
1007.718750,8.889480,3.132749,5.120250,6.419278
1007.722656,8.812983,7.775642,5.131213,13.026286
1007.726562,13.251268,12.359581,4.379774,11.890195
1007.730469,4.269219,11.604422,12.126965,7.160773
1007.734375,3.356537,12.770102,6.175613,9.811940
1007.738281,4.684809,8.281687,-0.490393,-0.191920
1007.742188,0.471144,-0.585540,8.404784,-1.797332
1007.746094,3.771218,4.981100,-0.127528,10.847626
1007.750000,2.749174,-5.202510,6.737535,-1.356003
1007.753906,-1.114893,-4.144985,-4.230474,0.716832
1007.757812,-0.480207,-0.675481,-5.313830,-9.959232
1007.761719,-5.979252,-5.756370,0.080772,-10.811617
1007.765625,-7.951008,-8.638203,-11.576083,-5.065744
1007.769531,-12.190114,-8.330911,-6.534088,-7.430041
1007.773438,-12.070838,-14.234254,-4.603853,-10.421006
1007.777344,-11.162553,-8.545136,-19.025583,-7.915861
1007.781250,-1.070222,-9.526154,-10.966124,-7.692691
1007.785156,-8.166626,-11.000407,-6.500140,-2.916735
1007.789062,-15.588786,-13.938442,-2.771241,-10.426758
1007.792969,-3.659301,0.755791,-6.426708,-8.140948
1007.796875,-3.758035,-1.584821,-4.712333,1.558856
1007.800781,-2.063606,0.495908,0.490490,-1.595939
1007.804688,0.979309,2.634522,-1.763733,1.461494
1007.808594,6.232860,6.093201,10.234958,2.252319
1007.812500,10.228123,5.864014,10.544092,5.207204
1007.816406,7.488286,7.779059,12.844113,17.610601
1007.820312,9.437068,12.653858,8.533464,11.261064
1007.824219,14.940535,8.677894,10.288681,5.092036
1007.828125,9.912385,6.428075,9.855969,10.563117
1007.832031,11.703470,12.680094,5.593031,11.070186
1007.835938,6.622423,5.936008,4.116975,6.070362
1007.839844,13.835923,2.991380,2.376211,8.397294
1007.843750,7.126277,4.521660,5.646894,2.884580
1007.847656,1.548796,2.197818,3.360747,1.085718
1007.851562,-3.315032,1.319010,-6.854590,0.840888
1007.855469,-2.621252,-4.889816,-3.584736,-4.343414
1007.859375,0.756866,-9.818174,-10.562804,-12.911024
1007.863281,-7.009317,-10.261981,-4.558680,-9.385347
1007.867188,-10.516948,-4.774824,-6.289068,-9.025955
1007.871094,-4.308898,-12.340647,-6.637362,-10.759618
1007.875000,-10.025636,-15.112245,-8.896665,-14.779075
1007.878906,-5.707208,-10.663289,-7.510241,-11.293084
1007.882812,-11.307531,-10.412160,-1.146507,-11.672873
1007.886719,-13.900295,-8.755108,-0.557529,-8.058261
1007.890625,-4.471385,1.387508,-11.898157,-4.598586
1007.894531,1.504537,-1.622116,-6.768258,-6.758929
1007.898438,2.452361,0.191933,-3.622168,0.131929
1007.902344,3.727696,1.953351,6.860257,3.348651
1007.906250,6.353886,-1.422842,5.719718,11.943840
1007.910156,3.742678,10.021236,11.025282,3.868290
1007.914062,8.199680,17.014598,12.136059,9.582234
1007.917969,14.484322,12.995667,14.346205,6.478056
1007.921875,8.975485,8.938461,8.358901,4.578185
1007.925781,9.504185,8.470831,12.489469,12.033658
1007.929688,4.285359,13.575810,12.844777,14.374305
1007.933594,10.086752,5.948844,10.534990,3.459613
1007.937500,7.545347,4.951910,5.683838,9.478627
1007.941406,1.979692,9.594170,1.543895,3.782543
1007.945312,9.095391,0.282701,0.118900,4.242019
1007.949219,-2.477127,-8.384903,7.189656,5.140505
1007.953125,-1.124944,-5.360720,0.461795,1.796694
1007.957031,-5.225971,-8.227502,-10.404127,-2.589948
1007.960938,-9.974628,-2.463123,1.681965,-6.243077
1007.964844,-15.676282,-10.580381,-9.168154,-7.090438
1007.968750,-3.404157,-12.845879,-9.924527,-7.937964
1007.972656,-14.937509,-8.606944,-16.028682,-10.322075
1007.976562,-17.254628,-11.664770,-14.416781,-12.195461
1007.980469,-12.476765,-3.891099,-5.701240,-9.381288
1007.984375,-17.703486,-15.005887,-8.505968,-13.637829
1007.988281,-10.631873,-3.326010,-2.224755,-8.619378
1007.992188,0.014220,-1.870369,-5.898796,-7.348242
1007.996094,-9.453080,-2.762793,-4.749881,-7.195393
1008.000000,7.766229,-1.981402,-0.646641,5.386156
1008.003906,3.820793,8.326508,2.531806,8.002311
1008.007812,1.408296,6.045690,3.371772,7.210572
1008.011719,4.235891,1.058629,0.066540,7.657078
1008.015625,4.782408,4.423656,10.393586,0.681136
1008.019531,11.736387,13.520749,7.911403,5.663639
1008.023438,10.770527,6.553377,9.675167,7.799442
1008.027344,2.462741,9.126557,9.456208,13.637374
1008.031250,8.120147,11.376565,6.708783,16.211991
1008.035156,9.922073,4.970622,8.799440,3.766079
1008.039062,12.893675,11.167347,10.000067,3.956554
1008.042969,-0.343539,7.409276,1.650778,4.786115
1008.046875,9.927964,-1.314351,-1.173419,-7.018742
1008.050781,7.141154,-5.244254,0.624071,-2.670984
1008.054688,-0.473474,-0.404184,-10.078621,-0.906404
1008.058594,-15.836143,-5.160764,-8.533747,-7.712982
1008.062500,-4.517283,-1.973110,-6.911221,-3.014569
1008.066406,-8.776576,-16.372901,-7.673180,-5.451283
1008.070312,-6.766525,-8.682055,-11.545368,-15.632626
1008.074219,-4.617766,-16.741249,-16.029073,-12.438770
1008.078125,-6.546424,-7.754481,-10.228828,-9.749506
1008.082031,-12.982298,-9.794021,-11.051705,-7.556162
1008.085938,-1.039573,-15.021763,-2.966718,-1.750678
1008.089844,-4.144797,-4.890152,-14.427542,-16.036191
1008.093750,-9.627795,-8.645653,0.069935,4.960233
1008.097656,-0.539583,0.735722,-7.314792,-4.063036
1008.101562,-0.560110,-3.260865,9.328932,-0.193337
1008.105469,6.742710,6.559445,12.799137,3.432942
1008.109375,10.791468,7.608884,3.832698,8.795519
1008.113281,10.860785,7.115273,12.738564,14.933790
1008.117188,8.148681,5.732750,7.432334,7.170551
1008.121094,10.507605,12.683920,7.771358,12.823461
1008.125000,5.986176,9.477380,14.129038,11.654583
1008.128906,6.972259,16.771192,13.702219,11.499446
1008.132812,3.003784,9.248187,8.281713,11.662879
1008.136719,7.482636,-0.428378,5.473205,11.536185
1008.140625,5.241968,0.680297,6.385890,4.748993
1008.144531,6.121317,2.032591,0.569313,-3.841371
1008.148438,-0.572385,-0.891744,-2.305900,-0.431344
1008.152344,-7.113150,-0.502214,-5.681075,-2.897867
1008.156250,2.871280,-7.319178,3.873658,-6.317799
1008.160156,-9.344676,-9.404659,-4.107011,-4.255060
1008.164062,-8.379408,-5.732627,0.700566,-9.506706
1008.167969,-7.262687,-7.956229,-7.461867,-3.677819
1008.171875,-5.854424,-14.022239,-11.216378,-9.834801
1008.175781,-9.586215,-7.542877,-9.955504,-13.025207
1008.179688,-2.070671,-14.574135,-13.748459,-10.672850
1008.183594,-6.551682,-2.987279,-12.045700,-15.325144
1008.187500,-5.847633,-7.377606,-0.176437,-6.720082
1008.191406,-7.857981,-4.225535,-7.564436,-8.095379
1008.195312,-5.837031,-3.563720,-5.549838,-6.242068
1008.199219,4.445963,-3.667674,3.013900,-0.214225
1008.203125,-1.510768,4.607246,-0.543558,4.330499
1008.207031,-2.041044,7.664190,4.741736,-0.482249
1008.210938,2.667267,-1.034797,8.017121,6.523226
1008.214844,7.050137,9.120790,7.932868,5.343420
1008.218750,10.813038,7.712921,15.971930,6.411210
1008.222656,11.910719,12.019475,6.728006,4.412770
1008.226562,5.543907,5.761730,12.203184,8.521289
1008.230469,6.776699,2.841800,11.734786,9.386391
1008.234375,8.072065,9.161164,7.871446,6.832984
1008.238281,4.224314,16.518649,5.635362,9.679739
1008.242188,9.381929,2.945918,10.919327,-2.720438
1008.246094,5.743625,4.200444,2.350537,3.015443
1008.250000,3.333429,-3.496286,2.448623,-2.118037
1008.253906,-5.712894,-3.615204,-7.635527,-1.563201
1008.257812,-4.803628,-9.170816,-3.534180,-6.232268
1008.261719,-7.773615,-5.165378,-8.332352,-2.433720
1008.265625,-4.888994,-6.620964,-8.589323,-10.072735
1008.269531,-13.274170,-3.468133,-13.946505,-13.718831
1008.273438,-6.834828,-10.743759,-5.694708,-8.515455
1008.277344,-14.924555,-11.225801,-15.206229,-6.789563
1008.281250,-3.438690,-6.453504,-5.049744,-3.502328
1008.285156,1.189467,-8.353028,-0.228240,-11.252798
1008.289062,-6.369143,-12.010950,-5.550839,-3.911042
1008.292969,-0.703807,-2.172955,2.348776,-3.697021
1008.296875,0.166779,-3.508753,-6.295881,-0.621461
1008.300781,3.598166,-2.318354,3.021449,-4.994960
1008.304688,2.299636,0.402054,1.643392,3.434614
1008.308594,6.420603,4.867500,10.172200,8.040327
1008.312500,4.855797,3.241607,10.507430,9.360795
1008.316406,12.577958,0.571142,8.045914,6.502444
1008.320312,10.056563,9.705376,6.706867,10.933091
1008.324219,15.150254,11.108180,10.225061,7.652236
1008.328125,18.762517,1.848134,8.670980,11.619008
1008.332031,13.603220,9.363501,4.606603,10.415199
1008.335938,12.165322,7.540091,4.214723,7.107936
1008.339844,4.939476,4.268156,7.595905,7.654135
1008.343750,15.571841,0.790139,0.908320,3.934433
1008.347656,2.549046,2.632439,0.809108,-3.270444
1008.351562,-13.298170,6.178811,-2.921564,3.448167
1008.355469,0.314275,-7.934444,-0.791371,-4.901561
1008.359375,-9.245505,3.551555,-11.311564,-7.923086
1008.363281,-4.236330,-2.575591,-6.685988,-5.511049
1008.367188,-12.683780,-14.124945,-13.927965,-14.875568
1008.371094,-15.190732,-8.468218,-14.790522,-5.192950
1008.375000,-16.071134,-7.301678,-10.648265,-13.221454
1008.378906,-9.242074,-5.205973,-12.476402,-6.432786
1008.382812,-3.420146,-10.240691,-10.103178,-6.384793
1008.386719,-5.756174,-10.782134,-6.102771,-5.846032
1008.390625,-6.739794,-10.513870,-6.879993,-5.076398
1008.394531,-5.698327,-0.651326,-9.636946,-10.623403
1008.398438,-2.858571,1.064138,-6.086071,2.914939
1008.402344,-0.336982,3.075009,9.006299,2.566215
1008.406250,1.144140,8.164232,10.291247,6.233658
1008.410156,10.376430,0.916273,0.299046,1.000727
1008.414062,7.084747,2.499307,3.493844,11.412874
1008.417969,12.344410,1.300440,12.307318,4.610042
1008.421875,12.275294,5.480800,12.597332,12.979137
1008.425781,9.091110,11.511004,17.474724,13.364925
1008.429688,12.455665,13.299199,8.663791,15.892740
1008.433594,5.096354,11.009440,2.859539,6.205808
1008.437500,2.771526,12.727217,8.001935,4.423466
1008.441406,8.415851,-1.120661,0.360071,5.122821
1008.445312,-0.366534,3.788995,1.178222,6.812181
1008.449219,4.333222,0.085565,-0.332254,3.253610
1008.453125,-3.331182,7.842185,-5.745592,-3.028680
1008.457031,-2.089799,-3.873104,-5.339695,-14.765913
1008.460938,-6.116945,-4.822414,-3.555803,-7.462545
1008.464844,-4.238767,-4.978342,-7.057757,-11.588556
1008.468750,-5.065300,-12.171795,-16.616556,-14.786003
1008.472656,-4.932532,-8.887169,-4.318874,-9.233401
1008.476562,-6.079098,-10.294884,-7.355805,-12.869450
1008.480469,-4.162755,-13.763752,-8.415572,-7.686636
1008.484375,-4.997706,-2.604891,-6.481178,-2.316415
1008.488281,-10.254951,5.670044,-12.457025,-10.820723
1008.492188,-8.904999,1.631105,-7.002049,-9.772149
1008.496094,5.509820,1.151459,-1.323698,-0.784670
1008.500000,-6.104851,1.119354,5.518394,-1.344523
1008.503906,1.225109,5.241821,-5.022342,8.893656
1008.507812,4.241135,2.001769,3.365377,5.248838
1008.511719,10.215440,9.135356,8.836584,7.905141
1008.515625,5.180582,11.561599,11.992497,4.238581
1008.519531,11.047899,8.745398,6.739088,10.684547
1008.523438,15.342042,-1.968055,6.903168,8.443573
1008.527344,11.098412,10.572012,12.523031,14.460305
1008.531250,8.555419,13.094338,9.310792,5.773280
1008.535156,-0.505285,5.924916,7.472318,9.160259
1008.539062,2.834993,2.372274,6.168693,3.795290
1008.542969,7.795538,-0.109641,9.065931,8.200642
1008.546875,2.035649,-0.477624,-2.698261,-4.802825
1008.550781,-2.187567,-2.154818,6.223856,-1.418037
1008.554688,-5.627127,-3.068770,-6.220483,-8.907394
1008.558594,-5.422958,-5.145431,-7.982200,-4.324432
1008.562500,-12.214279,-7.737371,-7.590419,-5.609064
1008.566406,-15.191331,-5.194726,-2.246391,-7.516377
1008.570312,-8.760199,-7.179573,-14.826150,-9.175085
1008.574219,-6.048555,-7.511095,-8.693915,-9.598249
1008.578125,-11.075674,-2.341349,-13.255047,-10.309467
1008.582031,-5.315490,-13.121733,-6.120228,-7.052909
1008.585938,-6.064428,-13.074866,-8.816557,-1.352856
1008.589844,-7.231711,5.425946,-8.267635,-7.457582
1008.593750,-5.156744,-8.523456,2.116803,-1.136292
1008.597656,2.381728,6.312118,-0.839185,3.562935
1008.601562,4.116895,2.932771,-0.089003,-5.864894
1008.605469,6.112541,-1.917531,6.465145,8.971260
1008.609375,4.113666,7.085539,9.227913,2.515704
1008.613281,6.316030,2.412791,6.069043,8.393727
1008.617188,5.140013,14.725421,10.883465,9.717772
1008.621094,11.791802,6.365579,13.696916,10.568812
1008.625000,7.790765,2.866649,13.817176,12.612696
1008.628906,13.949476,10.811756,8.997897,7.335678
1008.632812,12.229105,1.500776,9.859083,10.631303
1008.636719,8.042931,0.870462,5.650429,7.835526
1008.640625,4.667328,0.520515,7.337244,0.241449
1008.644531,3.710957,3.657914,-0.531266,9.387499
1008.648438,2.364938,-1.892419,0.296333,0.808840
1008.652344,-2.997769,-3.123916,-6.201208,-9.555521
1008.656250,-3.801234,-4.060995,-7.873536,-6.595650
1008.660156,-6.845500,-14.615255,-6.711674,-3.590100
1008.664062,-11.646752,-2.507639,-9.842946,-5.463971
1008.667969,-5.808757,-17.211969,-6.976795,-8.414308
1008.671875,-6.944268,-13.563956,-8.045274,-5.942398
1008.675781,-12.799295,-12.300176,-10.463605,-11.860738
1008.679688,-11.878805,-7.371337,-18.886981,-21.892280
1008.683594,-9.055917,-14.037754,-13.570536,-11.090942
1008.687500,-2.642359,-3.842849,-6.218753,-10.437439
1008.691406,-1.453713,0.080256,-9.141353,-7.862920
1008.695312,0.426638,-3.093149,2.704599,-3.323010
1008.699219,-2.286125,3.338264,-4.374508,4.083654
1008.703125,-2.659674,-0.048858,-2.558577,2.446774
1008.707031,10.741653,0.457034,8.710062,3.350278
1008.710938,11.237756,7.819814,5.059993,3.128893
1008.714844,12.023117,11.257135,8.984670,6.376531
1008.718750,10.329630,12.197650,5.999727,9.411459
1008.722656,10.254538,9.851899,5.700773,21.173141
1008.726562,11.039175,13.184340,11.817336,0.041852
1008.730469,11.752790,9.280532,7.752047,17.274308
1008.734375,4.331553,7.612302,7.715708,15.395993
1008.738281,9.291517,7.089341,7.968334,1.326696
1008.742188,8.336591,8.365704,2.731160,10.855040
1008.746094,3.948705,3.775560,4.113533,0.252628
1008.750000,-3.595839,-5.028913,-0.851300,-2.305897
1008.753906,-1.984255,-5.384254,2.562352,0.826705
1008.757812,-3.406806,0.036443,-9.004143,-1.139039
1008.761719,-1.271241,-5.599474,-1.867612,-9.401280
1008.765625,-4.922113,-10.432795,-7.622947,-3.566202
1008.769531,-10.707662,-5.429584,-9.344049,-9.418459
1008.773438,-9.842067,-3.206496,-5.021034,0.439279
1008.777344,-3.616772,-12.292791,-3.693241,-16.532899
1008.781250,-7.590897,-8.892879,-11.655130,-10.334782
1008.785156,-7.769323,-11.217400,-12.285355,-7.807456
1008.789062,-8.098734,-6.004957,-6.290798,-3.265026
1008.792969,-3.903797,-4.156665,-6.585984,-2.804062
1008.796875,3.101580,-2.299329,-5.800793,-6.420756
1008.800781,-3.438719,-2.666440,6.909031,5.785771
1008.804688,-0.032932,-3.979214,1.774951,3.901216
1008.808594,5.984908,2.806347,11.961399,-0.153997
1008.812500,3.158230,14.763247,14.023664,7.938396
1008.816406,1.680937,3.409150,2.091721,11.941006
1008.820312,5.406599,12.754440,9.682347,5.003483
1008.824219,12.655402,14.643455,14.146692,15.142990
1008.828125,3.638187,3.692999,10.396989,20.770660
1008.832031,6.364214,10.827859,2.312114,4.196756
1008.835938,11.887569,5.416582,9.542730,12.185567
1008.839844,4.409079,8.368957,4.311506,6.797783
1008.843750,-0.916222,6.425854,3.199419,-3.362899
1008.847656,-3.368247,-6.915185,0.653825,9.985414
1008.851562,6.040361,-4.260827,1.031257,0.309328
1008.855469,-7.924450,-7.622928,-6.649950,-1.034917
1008.859375,-6.616802,-3.827779,-6.277684,-7.471173
1008.863281,-6.723989,-1.337187,-3.085052,-7.872677
1008.867188,-10.492174,-10.492618,-7.007008,-7.891674
1008.871094,-16.260474,-14.387261,-13.554713,-9.294695
1008.875000,-10.927746,-1.790362,-5.862940,-9.696257
1008.878906,-14.717116,-13.843841,-18.370247,-7.864996
1008.882812,-8.898363,-2.110314,-11.393996,-3.545243
1008.886719,-10.288353,-9.040345,-12.862815,-5.938073
1008.890625,-10.533679,-5.129842,-5.907082,-5.980591
1008.894531,-1.328650,2.606549,-2.690937,-3.426791
1008.898438,-1.118140,6.906670,-7.982237,1.943189
1008.902344,3.336966,-0.553392,2.792261,-2.091899
1008.906250,-1.168601,-2.706193,14.014113,6.130648
1008.910156,8.867057,2.252171,6.966144,0.217213
1008.914062,13.772717,12.222519,14.678252,8.022062
1008.917969,5.205825,9.216226,8.822177,5.167443
1008.921875,17.418374,9.900467,17.333023,8.399189
1008.925781,11.357027,8.917359,4.300546,5.953933
1008.929688,17.922093,8.871443,10.677098,2.934932
1008.933594,8.843624,9.500634,9.538544,3.639642
1008.937500,2.618761,6.963615,7.790975,7.803342
1008.941406,7.165381,1.777126,10.428134,8.186312
1008.945312,2.019421,1.557946,-2.199740,1.576656
1008.949219,1.249673,-0.426708,3.354629,5.433902
1008.953125,-4.895401,2.818013,-8.416666,1.590357
1008.957031,4.296171,-1.294588,3.830746,-4.562961
1008.960938,-13.483357,-1.811227,-6.439882,-1.618193
1008.964844,-4.936615,-9.855406,-7.378483,-7.820057
1008.968750,-16.942724,-12.802363,-4.454181,-11.702860
1008.972656,-16.808886,-9.076519,-11.356552,-5.600748
1008.976562,-9.991460,-14.290999,-6.662123,-4.918697
1008.980469,-5.893277,-2.503226,-3.798186,-8.163772
1008.984375,-4.188151,-13.986753,-13.875090,-12.128655
1008.988281,-6.125423,-7.939795,-17.213904,-8.929406
1008.992188,-8.452801,-6.400648,-10.982492,-9.376598
1008.996094,-1.824120,2.347898,-7.463857,-10.018950
1009.000000,-6.023424,1.683294,-1.776440,-6.201101
1009.003906,6.452593,5.975613,-2.418326,-3.323663
1009.007812,7.860601,-0.878821,3.449974,11.728998
1009.011719,7.833959,6.922495,8.126096,3.455515
1009.015625,16.452251,6.351566,10.088358,5.399432
1009.019531,9.182626,10.466533,14.893979,12.771230
1009.023438,13.441865,8.018247,3.059996,10.954534
1009.027344,13.167303,13.494249,12.545190,6.072326
1009.031250,6.078087,7.486447,12.048878,16.099977
1009.035156,17.745049,-0.439795,10.075709,3.712742
1009.039062,4.981122,-2.937534,6.387463,7.102464
1009.042969,8.107485,5.482466,5.991985,8.000903
1009.046875,2.747622,2.595017,-6.394539,-1.722633
1009.050781,2.648269,5.774645,-1.925611,-5.291927
1009.054688,0.783330,-1.059583,-4.834853,-10.630109
1009.058594,-0.379149,-9.245124,-11.062332,1.924031
1009.062500,-2.316630,-7.126649,-7.185344,-8.894791
1009.066406,-7.199069,-9.411283,-5.052609,-6.218849
1009.070312,-15.771622,-9.471874,-9.393230,-3.018134
1009.074219,-16.723868,-1.700023,-11.389206,-16.326896
1009.078125,-10.205576,-8.319043,-5.305112,-8.879288
1009.082031,-12.790577,-10.264429,-9.886062,-6.917876
1009.085938,-6.924514,-4.599628,-14.722417,-2.712079
1009.089844,-3.045544,-7.005589,-6.254754,-4.359151
1009.093750,-8.709803,0.307291,-1.036066,-4.286788
1009.097656,5.236673,3.167699,-7.136115,-5.635630
1009.101562,1.445431,5.386055,6.002363,3.092435
1009.105469,1.331611,1.835998,-4.749905,1.052185
1009.109375,6.651685,8.806883,4.474889,-5.848941
1009.113281,6.193018,2.385932,-0.269920,14.779020
1009.117188,6.942857,13.086560,14.528582,6.236582
1009.121094,2.365176,9.458218,13.965150,13.820153
1009.125000,8.848966,7.451816,15.557830,8.457979
1009.128906,5.205249,18.254395,3.156987,14.435690
1009.132812,7.868789,12.563634,5.687555,11.773901
1009.136719,10.610214,9.233376,5.385639,4.712705
1009.140625,8.524646,3.640664,7.691802,6.489843
1009.144531,6.908050,7.610363,6.346534,1.819184
1009.148438,-1.206384,0.152236,-2.102878,-2.279303
1009.152344,0.174628,1.882025,2.532860,4.377086
1009.156250,0.769778,-9.052767,-6.022752,0.015819
1009.160156,-12.319303,-16.170096,-3.503000,-4.111347
1009.164062,-9.163035,-5.820035,-6.845289,-4.324615
1009.167969,-8.366318,-5.439087,-8.698069,-10.441410
1009.171875,-10.450657,-5.420933,-18.357355,-12.273648
1009.175781,-17.123860,-8.734486,-11.266534,-9.413039
1009.179688,-12.511938,-12.560818,-9.930044,-6.494217
1009.183594,-8.798049,-9.737100,-15.842229,-3.531089
1009.187500,-2.653575,-1.558466,-7.546008,-5.606498
