timestamp,TP9,AF7,AF8,TP10
1000.000000,-5.891654,-3.234694,4.460019,2.047460
1000.003906,3.238719,-4.504164,-1.993001,6.526808
1000.007812,-0.982930,4.065538,5.861644,6.202020
1000.011719,2.312630,12.498248,6.931342,3.284537
1000.015625,3.626906,2.986158,11.985656,6.941264
1000.019531,10.249872,2.166781,8.508329,9.301171
1000.023438,9.297758,11.485400,10.745674,4.249320
1000.027344,6.214450,10.824295,8.659548,13.457508
1000.031250,4.109372,6.638067,8.957560,16.306022
1000.035156,9.239578,14.374329,3.710842,7.017407
1000.039062,5.469088,8.076759,4.043944,13.356592
1000.042969,4.342389,-3.982049,5.631139,0.252797
1000.046875,6.383667,0.051002,3.136016,4.354340
1000.050781,1.378183,-10.102921,-0.046204,1.429038
1000.054688,-3.230220,-1.389701,1.274804,-0.987051
1000.058594,1.500281,-7.403894,-6.477144,-6.329041
1000.062500,-3.113138,-5.028530,-4.555864,-9.922517
1000.066406,-9.033875,-6.950220,-8.622304,-6.945744
1000.070312,-4.225972,-13.978034,-6.094171,-12.322227
1000.074219,-7.722784,-11.680197,-6.643357,-8.905514
1000.078125,-9.508247,-5.461173,-9.736375,-5.195842
1000.082031,-17.470883,-13.396477,-10.921616,-6.985491
1000.085938,-5.098081,-5.678845,-0.482085,-6.041554
1000.089844,-2.753298,-7.078318,-10.069678,-9.117749
1000.093750,-0.079526,-9.174506,-0.500461,-7.715986
1000.097656,-3.601663,1.760341,2.931026,-3.224527
1000.101562,6.611748,4.646565,0.068587,0.206276
1000.105469,8.850418,1.267158,-0.476742,-8.220803
1000.109375,8.329125,2.552814,6.321484,7.163435
1000.113281,6.303591,7.982428,0.445457,7.036065
1000.117188,15.132206,5.194962,14.519391,13.495604
1000.121094,3.765444,10.552379,3.855582,8.208088
1000.125000,12.052333,11.123750,12.896675,4.835055
1000.128906,7.136068,5.757549,15.856945,13.501401
1000.132812,10.627805,9.670346,0.795346,7.511338
1000.136719,15.335162,6.154646,6.870960,7.022342
1000.140625,-2.728444,5.755193,-0.872933,3.303784
1000.144531,-2.452783,6.606555,5.727906,6.490293
1000.148438,2.073278,0.157526,4.182439,-3.488010
1000.152344,-2.019055,0.573881,-4.019412,-2.193344
1000.156250,-4.216044,-2.618590,1.623692,-3.976055
1000.160156,-10.576714,-0.364360,-2.203451,-8.010092
1000.164062,-5.269840,-6.008380,-10.870101,-11.659037
1000.167969,-6.151289,-6.336034,-10.389302,-12.096127
1000.171875,-15.583132,-13.053339,-13.487388,-4.283550
1000.175781,-7.415452,-13.224158,-0.965278,-13.421236
1000.179688,-12.544170,-14.880437,-13.666576,-8.084433
1000.183594,-12.500596,-7.734301,-8.084537,-6.145811
1000.187500,-0.147561,-9.344320,-9.456969,-11.471908
1000.191406,-1.709454,-9.576625,-4.029017,-5.059200
1000.195312,0.663377,-4.002322,-4.292593,-0.052369
1000.199219,-5.170201,1.511288,-8.068876,-1.003417
1000.203125,1.035453,6.678594,2.134733,-1.659661
1000.207031,5.342923,0.166197,9.077621,13.079518
1000.210938,7.966239,7.394301,6.197959,16.099305
1000.214844,6.528955,2.910046,10.014863,15.262362
1000.218750,12.098535,7.439486,4.912147,13.001106
1000.222656,4.519568,7.144772,14.476515,15.816505
1000.226562,8.586036,12.956495,3.074044,13.189310
1000.230469,9.555570,8.380530,9.042191,13.325638
1000.234375,6.579616,4.402259,6.206696,6.331211
1000.238281,8.530596,7.270709,8.319468,3.075295
1000.242188,5.312382,4.938362,4.049324,-1.853452
1000.246094,2.639020,9.448058,0.933482,6.925324
1000.250000,5.070955,1.524208,3.734782,7.348650
1000.253906,0.798508,-2.067772,-3.753958,-2.835275
1000.257812,-1.364856,2.521075,-5.777948,-5.434240
1000.261719,-7.997866,-16.570516,-10.652237,2.401269
1000.265625,-10.394692,-13.451072,-2.690164,-10.213260
1000.269531,-8.504031,-4.453170,-8.516290,-13.036274
1000.273438,-12.346865,-6.084470,-10.387053,-9.587972
1000.277344,-5.510478,-12.016434,-18.958670,-11.697435
1000.281250,-6.364669,-16.880762,-1.546237,-7.329524
1000.285156,-12.656030,-4.923543,-7.910918,-10.613988
1000.289062,-14.061210,-7.661773,0.594053,-11.019224
1000.292969,-7.427633,-7.189125,-4.756714,-4.814443
1000.296875,-4.094746,-6.575301,-2.343583,-6.334280
1000.300781,-0.516359,4.496507,-2.507645,-0.923488
1000.304688,-4.165904,1.010835,5.937164,4.049355
1000.308594,11.491284,6.644810,3.322433,-0.194458
1000.312500,6.691634,11.427631,8.639200,4.138510
1000.316406,8.816278,2.576224,11.999648,10.180545
1000.320312,16.312287,0.218506,10.849749,9.869863
1000.324219,9.493549,11.666913,14.438782,15.185195
1000.328125,15.621379,-1.189689,15.311867,14.891523
1000.332031,4.894360,6.577436,5.643247,5.676052
1000.335938,8.055433,7.712665,3.540587,4.205492
1000.339844,14.139478,5.797335,9.468570,2.924028
1000.343750,2.488476,3.731860,4.440580,5.334284
1000.347656,-0.111249,0.021126,-0.842941,2.276412
1000.351562,-1.783262,-1.315143,-1.009601,-1.581383
1000.355469,2.139492,-0.073771,-3.800964,-2.212186
1000.359375,-10.151260,-0.646818,-13.535894,-7.908818
1000.363281,-4.179087,-3.238850,-13.511584,-4.818283
1000.367188,-16.110698,-16.465342,-4.468900,-10.171334
1000.371094,-8.617729,-5.095509,-9.064419,-3.964525
1000.375000,-16.936920,-10.834242,-7.407610,-14.093908
1000.378906,-3.871065,-11.240848,-9.768494,-12.316336
1000.382812,-6.714173,-7.594852,-13.508495,-14.466421
1000.386719,-3.676391,-8.317054,-11.762070,-7.021706
1000.390625,-6.791935,-5.242047,0.972977,-3.647817
1000.394531,-3.706740,-2.385280,-9.346510,-2.499021
1000.398438,0.439876,0.264789,0.244494,3.782237
1000.402344,1.236932,-0.725866,0.091723,0.915139
1000.406250,10.122074,3.321909,6.019266,4.976131
1000.410156,8.002427,-0.190112,15.212200,1.678179
1000.414062,2.662837,1.176885,14.745954,-1.208370
1000.417969,12.217558,11.272009,9.228435,2.962358
1000.421875,7.628746,4.269533,14.561319,12.448411
1000.425781,4.535497,7.613727,6.755023,11.239359
1000.429688,3.473893,9.401121,4.787154,8.754921
1000.433594,4.074377,0.882321,9.741330,9.317224
1000.437500,7.439550,4.496608,5.062871,4.429783
1000.441406,-5.395610,7.798310,4.446220,4.161395
1000.445312,-6.158107,2.859217,0.265517,6.475820
1000.449219,3.350184,-1.008516,4.438714,0.595750
1000.453125,0.187839,2.746638,1.687784,-3.370041
1000.457031,-13.632652,-5.271575,-12.168676,-1.344380
1000.460938,-12.633700,-4.153997,-5.139904,-5.837808
1000.464844,-6.244533,-6.034854,-6.655062,-5.986141
1000.468750,-11.973233,-6.936946,-8.325410,-8.819443
1000.472656,-8.191007,-12.727984,-9.848884,-9.342500
1000.476562,-14.681655,-14.916260,-6.881274,-5.546107
1000.480469,-12.550163,-9.156857,-5.767852,-11.165428
1000.484375,-8.457410,-3.220809,-9.637635,-1.170603
1000.488281,-3.591504,-4.882886,-8.881740,-14.170691
1000.492188,-4.682269,-4.142820,-7.216280,-0.210770
1000.496094,-8.925246,-1.462294,-6.527108,-5.161344
1000.500000,1.320889,-3.031066,-0.152144,1.613253
1000.503906,1.808610,3.568557,4.136022,3.311278
1000.507812,1.199289,4.656520,5.138575,11.278683
1000.511719,10.348761,15.585900,7.057898,0.795336
1000.515625,9.916359,7.212410,9.525132,11.782336
1000.519531,1.851317,2.118989,5.225372,15.253771
1000.523438,8.869732,10.168990,12.191142,10.813229
1000.527344,-0.610291,11.764603,15.322159,10.947033
1000.531250,9.490172,4.593151,12.223848,10.970946
1000.535156,1.397846,9.715193,1.853220,7.667731
1000.539062,15.065202,11.121588,13.235352,4.222179
1000.542969,7.304870,3.332821,5.119641,6.214046
1000.546875,0.054192,1.982903,9.340874,4.655462
1000.550781,-2.756737,-3.015536,-1.242062,-4.008521
1000.554688,-1.369215,-7.042167,2.193220,-1.880895
1000.558594,-1.831329,-1.093438,-6.940488,4.229676
1000.562500,-5.828126,-6.889972,-5.980172,-8.024289
1000.566406,-15.467866,-6.972039,-13.409548,-8.292483
1000.570312,-16.380718,-8.773488,-3.496104,-13.875017
1000.574219,-11.477982,-18.931583,-7.538666,-11.176066
1000.578125,-15.210998,-9.690941,-5.542581,-7.213831
1000.582031,-10.056560,-8.470583,-7.390007,-5.865652
1000.585938,-2.591190,-9.209397,-6.362904,-11.781603
1000.589844,-2.318249,-6.123818,1.217489,-5.041183
1000.593750,-3.372014,-7.519222,-0.420554,1.327976
1000.597656,-3.650918,1.514294,-1.540209,-4.725019
1000.601562,-5.262939,0.926767,-0.371058,0.436550
1000.605469,11.049007,1.188497,3.142893,3.342242
1000.609375,3.711864,3.336749,8.667982,13.489714
1000.613281,4.543736,14.241741,5.663474,5.113997
1000.617188,13.363010,9.028970,5.010722,8.425198
1000.621094,14.153420,6.360631,11.986373,7.107987
1000.625000,4.304922,12.278051,11.986804,11.112452
1000.628906,11.005472,12.048249,5.092367,5.150226
1000.632812,8.916462,3.187437,17.217440,14.541595
1000.636719,9.257284,8.141635,11.021943,13.638447
1000.640625,6.561114,9.586035,4.549792,5.426258
1000.644531,-2.480511,9.942633,6.527703,4.316202
1000.648438,4.457988,6.016210,-6.721620,3.998610
1000.652344,-5.778400,-2.557116,-4.687627,-2.843899
1000.656250,-7.511189,-12.082867,-9.030130,-5.521548
1000.660156,-2.341603,-7.288975,1.281120,-5.783919
1000.664062,-1.108548,-8.634374,-10.769220,-2.871477
1000.667969,-14.686895,-12.527342,-13.477263,-4.229184
1000.671875,-12.271875,-7.175920,-9.542629,-13.722301
1000.675781,-12.853778,-11.546256,-12.021702,-8.324597
1000.679688,-8.919177,-12.329436,-7.192582,-7.511157
1000.683594,-11.996696,-6.781908,-11.661214,-9.392971
1000.687500,-4.801772,-9.429061,-9.107764,-11.168457
1000.691406,5.031766,-1.177375,-3.257553,4.068504
1000.695312,-5.538890,-1.285577,0.917317,-1.405055
1000.699219,-2.953683,2.468423,2.207296,-0.151577
1000.703125,10.592032,-4.657575,6.837425,4.398296
1000.707031,2.386810,7.715646,11.794816,9.629416
1000.710938,6.872208,1.234725,11.980734,3.187620
1000.714844,1.448528,8.024044,6.764947,4.082534
1000.718750,8.755626,8.098263,4.082788,8.829055
1000.722656,3.597885,12.900093,10.375843,11.175379
1000.726562,13.932920,4.131672,2.920762,6.157492
1000.730469,14.533767,11.752092,10.609011,12.601939
1000.734375,6.545819,3.775457,8.205887,7.228720
1000.738281,7.784884,5.730314,3.611519,4.646217
1000.742188,-0.269648,1.970500,-0.332616,-1.739251
1000.746094,-0.887387,4.651539,11.257479,4.620331
1000.750000,-5.920211,-0.721414,3.026973,0.358648
1000.753906,-6.715214,-10.360170,3.150620,-2.072343
1000.757812,-5.029822,-5.273701,0.984990,-3.144554
1000.761719,-6.055485,-6.427580,-8.179663,-6.138801
1000.765625,-8.199930,-13.039737,-4.256474,-9.274073
1000.769531,-4.718029,-11.276326,-6.238524,-7.048630
1000.773438,-10.560481,-14.674352,-0.596711,-6.068577
1000.777344,-9.361798,-7.756400,-8.376650,-7.154871
1000.781250,-8.822111,-7.929031,-13.115523,-3.010131
1000.785156,-8.308775,-8.372825,-9.277699,-8.224523
1000.789062,-2.757091,-7.206359,1.090435,2.361286
1000.792969,-8.926460,-4.869079,-4.586207,-6.791293
1000.796875,-7.252216,1.710938,7.850244,-3.319371
1000.800781,-3.185343,-5.926441,1.317310,4.491517
1000.804688,9.439971,6.193167,0.183933,1.605861
1000.808594,-2.016447,9.383044,5.927175,10.957689
1000.812500,10.765381,6.016766,8.189572,2.644342
1000.816406,4.926749,6.027379,7.562812,15.513941
1000.820312,11.790737,6.610263,1.334514,11.307213
1000.824219,14.758719,13.660664,13.064015,12.913586
1000.828125,10.120625,8.432403,12.798961,6.768871
1000.832031,1.492798,5.401230,8.065678,2.484634
1000.835938,7.600418,2.803624,1.910968,3.443823
1000.839844,6.788267,16.464695,4.115094,0.971047
1000.843750,7.434345,4.171761,12.210089,1.175299
1000.847656,7.994624,-3.246926,8.874599,5.895307
1000.851562,-2.151682,0.398703,-4.551145,-4.860610
1000.855469,-0.649491,-1.355565,-6.455236,-6.581313
1000.859375,-8.975798,-6.565546,0.013451,-1.398139
1000.863281,-16.063936,-3.172126,-12.030070,-5.979198
1000.867188,-10.458953,-0.364437,-3.689740,-7.263191
1000.871094,-10.538452,-3.944534,-10.941211,-15.489019
1000.875000,-10.691367,-8.355298,-12.396865,-10.934554
1000.878906,-5.244583,-5.906620,-17.092559,-5.105478
1000.882812,-3.752225,-3.044826,-1.335128,-13.591808
1000.886719,-14.343969,-11.586987,-8.029639,-6.434313
1000.890625,-2.806566,-10.927454,-0.389010,-3.207564
1000.894531,-12.536894,-2.958596,0.183849,1.418751
1000.898438,-4.310513,1.124072,-0.989341,2.711493
1000.902344,5.151690,3.902461,7.216868,-1.196179
1000.906250,7.597409,3.760050,6.249466,7.970239
1000.910156,8.227798,8.266785,2.600222,11.158619
1000.914062,13.934170,10.738813,7.968807,7.845780
1000.917969,9.985922,6.299393,8.982820,12.946343
1000.921875,15.890616,2.701049,8.358638,11.638036
1000.925781,8.104023,9.617342,12.571705,5.436430
1000.929688,5.167175,7.915379,11.497751,1.604305
1000.933594,12.032604,10.288050,-0.373622,2.380501
1000.937500,1.696576,9.193960,-3.383036,11.558709
1000.941406,1.265175,9.876946,3.045880,5.761568
1000.945312,2.253708,6.737277,5.318739,2.782350
1000.949219,4.513647,2.283276,-0.868216,-4.002427
1000.953125,-3.564676,-0.113221,1.949870,-2.205426
1000.957031,0.358355,-11.828427,-2.958782,-7.470140
1000.960938,-5.864866,-7.341715,-3.791587,-5.279389
1000.964844,-5.280465,-12.211020,-7.312408,-12.719431
1000.968750,-4.784830,-8.281796,-11.464088,-10.108152
1000.972656,-10.895297,-0.764601,-7.254711,-10.020241
1000.976562,-4.028713,-6.366498,-7.870591,-11.122781
1000.980469,-12.022005,-8.808610,-7.844473,-8.327814
1000.984375,-9.659760,-5.113485,-13.084811,-14.160045
1000.988281,-6.765277,-12.897302,-11.463353,-7.691739
1000.992188,-5.814708,-10.879337,0.911195,-5.302117
1000.996094,-4.605325,4.955667,-2.884556,-2.886265
1001.000000,3.904019,-1.175513,2.735210,-3.903089
1001.003906,8.664743,5.123508,0.816456,6.114019
1001.007812,10.348640,2.274997,6.962814,3.254617
1001.011719,3.521815,13.305590,6.108965,0.761484
1001.015625,14.094266,10.186888,9.515652,8.495112
1001.019531,8.535316,16.701765,11.390916,8.615068
1001.023438,11.916508,8.091549,12.187869,9.029339
1001.027344,10.255764,8.695821,11.508194,4.743927
1001.031250,5.525512,8.381791,12.247412,15.360068
1001.035156,15.496179,11.248134,7.046769,8.712565
1001.039062,6.107149,4.873240,-0.102553,0.501057
1001.042969,4.092623,4.208065,-1.789454,8.519209
1001.046875,0.754391,-2.236957,2.644925,3.582595
1001.050781,-0.013903,1.084979,5.350959,2.566756
1001.054688,-2.008376,-10.468358,-5.211603,-6.353557
1001.058594,-4.781838,-3.654703,-6.105593,-5.585017
1001.062500,-6.995572,-10.227175,-5.129165,-10.750956
1001.066406,-15.182493,-6.892329,-1.861182,-7.318303
1001.070312,-12.021596,-9.673586,-9.102183,-11.849218
1001.074219,-14.349164,-7.918205,-11.138509,-1.485170
1001.078125,-12.922284,-8.617706,-5.772391,-13.951918
1001.082031,-3.146820,-9.780689,-6.348076,-5.838702
1001.085938,-1.313794,-8.802072,-9.115308,-9.461953
1001.089844,-2.041473,-1.021902,1.732563,-6.412830
1001.093750,-1.848519,-7.495182,2.214782,-1.743517
1001.097656,4.933715,-4.017236,-0.927185,-0.708726
1001.101562,5.884335,7.947482,-3.805703,-1.767977
1001.105469,5.361447,-4.870516,1.445033,4.322333
1001.109375,6.394047,5.571977,5.619497,10.666082
1001.113281,9.284461,10.617016,11.683593,6.031090
1001.117188,3.526295,8.408937,14.376639,7.547367
1001.121094,6.205284,13.318329,8.942541,4.934347
1001.125000,12.383722,8.603017,6.331017,13.935225
1001.128906,8.443030,13.428036,11.364938,8.274594
1001.132812,17.981982,6.856615,8.319360,11.674993
1001.136719,6.513673,4.675655,2.068225,7.260230
1001.140625,13.716644,3.541665,8.135519,1.220692
1001.144531,2.751779,1.361970,-1.763994,1.578393
1001.148438,-0.408199,-3.683424,-4.493945,-2.689394
1001.152344,1.258648,-0.494767,0.532049,3.834373
1001.156250,-12.484963,0.822387,-2.816315,-7.995019
1001.160156,-5.012769,-4.902608,-2.201606,-6.780082
1001.164062,-11.661581,-9.801882,-14.660564,-9.181046
1001.167969,-13.121723,-11.851756,-10.070806,-10.104401
1001.171875,-11.783735,-4.442168,-3.312567,-6.646684
1001.175781,0.186295,-7.503850,0.156108,-7.860250
1001.179688,-7.785748,-18.671606,-18.280686,-3.966067
1001.183594,-10.619983,-5.898181,-15.446298,-4.382534
1001.187500,-8.309874,-7.849550,-4.488357,-4.347409
1001.191406,-5.733142,-3.952126,2.316011,-3.984447
1001.195312,-5.241090,-2.499904,3.460860,-3.294684
1001.199219,-2.389237,-1.312227,-1.513640,0.107708
1001.203125,1.826460,4.518100,-2.176447,-9.255362
1001.207031,2.561060,0.638383,5.645661,3.293938
1001.210938,6.196336,3.161100,3.941868,5.509633
1001.214844,4.330127,2.985225,8.470670,3.291554
1001.218750,9.888211,12.969144,12.788524,16.199045
1001.222656,6.702799,7.549702,11.127983,18.204499
1001.226562,12.632173,10.366635,14.419423,13.837691
1001.230469,9.088888,11.608951,9.377019,13.603318
1001.234375,9.032193,7.689361,8.807344,5.526946
1001.238281,12.310154,3.865646,2.101568,9.521485
1001.242188,4.123894,15.358788,3.261855,13.986081
1001.246094,-2.275800,8.091671,8.907210,4.578855
1001.250000,-9.976487,3.611276,-3.478385,5.388609
1001.253906,-6.929030,3.885595,0.405069,-2.149009
1001.257812,-6.569243,-3.726775,-5.498961,-8.869355
1001.261719,-1.625581,-0.483064,-8.363764,-7.431662
1001.265625,-14.260959,-5.209940,-10.625053,-11.978469
1001.269531,-8.008935,-7.046344,-13.628139,-12.878539
1001.273438,-5.805025,1.527384,-14.737583,-17.320928
1001.277344,-4.124147,-11.547136,-14.311837,-10.611592
1001.281250,-3.817590,-9.979847,-6.209938,-9.452092
1001.285156,-8.757919,-9.710353,-5.701502,-7.276376
1001.289062,-4.868815,-0.194384,-10.444431,-9.947664
1001.292969,-0.516946,-8.728747,2.258092,-6.865299
1001.296875,-0.655222,-2.124416,-4.861512,-7.556263
1001.300781,-0.117157,4.236425,-0.387306,2.543521
1001.304688,-2.567343,7.114802,4.382018,-0.097670
1001.308594,8.325353,4.212494,5.276698,6.028975
1001.312500,4.994449,0.942085,14.191085,17.074022
1001.316406,6.365232,3.963262,5.328498,5.120334
1001.320312,8.623192,8.598082,6.656190,-0.891735
1001.324219,4.204642,2.301566,12.640448,10.643261
1001.328125,22.989668,4.452818,14.328984,8.937561
1001.332031,14.938857,8.479425,10.624528,12.943184
1001.335938,11.852626,14.843073,5.091602,13.094549
1001.339844,5.883858,4.535187,1.030893,-0.577791
1001.343750,3.219757,-1.385087,15.979134,2.676022
1001.347656,-4.541875,4.082657,-0.263065,0.364944
1001.351562,4.099136,-5.426483,-7.650797,-6.785847
1001.355469,-5.858125,1.213387,7.752446,-3.679902
1001.359375,-3.453149,-4.593077,-7.608862,-2.751768
1001.363281,-8.674924,-10.923022,-5.846602,-2.445939
1001.367188,-7.972491,-10.216372,-8.504378,-9.086168
1001.371094,-13.230827,-15.354794,-15.242184,-4.471480
1001.375000,-11.776192,-11.376245,-10.380483,-12.339520
1001.378906,-12.513345,-8.374159,-9.615358,-1.249376
1001.382812,-10.970530,-8.441575,-10.988011,-6.461594
1001.386719,-6.863026,-10.687612,-10.870216,-6.680093
1001.390625,-9.368136,-11.016216,-7.180601,-4.268426
1001.394531,-4.391294,-1.999804,-3.018162,3.912627
1001.398438,-6.213876,-2.436223,-0.946506,-9.466041
1001.402344,-1.890834,1.487368,-0.494937,2.515331
1001.406250,4.177081,4.892607,-0.547885,6.753203
1001.410156,-1.115577,2.640380,8.802415,4.296006
1001.414062,8.945317,9.160797,6.277788,5.892979
1001.417969,7.419197,9.241357,16.132577,10.495029
1001.421875,11.917946,2.753678,2.363539,9.494670
1001.425781,21.792655,14.299513,5.536287,5.460801
1001.429688,5.775954,5.607775,7.568268,14.529777
1001.433594,2.521159,7.239920,9.136767,6.401549
1001.437500,6.266707,15.267186,2.672447,10.314982
1001.441406,-2.108811,-0.821076,7.054800,6.662382
1001.445312,-0.704380,1.039611,2.103116,4.567899
1001.449219,4.087971,-5.177862,-0.119439,-0.197614
1001.453125,-4.052621,-6.303470,-8.247756,2.122791
1001.457031,-0.336488,5.212580,-3.391812,-6.259990
1001.460938,-2.446720,-6.698282,-13.159299,-7.916182
1001.464844,-13.674644,-8.966921,-15.143222,-3.994108
1001.468750,-6.265566,-12.660582,-20.376135,-7.197725
1001.472656,-15.973427,-8.033521,-8.412452,-6.328353
1001.476562,-16.126116,-13.255328,-6.264510,-11.042183
1001.480469,-8.514606,-7.409057,-4.936523,-13.117140
1001.484375,-12.280770,-11.825069,-8.043819,-5.132462
1001.488281,-10.015772,-8.828228,-0.832765,-11.102038
1001.492188,-5.221248,-9.014492,-4.627250,-1.186173
1001.496094,-0.444309,-10.064422,-2.962168,2.923859
1001.500000,1.008793,-1.789706,-3.559288,-4.421880
1001.503906,7.858866,-1.825846,6.674395,5.014052
1001.507812,-1.977041,-1.162211,-3.825960,-2.298143
1001.511719,5.272437,6.575648,7.577000,17.930910
1001.515625,9.445313,2.170372,8.094092,6.705957
1001.519531,9.346986,4.315488,9.988504,9.069830
1001.523438,16.498408,14.631216,10.636400,10.028192
1001.527344,13.267020,13.729390,13.762378,9.613368
1001.531250,15.320255,12.776564,8.812578,5.977926
1001.535156,5.147084,7.854210,8.038927,9.110493
1001.539062,7.429072,7.771781,9.601082,14.388407
1001.542969,9.730854,8.180121,0.181009,7.335994
1001.546875,4.989519,-2.187278,-2.853894,4.890879
1001.550781,3.078769,1.715067,6.395971,-6.731622
1001.554688,0.721956,-1.506956,5.766685,-4.155994
1001.558594,0.500791,-6.380164,-6.906542,-6.434962
1001.562500,-13.578509,-3.730192,-12.467186,-6.050082
1001.566406,-4.710670,-11.804627,-8.338847,-6.158760
1001.570312,-11.596864,-3.939327,-11.056469,-7.821047
1001.574219,-8.302637,-10.089205,-11.564684,-10.357435
1001.578125,-4.752613,-10.833451,-10.383007,-4.531273
1001.582031,-8.091042,-9.591855,-9.440876,-6.282761
1001.585938,-6.947502,-8.985362,-5.079073,-6.859074
1001.589844,-8.339355,-16.041553,-10.027809,-12.005585
1001.593750,-7.587813,0.854849,-0.645673,-5.668284
1001.597656,-4.702049,-6.399304,-0.735488,3.415478
1001.601562,-1.936922,1.779293,2.292289,1.493179
1001.605469,0.267511,3.903595,7.066709,3.166677
1001.609375,3.276479,7.691003,-5.070035,6.530379
1001.613281,6.089208,4.307470,5.521022,14.543081
1001.617188,8.556059,10.939049,13.286133,16.284608
1001.621094,7.071260,4.575059,8.641233,4.698857
1001.625000,3.942276,14.026815,11.897126,13.823811
1001.628906,12.957780,14.981775,13.005631,23.366664
1001.632812,6.655694,18.834430,15.199531,13.790143
1001.636719,10.373476,7.853658,7.230714,3.832909
1001.640625,8.890835,7.114928,5.210649,9.184919
1001.644531,-3.241379,2.119170,3.170455,-0.701201
1001.648438,0.129632,-1.751600,-0.697945,-4.393031
1001.652344,0.447709,-4.092861,-4.174798,-4.300364
1001.656250,-2.117554,-10.721039,-3.519476,-7.592049
1001.660156,3.318235,-7.396171,-11.158784,-1.496269
1001.664062,-9.914702,-6.889732,-8.580013,-3.661447
1001.667969,-12.057467,-7.508892,-10.949260,-2.607463
1001.671875,-9.977712,-15.196212,-6.792417,-13.837326
1001.675781,-7.716076,-4.436683,-10.865954,-9.145222
1001.679688,-9.294325,-11.926066,-13.356638,-12.950838
1001.683594,-6.936398,-5.387731,3.082026,-6.339117
1001.687500,-12.634440,-4.723562,-10.566148,-9.394194
1001.691406,-0.812161,1.094852,-1.438640,-10.756594
1001.695312,-1.498209,-11.208511,-9.629610,-7.294849
1001.699219,0.114966,-3.601159,3.534026,3.710991
1001.703125,4.168776,-2.866571,-4.044865,-0.982615
1001.707031,1.067039,9.390869,10.199689,3.749605
1001.710938,10.647040,-6.578542,16.451754,4.745642
1001.714844,3.867378,11.877414,1.205353,6.724395
1001.718750,8.905399,7.109258,11.756200,9.080213
1001.722656,3.378725,14.952070,3.535386,10.288275
1001.726562,14.843348,18.106969,6.405523,12.367359
1001.730469,16.446046,12.253205,3.374491,16.600794
1001.734375,10.571791,7.875255,10.642421,2.271921
1001.738281,5.764589,7.978286,3.347675,4.487647
1001.742188,-0.845279,12.961305,-0.583877,1.435592
1001.746094,2.239240,9.243262,10.292273,8.952610
1001.750000,-2.058069,0.450777,-4.163473,4.453316
1001.753906,0.643178,-8.882056,-7.810780,-1.884702
1001.757812,-5.938231,-10.427297,-1.293237,-2.950236
1001.761719,-7.228162,-6.256064,-2.002782,-11.444556
1001.765625,-14.009023,-4.372019,-6.765999,-16.544480
1001.769531,1.324137,-19.528314,-7.897395,-15.814221
1001.773438,-8.626580,-8.390436,-11.872353,-11.362440
1001.777344,-11.550910,-3.599087,-7.288228,-2.460051
1001.781250,-12.115172,-6.274194,-9.366810,-12.304020
1001.785156,-1.555172,-7.024070,-7.461034,-11.934711
1001.789062,-1.501050,-4.827702,-4.947351,-4.839647
1001.792969,-4.752306,-6.675260,-3.976102,-12.658264
1001.796875,1.477960,0.087581,6.231199,-0.964688
1001.800781,10.365108,-2.032084,0.708548,3.130681
1001.804688,4.570293,2.292551,-0.105228,0.364220
1001.808594,3.699832,0.834851,1.445375,2.352487
1001.812500,11.928594,6.591849,-2.326877,13.849269
1001.816406,15.768914,11.374327,12.233575,9.533677
1001.820312,10.198076,8.059946,11.547670,8.974523
1001.824219,6.909274,7.724802,10.338499,14.443876
1001.828125,9.325056,7.029552,14.567841,12.607451
1001.832031,8.957811,4.417259,6.730716,6.678197
1001.835938,10.040960,4.761243,18.559860,13.679196
1001.839844,4.781765,11.173039,-3.166246,6.777938
1001.843750,-0.767921,2.641037,-2.665333,3.737754
1001.847656,3.363017,-0.814011,2.353128,-1.934549
1001.851562,-11.320595,5.463499,1.746781,0.561783
1001.855469,-4.138691,-2.652642,-9.378481,-4.435760
1001.859375,-0.199263,-4.757412,-6.904550,-15.726427
1001.863281,-9.357254,-8.170858,-8.441358,-0.439986
1001.867188,-8.164059,-15.139620,-6.604839,-13.232302
1001.871094,-0.543420,-11.670031,-10.869120,-8.377379
1001.875000,-10.257785,-8.534174,-11.809599,-10.487309
1001.878906,-7.545748,-16.928092,-18.240707,-11.661928
1001.882812,-12.742750,-11.337948,-11.506749,-7.128166
1001.886719,-6.356272,-15.888098,-4.168210,-12.655897
1001.890625,-5.851988,-2.999933,-0.073671,-0.527983
1001.894531,-2.814315,-8.040646,-4.385115,8.594225
1001.898438,2.992719,-2.283895,-9.025713,-6.084625
1001.902344,-1.359467,2.923576,5.045016,7.952715
1001.906250,3.764323,-1.009922,7.330551,2.878371
1001.910156,5.313409,-3.922897,10.288895,8.113315
1001.914062,11.137366,8.978319,12.971913,11.092617
1001.917969,9.306161,-3.387548,10.965397,11.986020
1001.921875,8.046876,11.969189,9.973893,8.275852
1001.925781,6.847896,4.776140,2.967892,4.886317
1001.929688,10.134465,11.918604,6.714024,15.929199
1001.933594,3.537410,8.809065,12.145684,8.617487
1001.937500,6.347866,4.139756,2.740624,12.238815
1001.941406,6.261574,-0.666769,7.889952,12.480286
1001.945312,-5.506660,7.716846,5.755389,-1.635631
1001.949219,3.868104,7.255309,5.660236,-6.044616
1001.953125,1.062869,-7.504502,-0.001672,7.478805
1001.957031,-5.233607,4.552467,-12.104411,-3.225967
1001.960938,-2.003599,-7.282136,-7.569696,-7.216372
1001.964844,-8.455685,0.170611,-5.554275,0.987544
1001.968750,-11.418054,-10.757885,-5.714939,-11.015767
1001.972656,-3.058325,-13.029811,-8.936619,-12.092861
1001.976562,-10.358772,-2.225047,-18.367314,-13.981106
1001.980469,-6.662529,-7.440757,-12.569881,-5.106415
1001.984375,-8.083905,-10.206964,-8.714763,-14.291084
1001.988281,-5.982185,-3.213548,-5.067293,-1.052168
1001.992188,-5.922682,-5.086058,-5.193899,-2.444891
1001.996094,-0.662648,1.713748,0.654171,0.411772
1002.000000,-2.836144,3.652505,-2.739969,-2.215098
1002.003906,1.798812,-0.746274,2.539563,-0.387953
1002.007812,6.534110,4.166354,14.110377,6.105385
1002.011719,9.665744,-1.283594,5.626081,5.560565
1002.015625,4.128606,10.836666,2.410484,7.260846
1002.019531,3.446221,4.787414,12.627884,10.599608
1002.023438,6.989160,19.343366,14.622024,5.478021
1002.027344,9.933354,11.164658,9.922582,10.748889
1002.031250,4.465712,9.129648,11.625398,10.813696
1002.035156,13.880671,6.504183,1.392290,14.462088
1002.039062,5.512047,-5.631577,6.117454,6.425763
1002.042969,7.446813,3.162421,3.926512,2.786122
1002.046875,7.869312,-6.003276,-2.413857,8.732346
1002.050781,-0.737935,-5.245236,1.273218,5.617005
1002.054688,-2.306192,-12.239100,-2.174786,-4.254324
1002.058594,-5.587829,-10.207801,-5.574198,-0.773437
1002.062500,-2.590609,-7.548260,-9.186775,-7.206900
1002.066406,-10.595418,-12.895756,-10.748332,-8.779656
1002.070312,-7.008657,-10.208485,-17.297755,-17.182527
1002.074219,-10.093421,-9.284140,-13.096660,-0.911986
1002.078125,-10.714430,-10.951928,-13.215345,-5.056893
1002.082031,-4.683531,-10.817950,-17.286112,-8.595475
1002.085938,-8.507964,-8.937300,-12.290422,-8.222441
1002.089844,-11.333806,-4.657417,-3.422336,-13.364398
1002.093750,-4.414423,-1.692317,-0.245331,-5.044521
1002.097656,2.380386,-4.777350,0.384904,3.712958
1002.101562,8.597390,9.600266,5.115938,6.274864
1002.105469,1.543400,-3.077131,0.660465,4.005489
1002.109375,-0.847097,9.333148,1.552157,7.655671
1002.113281,3.840807,4.522212,10.601346,6.896903
1002.117188,10.177042,8.582869,7.037595,5.593808
1002.121094,-1.122314,10.853318,7.242357,1.101768
1002.125000,9.841407,10.176355,8.245136,10.167827
1002.128906,12.487076,6.427840,5.873983,12.931680
1002.132812,5.409670,7.264512,8.516043,5.386719
1002.136719,14.446364,5.635827,9.224860,0.616093
1002.140625,-0.386244,17.253739,3.482945,4.772104
1002.144531,6.369821,4.254191,3.118102,-2.713217
1002.148438,-1.106117,-0.775660,-1.173531,-2.715462
1002.152344,3.768368,-4.673151,-0.036842,3.573616
1002.156250,-5.289864,0.386878,-2.979300,-5.996333
1002.160156,-7.920909,-1.142926,-2.993292,-10.352827
1002.164062,-16.114440,-9.836488,-0.346714,-5.105373
1002.167969,-13.034326,-19.839125,-13.657412,-11.386228
1002.171875,-18.200659,-13.584246,-9.651239,-11.136332
1002.175781,-19.146823,-12.781028,-8.364927,-13.150128
1002.179688,-4.462324,-11.739511,-5.077205,-11.657469
1002.183594,-11.950282,-1.333513,-17.564809,-10.133530
1002.187500,-9.249339,-3.755585,-4.908918,-9.900745
1002.191406,-2.726412,-3.009118,-7.407717,-3.183555
1002.195312,-1.264307,-6.285048,-1.717153,-6.419708
1002.199219,-6.325527,-8.251538,-2.210313,0.276690
1002.203125,-1.954303,2.634273,-2.295269,6.323868
1002.207031,5.549393,2.847177,-2.379204,3.986198
1002.210938,8.425011,7.622170,6.229947,7.091499
1002.214844,13.211190,5.619605,7.112972,6.555760
1002.218750,12.804333,6.783751,9.766251,3.802127
1002.222656,10.074468,5.142008,14.681336,10.909092
1002.226562,9.300173,10.988805,13.725876,5.479700
1002.230469,3.249215,2.956080,11.936657,11.622242
1002.234375,13.535768,5.751859,0.665807,13.533550
1002.238281,-1.284817,2.100078,9.298297,7.503893
1002.242188,15.338536,5.146321,9.437357,6.890196
1002.246094,2.512623,2.224848,5.098975,1.022498
1002.250000,-1.364109,-6.867254,4.741145,-2.451631
1002.253906,-1.798824,-2.659732,-4.128925,-0.411044
1002.257812,-2.635345,-11.427270,-6.186874,0.006804
1002.261719,-0.953906,-9.631072,-0.662555,-10.938344
1002.265625,-13.785918,-14.347706,-2.722294,-13.630877
1002.269531,-10.836699,-0.539388,-0.579168,-16.433996
1002.273438,-10.574379,-13.152695,-6.675469,-8.078941
1002.277344,-7.971495,-5.613990,-8.241018,-9.549488
1002.281250,-14.431888,-7.199726,-2.355821,-7.831461
1002.285156,-11.244139,-14.170849,-9.135418,-16.508913
1002.289062,-6.664015,-13.319195,-14.246033,-9.663209
1002.292969,-0.506073,-2.860272,-9.609371,-3.331896
1002.296875,-4.990146,5.494620,-4.145802,-1.921463
1002.300781,5.394063,-3.855007,-3.592018,-1.471022
1002.304688,-2.068299,12.447030,2.528657,-4.273916
1002.308594,5.203676,10.212982,6.843665,9.216703
1002.312500,6.619106,15.084872,11.504548,7.956508
1002.316406,13.581796,10.797216,7.985012,12.232625
1002.320312,6.925259,11.211348,12.048383,18.410334
1002.324219,4.628019,9.135547,10.116036,8.800561
1002.328125,11.033630,7.509268,5.013471,3.717210
1002.332031,4.894389,4.896037,10.498721,5.199184
1002.335938,6.885424,4.786782,4.132823,9.014046
1002.339844,0.299912,9.748046,1.924371,7.370823
1002.343750,-3.211217,3.518366,1.329383,7.561475
1002.347656,7.693265,1.377504,0.294264,6.409908
1002.351562,1.754104,-9.137315,-5.402121,-4.352121
1002.355469,-8.088875,-5.147436,-3.677142,-18.223908
1002.359375,-9.486373,-1.361125,-3.262641,-5.912929
1002.363281,-7.678488,-0.679717,-15.224617,-5.968532
1002.367188,-5.854333,-1.253264,-9.048370,-9.537800
1002.371094,-6.418461,-6.574835,-7.708182,-10.296313
1002.375000,-2.200792,-13.575483,-5.873759,-10.949636
1002.378906,-12.740393,-4.990659,-10.408593,-12.550825
1002.382812,-6.829876,-16.403554,-2.608614,-11.594705
1002.386719,-8.939819,-10.715701,-8.809378,-16.163438
1002.390625,-2.535862,-1.403065,-1.449362,-5.673157
1002.394531,-7.650322,-0.822240,-4.190050,-5.353252
1002.398438,-2.563447,-2.073281,-1.007846,-9.674901
1002.402344,5.207238,6.475639,-3.989596,-2.004580
1002.406250,4.976947,4.357868,1.405274,4.342468
1002.410156,1.340463,4.636047,0.301303,10.836092
1002.414062,4.353571,5.280356,9.697237,10.411475
1002.417969,4.341772,7.355374,8.249673,16.276040
1002.421875,6.200454,11.943820,10.329475,5.860607
1002.425781,7.592057,7.969243,15.472458,12.624479
1002.429688,10.951100,6.808541,10.777925,13.269796
1002.433594,6.356234,7.803800,6.567965,9.608088
1002.437500,11.063173,3.137500,2.875493,6.218268
1002.441406,1.873105,0.778041,10.079887,4.112469
1002.445312,5.705850,9.064425,-2.220109,-2.427179
1002.449219,4.558317,-0.176841,2.660393,-1.883024
1002.453125,-2.833348,-2.678727,4.282037,-1.396167
1002.457031,-6.411712,-13.902582,-2.263723,-3.236060
1002.460938,-6.913908,-7.189771,-7.165154,-6.027792
1002.464844,0.274299,-7.961023,-8.982587,-2.347189
1002.468750,-8.238603,-16.252178,-6.121235,-10.120892
1002.472656,-15.459040,-2.079705,-13.398143,-12.893928
1002.476562,-11.222986,-13.858410,-7.636180,-9.512111
1002.480469,-3.037633,-9.503342,-13.351003,-6.658798
1002.484375,-6.222454,-11.926293,-5.065049,-13.677669
1002.488281,-5.612101,-5.873528,-6.990399,-8.017037
1002.492188,-10.732921,-4.847573,-0.929130,-5.277743
1002.496094,-8.194700,4.110351,-3.223607,-7.216076
1002.500000,1.245004,-3.246491,-1.290462,5.771810
1002.503906,9.030635,0.421895,3.267577,8.101908
1002.507812,2.208303,5.737253,7.008782,-0.431457
1002.511719,5.799970,5.101926,11.917574,14.439046
1002.515625,0.626342,11.871913,13.679330,12.857066
1002.519531,4.658872,5.020858,9.338262,10.890161
1002.523438,9.537226,13.125373,16.713234,14.522648
1002.527344,12.340159,12.679365,11.157665,14.498348
1002.531250,13.723762,8.948553,3.016806,9.537358
1002.535156,6.198925,13.716171,13.865471,11.749762
1002.539062,6.107232,8.415724,8.560241,5.731507
1002.542969,2.872408,5.394138,5.279027,-1.319303
1002.546875,3.427109,3.656347,1.128777,0.505682
1002.550781,7.472018,-0.995200,-2.655472,-1.708666
1002.554688,0.903088,2.541544,-1.355496,-9.580730
1002.558594,-6.935332,-0.067263,-8.515050,-4.218227
1002.562500,-6.367462,-10.597770,-14.290719,-3.073357
1002.566406,-5.361837,-10.070657,-3.926704,-9.402937
1002.570312,-10.473447,-16.298869,-11.986965,-11.405892
1002.574219,-11.722406,-15.446125,-11.680687,-16.889653
1002.578125,-6.060550,-5.943066,-5.169130,-7.702753
1002.582031,-7.006364,-13.414477,-7.894515,-1.447875
1002.585938,-4.953806,-17.519560,-7.814942,-7.091974
1002.589844,-5.299721,-3.919828,-10.430895,-6.738983
1002.593750,-8.613580,-0.775621,-1.482567,3.379415
1002.597656,-5.087146,2.277109,1.445034,2.270490
1002.601562,0.841999,0.654381,0.464091,6.991799
1002.605469,-4.416424,6.100391,-1.617263,4.927148
1002.609375,1.792552,0.672444,4.303774,7.648239
1002.613281,-0.516379,8.553560,2.756472,3.781569
1002.617188,9.145038,6.951906,3.344924,14.286448
1002.621094,8.278501,13.671161,15.722587,12.120164
1002.625000,8.855483,12.191377,12.839220,13.371305
1002.628906,8.614981,10.180735,8.689208,13.713116
1002.632812,11.163760,9.404607,9.455398,13.936572
1002.636719,10.864411,7.584870,7.031836,8.325459
1002.640625,6.734133,12.460517,-0.758191,8.085366
1002.644531,5.793948,-0.446607,3.454336,11.000653
1002.648438,2.506303,5.127815,4.205559,4.491974
1002.652344,0.140076,-2.770581,-1.221473,-4.697567
1002.656250,-3.128441,-0.352078,-3.355212,-3.131835
1002.660156,-6.041728,-5.163667,-7.144689,-3.195316
1002.664062,-3.555354,0.027271,-9.064711,-5.787703
1002.667969,-9.444663,-11.077130,-3.721943,-5.022079
1002.671875,-13.604654,-9.615306,-3.256079,-1.396729
1002.675781,-8.114931,-15.252696,-14.674219,-4.374363
1002.679688,-11.382296,-4.179514,-16.050590,-10.258537
1002.683594,-2.383571,-7.690199,-7.020509,1.230282
1002.687500,-8.635943,-6.815556,-5.430692,-3.002623
1002.691406,-3.832139,-7.697763,-6.946789,-6.279149
1002.695312,-8.095800,3.956612,-3.364880,-7.217160
1002.699219,2.626801,-2.177788,-0.698214,-3.951252
1002.703125,5.159051,-2.843122,-2.807203,4.875461
1002.707031,6.448036,-1.820333,8.058701,4.220530
1002.710938,1.262559,6.288822,11.598896,6.537258
1002.714844,4.817902,10.912039,5.356687,1.324647
1002.718750,7.833706,12.451150,9.372015,6.422681
1002.722656,10.028858,5.696222,12.146532,9.395336
1002.726562,6.058155,13.117888,14.133090,11.846310
1002.730469,11.758331,13.046778,8.456961,5.332789
1002.734375,10.677787,7.960785,7.811188,8.957239
1002.738281,-0.775748,9.764087,3.509257,-0.330962
1002.742188,8.652138,5.314306,-2.094877,4.281543
1002.746094,13.004368,3.856433,2.344521,1.610087
1002.750000,3.226330,-3.133868,-1.691505,0.487228
1002.753906,-0.059101,-1.021182,-2.847491,0.052204
1002.757812,-0.556785,-10.789527,-12.105746,-4.297597
1002.761719,-8.384132,-9.125252,-7.178059,-5.303046
1002.765625,-8.116123,-9.257964,-13.185983,-10.964394
1002.769531,-8.392918,-4.351730,-16.191969,-8.664634
1002.773438,-6.100251,-3.869500,-19.575204,-12.649491
1002.777344,-11.747163,-13.871266,-10.732549,-8.071683
1002.781250,-10.019520,-6.283260,-7.853127,-13.344171
1002.785156,-8.358475,-9.583972,-8.964126,-3.408128
1002.789062,-0.832179,-13.157998,-1.474698,-4.021673
1002.792969,3.977510,-6.287919,-9.563648,-4.982990
1002.796875,-3.793379,-1.068010,-11.453882,4.010456
1002.800781,-0.240082,0.638131,5.009458,5.026658
1002.804688,5.573427,6.306705,0.979235,10.912078
1002.808594,5.167932,3.586817,2.936844,2.876739
1002.812500,-4.617651,6.245459,8.478327,6.413915
1002.816406,7.979409,15.590750,13.989981,14.542080
1002.820312,15.834821,9.546764,6.233183,11.720155
1002.824219,6.103144,13.815912,10.050605,13.504966
1002.828125,8.718056,11.956033,16.417409,14.513572
1002.832031,11.002642,9.028058,8.851930,9.618069
1002.835938,5.106041,11.838322,14.514275,14.885975
1002.839844,3.211647,5.867605,1.560749,9.563687
1002.843750,2.508688,3.090005,1.321711,-6.045492
1002.847656,-1.688990,10.078338,0.776989,6.020547
1002.851562,-0.326737,4.283994,-1.587927,3.768705
1002.855469,-2.609185,-7.438833,0.129495,1.238696
1002.859375,0.120873,-0.762742,-3.745973,-4.288729
1002.863281,-9.667784,-13.444464,-8.699399,-1.482968
1002.867188,-9.873568,-3.973376,-13.840936,2.678844
1002.871094,-12.838830,-1.619705,-7.517787,-9.124228
1002.875000,-4.721668,-3.413022,-9.089567,-14.665976
1002.878906,-16.353059,-10.963171,2.036073,-14.007625
1002.882812,-15.489614,-11.906848,-2.861068,-13.606986
1002.886719,-14.905167,-3.556404,-11.613701,-9.284692
1002.890625,-12.708006,-4.583582,-4.167350,-4.327555
1002.894531,-6.830683,1.173172,-6.684197,-3.674978
1002.898438,-1.543310,-3.519842,-3.957120,-0.872512
1002.902344,-10.354099,-2.216541,3.653869,1.933495
1002.906250,1.560354,0.790334,3.148772,3.802614
1002.910156,10.224405,12.628647,2.658499,6.059162
1002.914062,15.291357,2.962601,7.531172,5.704658
1002.917969,11.396831,6.232141,3.335526,-0.806009
1002.921875,14.286202,10.392129,3.624974,13.745628
1002.925781,13.264294,11.212564,10.022858,13.938527
1002.929688,11.175864,8.269898,12.038964,0.428626
1002.933594,9.183773,8.008824,8.279686,11.291607
1002.937500,5.668691,7.307686,6.401363,4.582158
1002.941406,2.430408,5.893296,0.516075,7.855814
1002.945312,2.305218,-1.423757,4.835700,4.006976
1002.949219,4.888869,-2.643851,-2.262044,1.065520
1002.953125,-2.891703,-2.750479,5.144333,-2.866277
1002.957031,-3.441026,-2.786809,-1.377807,-2.073573
1002.960938,1.672674,-3.925956,-13.205390,-9.163205
1002.964844,-8.612153,-5.380309,-10.358025,-10.927375
1002.968750,-13.401974,-7.147324,-10.038615,-6.365420
1002.972656,-4.084299,-12.330175,-16.116632,-11.968294
1002.976562,-8.147063,-12.297487,-15.665683,-9.700468
1002.980469,-9.347013,-6.607398,-13.051175,-13.718336
1002.984375,-4.599898,-5.631253,-9.911759,-6.142858
1002.988281,-8.485930,-4.832043,-6.301388,-6.968234
1002.992188,-9.325836,-1.331002,-4.572794,-14.921582
1002.996094,-9.778291,-6.130712,-8.201871,-5.314140
1003.000000,-2.567539,-3.202599,-0.532746,0.375809
1003.003906,4.427557,2.718834,1.565665,9.250234
1003.007812,2.538977,6.652477,-3.265304,5.686047
1003.011719,6.603765,1.806294,0.244989,10.383441
1003.015625,10.176579,10.449122,10.195713,15.560268
1003.019531,8.163815,10.159425,6.494136,8.592329
1003.023438,10.775309,10.892794,10.096288,-2.635854
1003.027344,6.999525,7.168430,3.256296,14.676982
1003.031250,17.260700,6.915724,12.661388,5.793670
1003.035156,13.370736,5.560842,9.534962,10.010583
1003.039062,7.408938,-1.270210,4.715264,4.643432
1003.042969,-4.802291,8.739254,2.001169,4.003645
1003.046875,-4.666670,7.625963,4.623618,5.013439
1003.050781,1.850741,-5.242008,-8.468191,-5.324173
1003.054688,-2.746644,-2.142862,-2.834013,-0.388679
1003.058594,-6.282558,2.315406,0.917561,4.004500
1003.062500,-9.405471,-9.252463,-9.430778,-4.945467
1003.066406,-8.708381,-13.657762,-3.788456,-4.483413
1003.070312,-10.629726,-5.847914,-7.485181,-12.408875
1003.074219,-11.976470,-13.077326,-14.799181,-19.575885
1003.078125,-12.218147,-9.959778,-4.126057,-12.162775
1003.082031,-12.627040,-16.404855,-1.491397,-7.894547
1003.085938,-11.181842,-13.691220,-14.812472,-8.851882
1003.089844,1.003523,-1.632825,-4.974084,-4.267113
1003.093750,-3.491611,-0.852525,0.880425,-6.838664
1003.097656,-3.389016,-7.247484,-9.698873,1.192070
1003.101562,6.832644,9.491252,-3.850002,-3.663523
1003.105469,-2.209742,6.803586,6.235062,4.715559
1003.109375,8.019884,7.951864,6.316118,-2.683254
1003.113281,0.161554,6.096694,1.493283,5.385240
1003.117188,3.688640,13.076075,9.432281,7.500337
1003.121094,8.829035,10.418088,7.127283,5.875172
1003.125000,7.351770,15.997470,8.014008,5.113582
1003.128906,11.264172,14.409889,13.014354,6.153299
1003.132812,3.258233,7.870970,12.223987,13.644322
1003.136719,7.352015,14.676154,2.614945,7.680993
1003.140625,4.439282,3.007872,5.242704,12.338210
1003.144531,-4.389805,1.204290,4.177160,5.012369
1003.148438,2.927236,-0.092977,-0.860717,6.623918
1003.152344,-8.033115,-10.500090,-5.777530,-7.447328
1003.156250,-0.151904,-1.048755,-8.399355,-1.753809
1003.160156,-9.773757,-12.172448,-6.580785,-10.261665
1003.164062,-6.498755,-14.829180,-7.227794,-11.309683
1003.167969,-5.094898,-8.688834,-5.806148,-10.895092
1003.171875,-15.328796,-10.340734,-13.853486,-19.323834
1003.175781,-12.341259,-9.250329,-17.286170,-10.750395
1003.179688,-8.348512,-5.974933,-6.704326,-9.400604
1003.183594,-11.986307,-6.026719,-7.166777,-12.246659
1003.187500,-4.083358,-4.198060,-0.314676,-4.132069
1003.191406,-2.083743,-5.654234,-3.495276,-8.367259
1003.195312,-4.239586,-4.689659,2.584333,-10.958589
1003.199219,-4.779962,0.720704,-1.404009,-2.937915
1003.203125,3.083504,0.795144,7.141905,3.165567
1003.207031,3.741835,-4.224871,6.354201,1.757286
1003.210938,11.583755,8.155298,5.439922,5.646381
1003.214844,5.311009,10.425649,6.544116,1.062668
1003.218750,5.715618,11.143585,7.810393,7.813798
1003.222656,6.755975,15.054938,10.724309,3.724268
1003.226562,8.127000,9.837113,9.808555,8.471960
1003.230469,10.961201,17.816844,13.618359,3.280496
1003.234375,8.713472,9.961212,7.665837,12.794152
1003.238281,6.697035,8.813190,2.946424,6.790076
1003.242188,3.211147,9.600826,7.013514,1.997002
1003.246094,6.889897,3.369153,4.631594,4.971117
1003.250000,0.666549,-2.361718,0.283099,5.058835
1003.253906,-1.361900,-0.963515,-7.197981,-4.374471
1003.257812,-0.712714,-6.620283,-5.004033,-3.958227
1003.261719,-9.668843,-4.561591,-6.532419,-7.513567
1003.265625,-5.443734,-12.692461,-9.638975,-6.916003
1003.269531,-7.538678,-14.595176,-12.954855,-10.323046
1003.273438,-0.776943,-12.188915,-8.943070,-1.686041
1003.277344,-8.962237,-5.938697,-12.870877,-10.612639
1003.281250,-8.972293,-5.704281,-5.464032,-8.394367
1003.285156,-8.981281,-3.842266,-7.183307,-2.816604
1003.289062,-7.975417,-7.914658,-9.799307,-6.945170
1003.292969,-1.908317,-1.437109,-2.341740,-4.421750
1003.296875,-6.652807,2.752678,-4.731514,-3.293534
1003.300781,-5.486764,-0.566797,5.030075,1.484278
1003.304688,0.594558,6.335202,-6.946469,7.872741
1003.308594,5.683067,14.297362,6.428766,3.087123
1003.312500,8.747683,12.116305,6.789936,7.232907
1003.316406,12.045376,5.476680,6.692310,11.538070
1003.320312,15.067293,8.048097,10.593848,14.952468
1003.324219,14.643938,13.482001,5.976987,6.359827
1003.328125,5.963858,4.144115,10.463599,7.952512
1003.332031,7.199039,7.596373,12.125534,0.559583
1003.335938,8.517245,2.747618,6.873122,4.036962
1003.339844,4.834771,4.492703,-2.601416,6.183921
1003.343750,3.675471,5.534050,11.366397,-1.864612
1003.347656,4.650858,2.048905,9.972607,-0.628196
1003.351562,16.673736,0.828776,-1.417029,-7.031842
1003.355469,-7.882772,-4.470770,-0.579960,-6.572357
1003.359375,-6.454305,-2.534840,-15.712176,-5.795207
1003.363281,-7.743451,-11.283673,-4.294230,-5.683091
1003.367188,-6.018635,-11.722342,-8.365618,-3.454366
1003.371094,-7.304765,-13.097929,-10.371044,-11.025254
1003.375000,-14.315122,-14.041016,-12.979001,-7.437823
1003.378906,-7.604524,-4.439752,-10.388949,-9.748752
1003.382812,-15.376908,-9.183275,-10.472649,-11.383675
1003.386719,-4.170217,-8.784721,-6.790886,-3.697708
1003.390625,-2.528926,-4.833585,-6.187256,2.792781
1003.394531,-4.248916,1.404953,-5.459247,-2.720355
1003.398438,-4.381025,-4.364952,-6.445289,3.387784
1003.402344,4.173324,2.774269,8.141315,-1.010529
1003.406250,-3.277112,-0.713280,1.240914,5.321966
1003.410156,2.745306,4.565545,9.185948,3.069499
1003.414062,5.069000,7.988266,2.996434,12.363452
1003.417969,8.973571,2.275901,11.085046,7.780424
1003.421875,12.223821,10.684580,2.437009,10.329931
1003.425781,12.422296,11.193818,13.646172,10.315245
1003.429688,11.092023,3.372303,12.951458,11.904070
1003.433594,5.610125,9.608556,12.911446,10.930058
1003.437500,12.199345,7.142188,5.855499,4.038181
1003.441406,4.126274,1.583476,6.251812,2.034763
1003.445312,4.819067,10.813167,6.829236,3.387325
1003.449219,-1.582183,-0.984788,0.665447,-0.570216
1003.453125,-1.607133,-4.759662,-5.253000,-6.178090
1003.457031,-2.789584,-8.778593,-4.999604,1.119976
1003.460938,-4.743599,-0.757218,-4.568392,-8.139618
1003.464844,-8.202148,-6.068384,-6.173407,-12.722529
1003.468750,-2.957063,-11.779772,-8.240053,-14.008621
1003.472656,-11.617215,-6.066856,-11.324554,-14.014517
1003.476562,-10.326349,-8.196041,-13.186316,-11.842514
1003.480469,-8.927291,-14.529662,-13.817052,-12.169509
1003.484375,-10.182126,-2.448837,-11.462819,-8.129068
1003.488281,-6.036808,-1.502973,-3.466082,-15.319336
1003.492188,-1.329735,-5.514480,-6.245764,-3.044745
1003.496094,-0.796106,-2.715444,-0.161339,-2.902870
1003.500000,3.878908,-6.173599,-3.398412,2.452154
1003.503906,-0.657992,1.062804,1.785192,6.945687
1003.507812,0.117170,2.877610,4.009516,-3.807019
1003.511719,0.029876,6.639955,3.863553,1.931697
1003.515625,10.915240,3.959878,2.382349,5.537472
1003.519531,10.143427,10.620180,15.138125,11.753212
1003.523438,7.074564,17.753617,13.085297,7.954676
1003.527344,4.919269,9.932252,2.961333,11.124846
1003.531250,12.047285,10.261781,6.871338,13.075916
1003.535156,1.699550,6.010630,5.370370,5.107232
1003.539062,3.744857,2.353258,6.433926,12.560032
1003.542969,8.593294,8.399966,4.756410,3.645052
1003.546875,2.667654,11.735075,3.120902,-0.703709
1003.550781,-3.505565,0.527894,3.473144,-0.855297
1003.554688,0.526809,-2.755979,-0.421593,-0.970255
1003.558594,-1.070419,-11.072198,-7.931147,-7.074971
1003.562500,-6.974991,-6.332926,-8.180604,-5.965032
1003.566406,-7.387749,-10.500358,-9.032356,-0.527110
1003.570312,-10.885974,-10.753039,-11.954135,-4.699116
1003.574219,-11.374880,-9.680159,-4.169923,-11.482036
1003.578125,-12.803538,-1.281365,-9.135457,-7.900674
1003.582031,-13.364072,-8.302168,-11.148417,0.123379
1003.585938,-8.648973,-12.684478,-10.093756,-11.268048
1003.589844,-2.170844,-9.453488,-11.662347,-7.415537
1003.593750,-3.084100,-11.206083,-4.311946,-11.433591
1003.597656,-1.512177,2.532702,-5.056666,-0.891079
1003.601562,0.657109,6.033818,6.434159,-0.068859
1003.605469,-0.441114,7.733929,-0.705366,1.792127
1003.609375,2.309005,3.586543,4.630446,9.666546
1003.613281,12.816361,2.151002,3.072723,11.129845
1003.617188,15.868808,4.573921,8.623834,11.899888
1003.621094,7.712546,4.371571,11.280232,11.030791
1003.625000,7.785419,5.390568,8.130860,17.306946
1003.628906,4.346722,11.081823,12.065970,5.263931
1003.632812,7.113991,8.977203,9.851001,2.686036
1003.636719,12.600248,8.151079,10.147440,0.734154
1003.640625,12.385806,9.687406,11.724334,-2.249460
1003.644531,-9.992543,2.441921,11.862741,1.621387
1003.648438,-0.351926,2.943399,-4.601886,1.691039
1003.652344,-6.836771,-4.301662,-9.187659,-5.559002
1003.656250,-7.791934,-1.231861,-0.298696,-6.611271
1003.660156,-10.491310,3.780692,-2.955328,-11.985597
1003.664062,-5.087134,-8.955398,-7.728038,-9.923692
1003.667969,-17.797698,-10.711524,-12.724218,-5.480987
1003.671875,-9.858601,-12.269678,-4.155177,-5.093237
1003.675781,-10.274032,-14.728749,-6.695630,-11.085185
1003.679688,-11.760386,-11.966957,-14.401860,-11.229842
1003.683594,-8.679837,-0.970979,-11.155151,-6.832376
1003.687500,-5.354631,-12.624862,-13.445704,-12.544916
1003.691406,-6.450105,-7.685643,-2.723905,-8.791297
1003.695312,-2.103734,0.262877,-2.327969,2.475065
1003.699219,-3.307976,7.891705,-5.428923,3.598809
1003.703125,-7.922436,2.527343,5.874393,0.826817
1003.707031,1.687497,4.551682,0.900981,-0.478078
1003.710938,0.910259,4.693895,12.389254,11.502965
1003.714844,5.202070,8.043544,9.619929,5.750161
1003.718750,8.535511,10.260523,10.189527,12.515316
1003.722656,5.040616,11.366636,11.244205,4.002370
1003.726562,12.953365,11.168350,11.809590,11.938012
1003.730469,11.670983,7.204615,6.912339,4.824213
1003.734375,9.710487,9.285849,10.208677,5.060154
1003.738281,11.543704,5.487339,6.663756,5.701697
1003.742188,3.534610,6.481156,5.582206,-2.295323
1003.746094,11.593323,-1.502444,0.903268,5.119019
1003.750000,-2.083382,0.609761,0.921472,0.583638
1003.753906,-0.371939,-1.050146,-4.415457,-3.469694
1003.757812,-6.846087,-2.112457,-6.105553,-3.260332
1003.761719,4.590076,-6.192462,-5.211673,-10.682232
1003.765625,-4.922549,-11.759369,-2.622972,-11.725289
1003.769531,-12.038774,-3.185858,-10.063736,-10.441436
1003.773438,-12.709082,-12.647983,-5.880052,-12.646493
1003.777344,-18.847968,-6.486709,-5.126956,-14.060614
1003.781250,-11.793835,-12.294791,-8.152457,-2.532441
1003.785156,-3.307717,-8.628415,-14.132806,-3.686046
1003.789062,-6.400696,2.105955,-3.704924,-10.674293
1003.792969,-4.777031,-3.985933,-5.490942,-5.793891
1003.796875,-5.880729,-9.737445,-1.562392,-3.769894
1003.800781,0.738860,0.461063,-6.092172,6.946183
1003.804688,2.455916,8.650976,3.646907,7.146437
1003.808594,9.734903,5.561482,7.949603,5.509682
1003.812500,6.115947,0.490052,1.821951,14.932129
1003.816406,6.236998,9.107228,4.586065,12.042911
1003.820312,11.294666,6.894762,3.998487,7.739271
1003.824219,15.852736,17.354429,14.937790,14.724246
1003.828125,15.245148,11.808658,13.879736,6.637855
1003.832031,7.930854,13.385913,2.289472,11.122300
1003.835938,11.537323,6.284412,4.199211,3.765673
1003.839844,8.244473,-3.904446,5.154685,14.823619
1003.843750,6.301156,3.537609,4.604404,-4.699089
1003.847656,-3.660421,4.314631,-0.435213,-2.981116
1003.851562,-4.650778,0.161785,-0.729716,-7.292035
1003.855469,-4.557028,-1.886482,-2.401499,2.321990
1003.859375,-10.478073,0.846508,-8.271775,1.038081
1003.863281,-11.798134,-8.442836,-2.330502,1.947805
1003.867188,-17.003238,-10.939143,-9.001033,-10.743179
1003.871094,-1.271035,-10.007358,-14.570482,-13.132963
1003.875000,-3.846459,-7.977402,-7.193059,-10.295095
1003.878906,-12.771032,-5.800733,-13.867190,-6.528875
1003.882812,-2.175452,-10.521775,-7.969779,-12.730217
1003.886719,-7.908000,-3.840072,-7.033273,-4.751805
1003.890625,0.842175,-7.064649,-3.220790,1.404323
1003.894531,-10.024950,-3.342236,-4.630136,3.285263
1003.898438,-3.495842,0.252223,-1.133845,-1.709416
1003.902344,-0.708901,2.640588,10.406652,-0.464108
1003.906250,3.054950,3.672085,4.801007,-0.291354
1003.910156,4.596039,11.399208,10.765733,4.168447
1003.914062,10.769203,3.523918,11.647360,2.515096
1003.917969,12.435671,12.797912,10.160186,3.625460
1003.921875,10.710679,10.626457,10.749234,11.561551
1003.925781,7.420155,6.731031,12.323090,5.208983
1003.929688,9.524898,11.861792,11.255391,12.919275
1003.933594,12.972022,-2.110747,10.905598,9.756918
1003.937500,7.972151,10.568413,7.672052,7.883794
1003.941406,11.275687,2.741857,5.664309,3.194651
1003.945312,2.802872,-2.428326,-1.171437,0.850804
1003.949219,-0.669935,-1.865749,-2.034195,2.420996
1003.953125,-2.990799,-0.432368,-3.388682,3.883239
1003.957031,-8.943023,-0.870470,-7.153478,-4.273264
1003.960938,-1.940389,-6.469061,-8.761266,-1.818381
1003.964844,-14.295022,-3.616967,-13.984405,-8.182025
1003.968750,-2.164565,-16.369527,-8.594369,-4.948133
1003.972656,-4.589651,-10.538744,-11.019171,-14.351704
1003.976562,-9.765860,-13.664962,-9.648344,-6.828751
1003.980469,-7.150582,-13.541047,-4.798043,-9.303756
1003.984375,-5.974493,-10.692565,-12.791314,-12.260137
1003.988281,-6.382000,-11.663021,-11.999480,-6.143101
1003.992188,-7.834719,-3.340338,-7.095627,2.643276
1003.996094,-0.020993,-5.153197,-2.192496,-9.519868
1004.000000,1.114730,1.222070,-0.761956,-4.921966
1004.003906,-1.464473,0.546662,0.284833,6.350488
1004.007812,8.774906,4.444544,4.661302,8.591797
1004.011719,5.933919,10.389099,1.173422,-0.507109
1004.015625,8.646426,10.712553,8.845642,10.031573
1004.019531,2.705672,8.021787,4.176982,16.601251
1004.023438,9.377182,14.334304,8.988708,11.661253
1004.027344,12.573923,9.841655,9.960461,1.987790
1004.031250,12.940364,5.572820,8.091578,7.494466
1004.035156,7.700445,14.185344,6.047105,6.561170
1004.039062,7.220608,3.513534,8.725379,-0.468687
1004.042969,-1.242400,8.088842,-4.033312,-4.021157
1004.046875,2.998973,6.444670,3.137661,1.916024
1004.050781,4.349122,4.673576,4.846179,-1.814312
1004.054688,-1.482052,-8.334446,-0.879002,-4.162713
1004.058594,-7.050898,-6.006209,-3.579889,-7.504279
1004.062500,-6.669225,-10.582107,-1.418307,-3.651844
1004.066406,-7.730705,-12.755312,-2.933763,-2.911786
1004.070312,-7.208703,-10.882264,-14.702372,-18.294920
1004.074219,-9.868179,-11.498755,-12.944423,-4.993436
1004.078125,-6.596712,-9.699674,-10.599580,-6.870622
1004.082031,-3.513936,-8.795603,-9.601938,-14.859443
1004.085938,-14.021859,-5.787600,-5.288959,-6.478785
1004.089844,-8.287785,-3.589882,-4.991768,-5.078703
1004.093750,-6.512215,-3.098241,-2.685718,-0.968259
1004.097656,-3.514221,5.819838,-1.975932,0.603313
1004.101562,5.577852,2.306978,-0.652951,-2.926208
1004.105469,4.764858,1.047575,5.227117,1.086573
1004.109375,1.034012,11.593763,1.060752,2.760235
1004.113281,-2.012509,4.941924,6.565046,15.385734
1004.117188,6.659975,5.948124,13.797636,8.045329
1004.121094,3.901193,10.471125,13.821486,10.376828
1004.125000,17.380788,10.488925,9.980996,2.234311
1004.128906,14.537952,8.585234,7.590659,7.811322
1004.132812,8.944267,6.328406,7.835272,15.076909
1004.136719,3.108378,11.673711,11.275159,1.615994
1004.140625,1.106926,6.190473,3.597544,3.181910
1004.144531,1.923699,5.404880,-3.090504,-5.654688
1004.148438,4.476733,-5.417552,0.092538,0.208025
1004.152344,-5.364794,-3.781071,-1.846662,3.491668
1004.156250,-0.890585,-1.889667,0.195299,2.378061
1004.160156,-6.285894,-4.152576,0.122710,-9.609333
1004.164062,-5.672313,-2.502097,-11.648273,-10.094909
1004.167969,-6.258219,-3.981743,-6.634712,-9.985292
1004.171875,-17.338061,-5.320501,-14.066770,-3.948450
1004.175781,-9.779900,-10.329087,-11.685280,-8.667652
1004.179688,-14.372349,-14.102301,-8.661107,-10.139985
1004.183594,-13.207669,-13.597651,-6.237843,-3.708597
1004.187500,-11.417179,-2.674250,-6.936517,-6.730368
1004.191406,-11.953337,-0.275587,-6.173169,-5.018726
1004.195312,0.510808,-5.720376,-3.679577,-2.256327
1004.199219,-1.557069,-0.891755,2.770124,-1.590142
1004.203125,6.014431,0.983845,-6.750488,-2.818772
1004.207031,6.749985,1.358631,-4.316190,-1.768365
1004.210938,2.410541,4.742726,2.614914,1.199200
1004.214844,6.343334,-6.405030,11.477980,12.151356
1004.218750,13.123597,11.199294,12.837931,3.072897
1004.222656,6.253428,14.341910,8.354258,10.032599
1004.226562,11.295709,9.350088,13.459089,8.965709
1004.230469,11.373631,8.066817,9.438345,3.247074
1004.234375,7.092625,9.821493,17.222533,7.659092
1004.238281,7.756287,7.205212,13.194670,7.738625
1004.242188,1.138791,5.422053,4.254154,4.363175
1004.246094,3.328092,3.337978,-0.644307,7.600218
1004.250000,-3.281644,8.214646,0.297942,2.890630
1004.253906,-9.163531,-5.555719,-0.853553,-4.181260
1004.257812,-7.139328,-4.268443,-5.212800,-1.391781
1004.261719,-7.158258,-0.454261,-2.811202,-6.140091
1004.265625,-2.071187,-5.179876,-5.586250,-10.480652
1004.269531,-12.580858,-10.424333,-15.949697,-2.000549
1004.273438,-6.699829,-8.019885,-16.739042,-10.846469
1004.277344,-9.067007,-15.481157,-13.622542,-18.383232
1004.281250,-9.750295,-9.979646,-0.832866,-13.081540
1004.285156,-8.978769,2.685707,-6.599570,-9.181108
1004.289062,-1.848547,-5.767415,-6.307407,-5.489770
1004.292969,-4.742588,-1.027654,-10.194402,-10.449118
1004.296875,-3.097180,-1.894388,1.297582,-0.994317
1004.300781,3.009801,3.192391,-5.204163,0.921717
1004.304688,10.628931,1.925841,-0.064243,4.775505
1004.308594,-0.452783,7.743517,7.220953,5.878240
1004.312500,3.954721,3.950486,-0.870661,2.562355
1004.316406,4.786721,11.868069,8.964943,8.603928
1004.320312,6.074945,9.106269,4.630419,10.933556
1004.324219,3.436894,12.798669,7.518086,10.473133
1004.328125,9.784668,8.507531,10.932825,9.383507
1004.332031,12.844978,2.664159,8.907173,7.275752
1004.335938,10.586215,5.177076,2.838275,9.652507
1004.339844,1.436606,9.128950,8.477776,9.275084
1004.343750,6.155064,3.339569,-3.318831,1.056286
1004.347656,4.574145,2.911705,-0.497877,3.222155
1004.351562,1.191870,-1.382272,-3.853931,2.043901
1004.355469,1.075264,-9.014919,-1.830092,-6.232783
1004.359375,-5.627669,-5.396174,1.038640,-3.137162
1004.363281,-7.122014,-12.131667,-8.865627,-1.989364
1004.367188,-4.053619,-7.814027,-11.476290,-5.337888
1004.371094,-11.120204,-6.951280,-11.414053,-14.861334
1004.375000,-14.539678,-14.667496,-8.125305,-13.975816
1004.378906,-8.825194,-12.773785,-8.106080,-5.488296
1004.382812,-6.301654,-7.089635,-14.956300,-12.481953
1004.386719,-8.977526,-5.504660,-8.262121,-9.809807
1004.390625,-8.764049,-3.174632,-7.447164,-1.066136
1004.394531,3.938618,-6.875461,-8.326707,-5.793090
1004.398438,-5.145213,-1.274512,-0.708615,-5.507245
1004.402344,4.463742,0.448125,0.294712,12.426340
1004.406250,15.036655,10.250798,0.742479,6.899270
1004.410156,4.507969,3.817744,4.312778,4.852665
1004.414062,11.582674,17.374397,8.430672,9.541689
1004.417969,8.850707,10.824281,7.145832,7.537050
1004.421875,9.414161,16.439432,11.334688,4.417766
1004.425781,17.751590,8.190982,5.787761,9.889247
1004.429688,8.637762,12.650519,12.196120,12.188603
1004.433594,5.410880,11.141487,8.734662,1.577242
1004.437500,5.565019,6.184760,6.590606,1.484685
1004.441406,9.070677,9.372100,4.777546,8.809056
1004.445312,9.458712,4.955647,5.403170,3.510086
1004.449219,-8.051715,-0.962693,-0.085075,-6.738775
1004.453125,-0.546842,-0.731707,-4.789813,4.684230
1004.457031,-0.194505,-3.097795,-1.890305,-4.380950
1004.460938,-10.232111,-5.388517,-15.667755,-6.642035
1004.464844,-10.009308,-12.257520,-10.126062,-2.719504
1004.468750,-10.412269,-10.696878,-14.943311,-9.931393
1004.472656,-14.624542,-15.358085,-15.165573,-5.348071
1004.476562,-17.125930,-12.897990,-12.025921,-10.609340
1004.480469,-6.675242,-5.851863,-10.906654,-10.743217
1004.484375,-11.935524,-8.745802,-11.407045,-8.909331
1004.488281,-8.222315,-11.735431,-12.970150,-6.406943
1004.492188,-6.425227,-4.887294,-7.742305,-0.312783
1004.496094,4.706697,1.484490,2.617407,-4.165240
1004.500000,11.826456,-0.917292,-1.935895,2.248140
1004.503906,0.826754,7.433165,-1.525444,2.357208
1004.507812,-1.664111,-1.572632,6.439332,1.185593
1004.511719,5.329386,5.292712,1.803519,3.760333
1004.515625,10.545332,7.724874,4.835943,2.139953
1004.519531,10.875630,18.225704,16.516613,9.526520
1004.523438,10.023387,6.840125,2.694087,15.183055
1004.527344,9.780727,11.801723,5.949783,13.508325
1004.531250,7.917692,11.491060,9.330071,5.664185
1004.535156,2.149779,11.587566,14.635850,13.408105
1004.539062,0.458804,4.930885,6.995926,7.222781
1004.542969,2.564702,3.549853,7.635094,2.529658
1004.546875,0.147965,3.633169,6.184692,0.755349
1004.550781,3.026840,-2.419327,-2.748047,-2.734762
1004.554688,1.816878,-7.017153,-1.715916,-5.329996
1004.558594,-5.062397,-4.318017,-3.124867,-1.052837
1004.562500,-6.543972,-4.546619,-13.707881,-9.335911
1004.566406,-7.064262,-1.847668,-11.878757,-3.767002
1004.570312,-11.263675,-14.893295,-13.986231,-9.470951
1004.574219,-10.898671,-17.447420,-4.968903,-10.096146
1004.578125,-10.574770,-10.262461,-6.980118,-5.594291
1004.582031,-9.437115,-12.113310,-12.358054,-9.874553
1004.585938,-7.061514,-5.871302,-6.217676,-2.915852
1004.589844,-6.658816,-6.914039,-8.246459,-6.571134
1004.593750,-3.982025,-0.616642,-3.473242,-1.591143
1004.597656,-2.238509,-1.729689,-5.664069,-1.035512
1004.601562,2.418354,-3.656054,3.000440,-0.724811
1004.605469,-0.645752,3.226655,0.780431,1.405580
1004.609375,0.044457,1.295181,2.639801,3.467085
1004.613281,7.533059,10.905566,1.197845,3.650115
1004.617188,13.101715,10.407674,5.568027,10.406927
1004.621094,8.641108,10.240511,9.733380,12.294829
1004.625000,9.481978,5.970354,12.792469,18.102176
1004.628906,-1.048661,9.001750,8.297067,6.991935
1004.632812,7.604816,15.677550,10.614288,9.754616
1004.636719,1.570963,15.825259,16.391671,1.674702
1004.640625,9.036652,11.463100,10.596334,13.816649
1004.644531,5.695485,4.672729,-3.028250,3.956450
1004.648438,-7.265131,-1.675623,6.116602,1.901132
1004.652344,-4.596696,3.598569,-2.832108,0.140565
1004.656250,-2.365963,-3.549623,-2.381124,2.801176
1004.660156,-4.961037,-5.307135,-5.381730,-9.150722
1004.664062,-5.752388,-5.726990,-7.939839,-18.154387
1004.667969,-11.643325,-6.736282,-8.328206,-17.969838
1004.671875,-4.348052,-11.414756,-15.665637,-6.835340
1004.675781,-7.915792,-2.926392,-8.481870,-1.475010
1004.679688,-4.916204,-6.462053,-14.951525,-11.995349
1004.683594,-13.089233,-11.068098,-10.921728,-10.987160
1004.687500,-8.691677,-8.414794,-6.101406,-8.075105
1004.691406,-3.371614,2.737836,-2.562876,-10.527381
1004.695312,-7.288107,-4.130662,2.360329,-3.960339
1004.699219,-4.440684,-0.890674,5.542737,-3.430005
1004.703125,0.988446,-1.949165,1.529402,0.351465
1004.707031,-1.498791,5.509590,5.087010,-1.053778
1004.710938,6.125645,3.702656,6.124904,7.259651
1004.714844,9.549875,4.334978,13.157985,3.785201
1004.718750,13.003664,12.438020,9.006429,9.737261
1004.722656,10.640968,11.118872,14.558309,15.970461
1004.726562,4.536417,8.232777,11.527113,14.506243
1004.730469,13.028754,8.861983,8.875190,12.849728
1004.734375,7.638971,10.071844,2.499659,4.106976
1004.738281,5.118400,9.100970,3.163917,4.106946
1004.742188,0.204558,2.971079,1.902940,3.088296
1004.746094,6.578901,3.968160,1.155726,3.698943
1004.750000,3.311327,-5.869015,-5.215761,0.918699
1004.753906,-4.252167,-11.896636,6.464161,1.424100
1004.757812,-5.195037,-10.413917,-2.230018,-1.124019
1004.761719,-1.634768,-1.439988,-8.833733,-11.424569
1004.765625,-4.180956,-6.149084,-5.894637,-14.341585
1004.769531,-16.867364,-1.935666,-8.492558,-7.876536
1004.773438,-14.037638,-9.603648,-5.064120,-9.160162
1004.777344,-11.778711,-5.055157,-12.125488,-9.406525
1004.781250,-6.789164,-16.883635,-8.749429,-17.305898
1004.785156,-3.772693,-7.264146,-2.974710,-6.989646
1004.789062,-7.584334,-2.337647,-6.774538,-7.866314
1004.792969,-5.948299,-4.005048,-1.033956,-12.123996
1004.796875,0.954858,0.210007,-0.536399,1.088014
1004.800781,-3.759064,1.945239,4.906785,-6.259888
1004.804688,1.542798,-0.445754,10.246578,2.612302
1004.808594,6.678199,0.597137,3.982188,10.812587
1004.812500,5.201721,11.271918,10.621659,10.475496
1004.816406,-1.045029,11.931343,6.874366,3.523017
1004.820312,5.838126,5.880500,3.038012,5.053063
1004.824219,5.721197,10.768124,8.063480,13.446343
1004.828125,5.514526,6.854286,9.565937,3.898518
1004.832031,5.679665,10.560991,7.758179,10.468730
1004.835938,6.481771,15.199176,8.054572,3.416495
1004.839844,4.206488,8.239401,10.608795,4.612400
1004.843750,12.208177,-3.984978,0.327989,5.856305
1004.847656,-3.574234,3.916197,2.643432,2.178710
1004.851562,2.304504,2.209915,-1.541900,8.751389
1004.855469,2.502983,2.357115,-10.725825,-6.604780
1004.859375,-5.522379,-2.025238,-8.329719,-8.937144
1004.863281,-2.970815,-9.050234,-10.514766,-3.834201
1004.867188,0.598522,-11.678278,-2.253175,-9.686018
1004.871094,-11.917574,-17.554631,-13.325658,0.286136
1004.875000,-13.873350,-9.554462,-17.921693,-13.467993
1004.878906,-8.815784,-6.685797,-12.576874,-12.238232
1004.882812,-9.584433,-7.019592,-11.822888,-10.078039
1004.886719,-7.362087,-8.664784,-6.625275,-3.108342
1004.890625,-14.804336,-10.840631,0.036926,-2.967954
1004.894531,-8.199935,4.675321,-1.925369,3.205938
1004.898438,-1.373337,0.540488,0.417290,7.246869
1004.902344,6.071977,-0.674044,-0.213245,-3.927041
1004.906250,2.476933,3.743406,5.790730,5.354272
1004.910156,14.544563,4.389078,0.822755,-1.379769
1004.914062,6.859916,11.330067,6.163682,8.819410
1004.917969,4.816829,11.194535,5.805137,6.718842
1004.921875,7.146790,12.227193,7.610303,7.143814
1004.925781,6.892378,9.545017,15.456343,6.486898
1004.929688,9.831169,2.309237,4.755909,9.323388
1004.933594,11.019031,5.752825,14.224923,12.140818
1004.937500,6.150841,2.477833,8.428481,1.656158
1004.941406,6.948497,3.516328,8.381323,4.979730
1004.945312,4.268164,-0.492357,-1.520965,1.201039
1004.949219,8.269253,-3.456521,-8.114805,-9.139702
1004.953125,-0.114720,0.440661,4.674003,-5.652928
1004.957031,3.315125,-12.302613,-10.778824,-2.764117
1004.960938,-8.442765,-6.267472,-9.309716,-6.482483
1004.964844,-6.326050,-2.053681,-7.176351,-5.395890
1004.968750,-0.382583,-7.884872,-11.571593,-9.828528
1004.972656,-7.209390,-7.289147,-6.469045,-12.728501
1004.976562,-8.996933,-14.008010,-10.560550,-16.156871
1004.980469,-8.823611,-16.817584,-10.806736,-11.510336
1004.984375,-6.737222,-10.601309,-8.825199,-6.526155
1004.988281,-2.749604,-0.791699,-9.193797,-8.701475
1004.992188,-6.276033,-4.532203,-3.852117,-4.389426
1004.996094,-6.738074,-5.500398,-5.430214,-4.413337
1005.000000,6.257246,0.641308,-1.445255,0.382218
1005.003906,0.267692,7.423235,4.118118,5.117587
1005.007812,5.728616,6.350216,4.806240,1.129333
1005.011719,6.343462,2.417480,4.650643,8.362595
1005.015625,8.427238,3.948095,4.577611,9.543824
1005.019531,9.970236,10.225719,2.823665,6.073076
1005.023438,7.771089,15.462673,12.152625,10.875274
1005.027344,7.791989,11.599229,8.526842,7.731500
1005.031250,8.482157,8.643196,13.380872,12.878264
1005.035156,8.501149,11.414230,12.332248,2.588653
1005.039062,5.600085,5.496114,9.022439,7.931701
1005.042969,4.681720,-0.364807,6.073120,-6.883032
1005.046875,6.463920,-3.664773,-0.621677,-2.854566
1005.050781,-0.636804,-4.959294,-3.731976,-0.200830
1005.054688,-0.800350,5.893948,-0.574407,-5.919943
1005.058594,1.321973,0.216710,-5.341530,-0.407136
1005.062500,-13.273920,-4.017462,-11.129788,1.666185
1005.066406,-8.427147,-9.140417,-15.947540,-6.738702
1005.070312,-6.455071,-10.151469,-15.403315,-8.699539
1005.074219,-11.039836,-13.584051,-10.146672,-5.382468
1005.078125,-5.800854,-14.442593,-7.664075,-15.064672
1005.082031,-9.906455,-9.468450,-5.736489,-5.597000
1005.085938,-7.710615,-9.043000,-7.561578,-0.917363
1005.089844,0.456367,-3.328157,-14.229510,0.529311
1005.093750,-6.128736,-1.615906,4.993064,-1.304812
1005.097656,0.058323,0.617218,-3.538078,-2.663837
1005.101562,4.979787,-5.052106,-1.161681,-1.782230
1005.105469,5.708714,4.340468,8.688620,9.067558
1005.109375,2.181049,2.901662,-0.113357,6.920858
1005.113281,2.755993,4.176976,4.316770,2.756511
1005.117188,10.639292,7.143847,5.186689,5.411278
1005.121094,5.526996,10.600854,14.564289,7.097891
1005.125000,10.473540,9.602487,12.565426,8.498495
1005.128906,14.629420,14.368731,9.349614,14.292321
1005.132812,10.262209,6.725523,6.169161,7.787258
1005.136719,6.887606,12.538152,14.367659,5.266730
1005.140625,5.452036,4.256190,7.378976,16.191873
1005.144531,9.864376,-1.776002,2.654664,9.148501
1005.148438,1.492941,-5.470955,-1.999787,-2.818783
1005.152344,-0.851768,0.539182,5.355819,2.914969
1005.156250,4.877776,-3.099549,-3.779653,-7.599850
1005.160156,-10.199176,-8.228922,-10.398502,-4.019650
1005.164062,-7.188553,-3.258342,-12.837918,-6.911404
1005.167969,-5.443642,-1.090074,-15.093907,-3.638540
1005.171875,-11.673058,-12.481203,-18.888590,-8.935602
1005.175781,-7.012829,-10.619526,-11.317349,-14.307537
1005.179688,-9.543088,-13.701838,-7.876609,-10.859610
1005.183594,-7.130622,-12.192831,-6.193299,-7.901476
1005.187500,-5.136744,-2.843624,-7.025937,-13.096397
1005.191406,-10.852725,0.628454,-0.605350,-7.242029
1005.195312,0.434556,-7.069947,-5.789743,3.670654
1005.199219,-8.830286,-0.519841,1.157708,-4.830017
1005.203125,0.757596,-4.411565,1.046941,1.872203
1005.207031,2.630423,7.627934,-3.931392,2.104110
1005.210938,10.382480,6.139633,3.531616,13.457333
1005.214844,11.089234,12.427136,9.272315,6.170928
1005.218750,7.160151,11.243271,10.595519,7.562889
1005.222656,15.675583,6.974024,10.359146,16.400882
1005.226562,12.072550,9.490490,11.880208,5.907534
1005.230469,10.254712,-4.530187,14.940059,7.580604
1005.234375,2.823242,6.713130,12.170328,14.801202
1005.238281,6.547051,10.078666,2.969502,1.287940
1005.242188,6.834702,5.417936,6.922121,4.232328
1005.246094,3.679038,9.937822,5.858651,5.847840
1005.250000,5.002841,8.181070,2.650444,-5.225136
1005.253906,-3.095438,-0.997684,-5.941581,-0.923919
1005.257812,-10.727759,-8.554736,-8.311280,-7.442215
1005.261719,-8.727806,-2.309668,-5.919184,-14.133732
1005.265625,-8.092323,-7.155194,-7.728928,0.966795
1005.269531,-4.546277,-12.995735,-8.068860,-9.953494
1005.273438,-12.766149,-12.082824,-4.922801,-7.984930
1005.277344,-11.037829,-15.356787,-12.901385,-7.500611
1005.281250,-5.449502,-8.228677,-11.630120,-5.311295
1005.285156,-13.282526,-10.231675,-11.467368,-11.056325
1005.289062,-5.545438,-0.560358,-7.410090,-7.694974
1005.292969,0.041478,-0.885209,-6.124096,0.319627
1005.296875,0.133901,-6.692349,2.589424,-1.606518
1005.300781,0.189232,-8.326637,2.213995,3.571305
1005.304688,6.027714,-3.348291,-0.191173,4.554419
1005.308594,10.534595,9.036646,1.746062,5.957942
1005.312500,6.579580,2.571858,10.586277,7.093060
1005.316406,4.935558,15.814593,9.458630,0.040671
1005.320312,0.218997,17.744527,10.761074,12.830507
1005.324219,14.061297,12.375572,7.061027,6.783959
1005.328125,13.708738,7.176054,13.591524,15.547880
1005.332031,12.071408,4.933039,7.311233,8.863817
1005.335938,6.268202,15.906167,12.309385,9.037503
1005.339844,3.236112,10.437801,7.404279,0.960393
1005.343750,5.826374,12.112031,1.547306,3.854812
1005.347656,1.543832,0.630723,-0.749310,0.972146
1005.351562,-1.261947,-6.451372,-10.515308,-6.247814
1005.355469,1.694281,-9.306526,0.595566,-1.879764
1005.359375,-6.302002,-5.342221,-0.637185,-0.328242
1005.363281,-10.500041,-11.708805,-13.386369,-6.273589
1005.367188,-7.071815,-6.735832,-11.289576,-9.714558
1005.371094,-8.591681,-14.716214,-2.208563,-14.748601
1005.375000,-9.355070,-15.887360,-11.608111,-7.329158
1005.378906,-13.913786,-9.193034,-6.270183,-7.700926
1005.382812,-4.532742,-9.018552,-9.319727,-5.622698
1005.386719,-12.170751,-8.242473,-9.924257,-3.714156
1005.390625,-8.792300,-5.774360,-3.176052,-11.172599
1005.394531,-5.890456,-2.719324,-1.438447,0.542643
1005.398438,3.349410,-3.871910,-1.825956,-1.862724
1005.402344,2.031321,3.290882,7.608865,3.461048
1005.406250,5.802259,7.647957,-4.066280,0.683142
1005.410156,4.022757,6.121422,5.593534,7.424122
1005.414062,9.890400,7.127338,7.341224,3.807157
1005.417969,4.711416,16.869551,2.677149,8.260042
1005.421875,6.179450,15.943410,10.147833,12.291648
1005.425781,14.666730,9.435005,14.774374,5.996877
1005.429688,6.110925,0.782495,11.395789,11.529757
1005.433594,10.717221,5.890055,0.481983,12.169587
1005.437500,9.325281,11.775627,2.478422,8.313250
1005.441406,12.912475,2.603720,4.179408,7.952046
1005.445312,1.964066,-1.849688,3.866047,-0.935207
1005.449219,3.946727,3.025421,4.358792,1.752165
1005.453125,-1.237265,-4.157985,-0.144204,-3.489662
1005.457031,0.676478,-2.920264,-3.128845,-7.121634
1005.460938,-3.159666,-3.242894,-0.036823,-3.577404
1005.464844,-5.415453,-3.786095,-14.728749,-7.091680
1005.468750,-12.880717,-9.426655,-2.948354,-14.553844
1005.472656,-10.092423,-12.704239,0.377322,-10.805670
1005.476562,-10.435675,-8.498085,-8.698719,-13.527761
1005.480469,-16.748907,-9.727484,-7.348884,-3.958847
1005.484375,-5.483156,-15.972383,-13.490571,-12.703059
1005.488281,-8.710809,-10.320408,-4.245266,-0.753423
1005.492188,0.926715,-3.699137,-7.237152,-2.736767
1005.496094,-2.763903,-2.515780,0.953461,-0.872809
1005.500000,-6.120713,6.476487,0.361477,1.328639
1005.503906,6.962324,1.232425,0.240687,5.164998
1005.507812,2.775764,1.490904,4.405382,7.162123
1005.511719,10.037195,14.655055,5.466600,12.767521
1005.515625,11.282784,10.126277,6.662347,9.958429
1005.519531,12.797025,16.477990,14.858186,11.148694
1005.523438,6.099868,12.190774,6.260279,12.713942
1005.527344,13.237249,9.174841,12.459081,9.307254
1005.531250,7.280667,8.630727,9.738039,19.544943
1005.535156,11.107324,-1.088417,12.345260,9.606984
1005.539062,0.715296,11.539041,-4.160850,3.397736
1005.542969,2.274069,-0.663304,3.200109,-1.974816
1005.546875,3.860646,5.106642,1.442708,1.104859
1005.550781,-3.211257,-2.139986,-13.147781,-0.576502
1005.554688,-7.064722,-1.272667,-0.779465,0.423803
1005.558594,-6.094457,-6.071088,-11.276199,-1.427043
1005.562500,-10.265951,-11.376933,-5.619216,-6.549188
1005.566406,-12.051200,-9.067744,-5.433034,-9.422313
1005.570312,-17.052721,-19.297229,-15.503859,-8.644707
1005.574219,-5.590560,-10.475670,-10.482553,-10.567591
1005.578125,-13.198385,-12.684938,-20.173406,-13.240940
1005.582031,-13.509267,-11.024671,-7.251298,-7.569202
1005.585938,-11.662985,-6.949362,-4.519140,-12.955772
1005.589844,-4.317369,-2.748200,-14.539338,-4.027705
1005.593750,-5.970522,-2.923051,5.546000,-8.081656
1005.597656,-6.699854,-5.438354,-2.258157,-2.784955
1005.601562,-1.540447,5.054485,1.161215,0.938848
1005.605469,2.775425,12.011682,1.202151,3.636615
1005.609375,3.454747,6.406205,7.069382,10.779736
1005.613281,8.781984,8.252473,5.144422,8.631859
1005.617188,5.120988,9.730652,2.031714,5.592856
1005.621094,15.711607,9.503142,1.272733,7.042947
1005.625000,5.236103,16.506778,14.308070,11.115407
1005.628906,5.151852,12.492445,6.404186,5.824046
1005.632812,10.584761,12.750040,11.882275,13.364784
1005.636719,11.890838,3.076247,6.366746,12.506244
1005.640625,5.674608,6.581494,5.207870,-2.362470
1005.644531,3.296678,0.416316,7.079062,-0.083182
1005.648438,0.828190,-2.861548,2.654844,4.924849
1005.652344,-5.018133,0.043644,-3.896804,-6.555365
1005.656250,-7.985501,-7.152482,-8.623538,-11.778257
1005.660156,1.401755,-8.848966,-10.053441,-5.218781
1005.664062,-8.218443,-9.694544,-12.019487,-7.475493
1005.667969,-11.146222,-14.856712,-15.112521,-10.021067
1005.671875,-14.348236,-10.989766,-18.528382,-12.202104
1005.675781,-5.721392,-10.415638,-4.878778,-14.416903
1005.679688,-14.745129,-13.856147,-18.440463,-8.179932
1005.683594,-8.819395,-8.755212,-12.684435,-10.368743
1005.687500,-8.048964,-11.749691,-2.106283,-12.820136
1005.691406,-9.691661,-12.510530,-1.475611,-4.294335
1005.695312,-8.274104,-1.204899,-0.084079,0.689643
1005.699219,-4.779721,8.724157,-1.720599,3.954762
1005.703125,2.759960,1.924577,-2.006195,-6.579309
1005.707031,4.523966,3.636506,5.350748,2.965577
1005.710938,8.691238,8.959440,-0.095800,4.548212
1005.714844,9.458932,4.268430,2.865885,5.358534
1005.718750,0.247851,13.540936,16.883870,10.167462
1005.722656,4.623947,9.955162,9.902624,19.602871
1005.726562,11.742193,6.350685,1.529328,10.890386
1005.730469,8.511950,7.722424,9.669477,11.050482
1005.734375,11.616934,-0.881037,8.000623,8.680873
1005.738281,9.557918,14.680089,-4.290392,2.253354
1005.742188,1.142133,4.005568,2.591082,8.364860
1005.746094,-7.181068,0.411336,-0.691571,8.106778
1005.750000,-0.039410,6.990110,-4.333513,0.972438
1005.753906,1.950852,-3.989903,-4.312246,-3.111374
1005.757812,-5.751492,-2.401170,-7.581200,2.177316
1005.761719,-15.264818,-7.452870,-2.949771,-1.410570
1005.765625,-5.825584,-8.846357,-5.114780,-3.795091
1005.769531,-6.855460,-12.357859,-10.286221,-12.454322
1005.773438,-5.316637,-10.667761,-5.711680,-7.756293
1005.777344,-7.950243,-18.499047,-5.411494,-10.997380
1005.781250,-13.441830,-11.039603,-5.858969,0.551202
1005.785156,-15.071226,-11.708717,-2.830864,-6.921048
1005.789062,-6.520074,2.734678,-8.032714,1.735188
1005.792969,-7.245704,-1.695513,-7.986629,3.049189
1005.796875,-1.363992,-1.671984,-1.215600,1.426562
1005.800781,-0.447619,7.452792,2.003639,6.254867
1005.804688,4.425198,1.191046,1.899618,-0.885893
1005.808594,9.872979,6.172174,2.059769,2.436684
1005.812500,3.603574,14.841358,7.293998,7.858260
1005.816406,5.397759,3.651557,7.021844,5.861577
1005.820312,10.779299,15.302498,10.238633,12.240970
1005.824219,13.502944,15.150322,5.869562,17.836910
1005.828125,11.323994,13.756105,7.236545,8.238555
1005.832031,9.886832,17.295476,9.921089,9.659209
1005.835938,5.959112,9.996218,6.203787,0.559278
1005.839844,9.768250,13.320166,10.606557,10.172896
1005.843750,5.215399,-1.245167,-5.417865,10.491112
1005.847656,-4.744577,4.599892,1.879400,3.589960
1005.851562,4.551539,3.421798,-0.867837,7.160976
1005.855469,-5.792321,-4.494594,-0.437543,-7.520171
1005.859375,-5.924033,-0.775555,-6.767875,-0.994643
1005.863281,-1.982427,-12.806351,-6.265871,-5.021385
1005.867188,-6.802515,-7.533296,-10.556971,-4.660615
1005.871094,-12.030189,-10.381445,-5.091548,-8.960243
1005.875000,-16.680835,-7.693035,-15.087142,-6.232603
1005.878906,-3.303201,-5.503680,-10.332146,-10.142403
1005.882812,-6.859640,-7.831781,-14.957208,-7.990463
1005.886719,1.559265,-6.643280,-11.407885,-8.480135
1005.890625,-7.507989,-9.457464,-5.206492,-9.343831
1005.894531,-0.857619,-6.703805,-7.271633,-7.666038
1005.898438,-1.731102,-6.340866,-2.250599,0.897626
1005.902344,-3.011896,0.865601,3.975323,2.577261
1005.906250,7.079474,7.860531,6.216858,-3.783123
1005.910156,5.611481,5.206920,8.279037,12.321908
1005.914062,8.467951,9.211483,5.707320,-2.775602
1005.917969,4.229347,8.759654,4.261209,12.605271
1005.921875,8.359510,13.951123,11.365701,8.746207
1005.925781,14.365072,6.326617,11.895355,4.226427
1005.929688,13.296859,14.975732,6.080483,14.066081
1005.933594,12.924695,3.191114,6.206761,8.066843
1005.937500,8.830691,9.204969,2.516817,4.627307
1005.941406,3.361189,4.297767,5.752952,5.032120
1005.945312,2.404774,7.903271,5.434848,1.508111
1005.949219,5.969812,-0.146593,3.593168,0.415454
1005.953125,-2.781956,-2.349188,1.328013,-0.633337
1005.957031,-9.866042,-6.586634,-3.539605,1.222712
1005.960938,-6.519034,-13.845361,-2.573886,-11.279681
1005.964844,-10.101957,-13.249216,-2.203119,-7.470690
1005.968750,-5.996408,-14.871701,-10.259823,-4.356017
1005.972656,-11.639810,-11.747462,-5.540150,-9.192238
1005.976562,-15.151042,-7.084728,-11.548349,-16.899670
1005.980469,-9.715574,-11.231988,-1.386960,-15.752326
1005.984375,-9.320933,-5.989153,-4.645444,-2.839454
1005.988281,-4.546691,-8.110865,-4.956903,-11.186122
1005.992188,-3.568820,-4.092699,-6.047469,0.494234
1005.996094,-1.318467,-0.233683,0.083442,-0.616856
1006.000000,1.449180,-6.699243,-3.590200,9.000113
1006.003906,-11.547418,3.732069,0.844230,-0.152076
1006.007812,4.015235,6.480538,4.892739,3.658352
1006.011719,1.491335,5.457731,0.231522,6.749342
1006.015625,12.118715,8.249333,10.616480,4.848099
1006.019531,10.333010,8.318340,12.094045,9.227136
1006.023438,8.715843,0.976919,9.898435,9.449908
1006.027344,7.632625,3.617847,8.430944,2.105101
1006.031250,9.976715,6.486000,10.141286,12.416015
1006.035156,12.772851,9.348633,4.969894,7.597858
1006.039062,7.221553,5.196903,7.627658,5.725582
1006.042969,6.827736,2.066120,-1.107444,11.205871
1006.046875,1.027225,3.210689,1.261761,-1.191069
1006.050781,-4.486026,5.750230,-4.042760,-2.800349
1006.054688,3.103007,-2.011977,-5.332857,-1.189924
1006.058594,-9.350305,-0.025127,-11.008201,-9.849437
1006.062500,-3.728030,-11.463757,-8.638232,1.571056
1006.066406,-9.282440,-6.852297,-5.788765,-9.827667
1006.070312,-10.391875,-9.906177,-7.648450,-1.211692
1006.074219,-12.418623,-7.275775,-5.920837,-8.564446
1006.078125,-15.287780,-10.580429,-10.198481,-10.582615
1006.082031,-12.402694,-12.674713,-9.600929,-6.576096
1006.085938,-6.544737,-8.890263,-10.781600,-10.059169
1006.089844,-3.983741,-3.108334,-7.322380,1.475360
1006.093750,2.360767,-4.002580,-6.058372,-7.172373
1006.097656,-0.559490,-1.053894,-4.125456,0.979959
1006.101562,-1.494228,-1.919334,3.843885,2.236404
1006.105469,5.540975,-3.984255,11.738305,3.235368
1006.109375,1.031899,2.627486,2.623100,2.573724
1006.113281,12.250484,2.303729,3.274230,8.407941
1006.117188,1.361716,11.017062,1.444679,11.385257
1006.121094,13.188346,13.725336,12.871638,12.675322
1006.125000,7.639401,6.264468,1.249017,9.168835
1006.128906,7.787279,11.123857,13.017362,11.293517
1006.132812,12.223285,10.218462,14.916926,8.489660
1006.136719,3.811314,7.942838,3.570543,8.038987
1006.140625,2.505138,2.320630,4.493957,12.567334
1006.144531,3.576741,6.118269,-0.518237,1.737986
1006.148438,4.248711,-1.269196,4.336632,-2.994628
1006.152344,-11.594877,3.674932,-4.735726,0.142092
1006.156250,-3.338366,-7.513583,-6.154507,-5.036073
1006.160156,-5.959142,-9.401286,-8.151600,-7.606763
1006.164062,-9.728838,-4.166551,-11.468846,-13.914341
1006.167969,-13.899061,-13.963132,-14.245085,-5.846718
1006.171875,-11.222495,-11.655761,-7.200611,-6.327898
1006.175781,-12.126264,-8.537566,-12.520110,-13.357272
1006.179688,-10.144127,-12.107786,-10.865926,0.584104
1006.183594,-7.283854,-18.866326,-10.082580,-4.135296
1006.187500,-3.844109,-11.323375,-9.716685,-12.171721
1006.191406,-14.871608,-4.895202,-5.039967,-0.147741
1006.195312,-1.029138,-5.102356,-4.618047,-3.876951
1006.199219,0.838770,-2.728128,0.631955,-0.520613
1006.203125,0.218949,-3.743261,2.408626,5.433466
1006.207031,6.368273,1.341721,1.939249,10.843307
1006.210938,4.702093,4.762076,2.167059,2.398154
1006.214844,10.360338,8.146052,13.602984,7.910744
1006.218750,10.516186,7.622049,7.173221,4.648672
1006.222656,5.221513,12.429563,7.498665,13.241872
1006.226562,3.599058,10.558738,6.646792,12.945361
1006.230469,9.165418,9.658974,12.129482,11.557669
1006.234375,11.548133,7.859819,15.862490,4.110343
1006.238281,4.359596,0.012450,6.194812,5.100807
1006.242188,0.527365,3.522527,7.881962,9.774534
1006.246094,3.988771,-0.375649,7.198685,1.350180
1006.250000,1.567863,2.617128,-0.122888,2.200465
1006.253906,-1.927125,-2.888150,-8.747217,-8.579911
1006.257812,-4.288151,-6.782703,-5.992260,-3.177593
1006.261719,-5.767949,-5.500185,-8.853846,-7.782970
1006.265625,-14.673278,-13.242543,-9.231503,-10.992919
1006.269531,-11.121681,-7.443584,-6.678062,-12.558025
1006.273438,-13.847962,-9.835495,-15.935923,-12.632439
1006.277344,-8.414717,-5.780370,-7.907847,-14.138051
1006.281250,-14.273590,-10.764597,-4.671333,-6.737555
1006.285156,-8.148704,-8.384354,-6.865628,-8.080441
1006.289062,-2.469729,-10.497765,-10.005184,-3.479128
1006.292969,-4.135155,-4.526004,-6.321153,-4.559689
1006.296875,-4.183583,1.458108,1.733386,-5.158000
1006.300781,-8.893955,5.031585,0.855772,2.090436
1006.304688,1.250918,-0.305049,10.725179,6.292073
1006.308594,3.992204,-5.081151,-3.339153,7.639093
1006.312500,9.233932,4.502023,0.090210,3.775433
1006.316406,7.343014,7.139262,7.058526,10.194617
1006.320312,14.932085,14.283689,6.127822,11.582073
1006.324219,12.551964,11.839673,8.881961,15.938577
1006.328125,5.395434,4.908997,9.413071,8.576853
1006.332031,16.179772,10.012607,6.851605,10.768955
1006.335938,12.209674,4.585277,6.075897,5.528838
1006.339844,2.541838,3.188932,6.861288,7.934652
1006.343750,6.105811,10.782634,7.418225,0.340359
1006.347656,0.032302,-3.827367,6.092859,1.147343
1006.351562,9.528547,1.116416,-0.933975,8.194295
1006.355469,-7.322685,-6.787905,-4.049745,-3.184258
1006.359375,-10.228952,-7.693837,-5.764359,-2.634203
1006.363281,-4.524536,-12.801506,-6.231249,-9.840026
1006.367188,-11.994453,-4.976303,-12.549154,-10.244631
1006.371094,-8.690196,-5.952678,-4.506171,-10.026358
1006.375000,-11.457788,-12.001993,-7.476477,-14.084826
1006.378906,-6.868272,-14.976346,-7.163615,-10.978417
1006.382812,-9.548366,-14.036756,-9.602526,-2.723282
1006.386719,-8.158632,-6.972530,-8.080730,-0.370351
1006.390625,-10.038776,-3.140758,-10.993150,-4.817293
1006.394531,-2.484887,-7.120675,1.936870,-6.592886
1006.398438,6.230462,-0.261669,-6.521924,3.074427
1006.402344,-4.073000,2.152219,3.196599,-4.464882
1006.406250,11.818854,2.201448,4.128230,-1.984821
1006.410156,9.974359,18.979850,7.533805,9.815188
1006.414062,8.965272,5.857151,12.264723,8.017004
1006.417969,3.917304,4.088957,6.998185,4.762913
1006.421875,10.811973,13.449667,14.637029,7.796527
1006.425781,9.095608,12.201012,13.184661,5.412422
1006.429688,5.130662,9.433494,7.244323,14.053353
1006.433594,5.656881,8.693744,8.118637,7.413395
1006.437500,11.969925,5.686455,9.338894,8.599370
1006.441406,5.556470,3.259746,13.595827,7.882753
1006.445312,-2.819655,6.460325,1.204939,12.882058
1006.449219,6.748650,-1.012513,5.470166,-3.795678
1006.453125,-3.927458,-5.251185,2.685208,-2.468920
1006.457031,-4.244769,-6.288303,-9.179451,-9.067529
1006.460938,-4.165657,-7.821235,-3.745679,-9.231417
1006.464844,-14.366028,-12.008054,-4.995508,-11.447163
1006.468750,-8.016785,1.285274,-15.464870,-12.347012
1006.472656,-11.349609,-11.392047,-11.589705,-5.199157
1006.476562,-11.783340,-9.238832,-9.232137,-2.977071
1006.480469,-10.548332,-11.433517,-7.907475,-15.885912
1006.484375,-5.859794,-8.150766,-9.486051,-8.628163
1006.488281,-10.262426,-5.523998,-9.359724,-7.936981
1006.492188,-12.206360,-9.864758,-0.308253,-5.763905
1006.496094,-2.595987,-1.040588,-7.759437,-3.018314
1006.500000,-1.703103,2.942233,1.401766,0.678319
1006.503906,-0.136266,1.056993,-1.610089,-6.140104
1006.507812,9.548649,1.352250,-1.515309,-1.474218
1006.511719,-3.694262,11.731410,5.872234,7.357461
1006.515625,11.129736,15.138640,11.077371,9.729437
1006.519531,15.857635,2.172026,5.501186,9.245242
1006.523438,12.911470,16.299329,1.442841,9.248720
1006.527344,9.088643,7.225360,11.727811,14.929622
1006.531250,14.534278,10.720874,5.027015,10.098326
1006.535156,13.675408,5.982483,5.533576,2.188184
1006.539062,9.621724,-2.021933,5.212122,-0.763814
1006.542969,0.301880,3.759705,3.288381,13.973331
1006.546875,1.215616,-1.289130,2.601535,4.322980
1006.550781,0.475306,-6.827037,-3.078646,-5.633240
1006.554688,0.707188,-4.625959,-1.339836,-2.757603
1006.558594,-2.145895,-3.797004,-12.778878,-6.621258
1006.562500,-6.998137,-8.256956,-5.595355,-7.015975
1006.566406,-12.996889,-7.653537,-9.723059,-12.447508
1006.570312,-13.272820,-7.836503,-8.504243,-6.709369
1006.574219,-1.457416,-9.793460,-7.581922,-16.743619
1006.578125,-7.526916,-6.030543,-7.103328,-10.451989
1006.582031,-12.659282,-10.638932,-5.207157,-9.667481
1006.585938,-9.075671,-10.226811,-12.795296,-7.096534
1006.589844,-1.505926,-5.696422,-5.690037,-6.470765
1006.593750,-2.124335,-1.390327,-12.896573,-4.387222
1006.597656,-10.699812,4.896705,-1.461649,1.624349
1006.601562,3.634027,1.922873,1.207248,4.070411
1006.605469,3.039198,4.886464,4.264596,2.524847
1006.609375,14.567744,9.438769,15.015364,7.346819
1006.613281,10.629764,4.754053,6.418875,0.436244
1006.617188,11.058579,4.694672,21.111496,8.490077
1006.621094,9.832205,9.803919,11.048815,7.204284
1006.625000,9.852052,4.778656,13.218788,8.904053
1006.628906,8.251981,13.500237,15.807694,7.087813
1006.632812,4.255462,14.518107,9.954454,11.181293
1006.636719,14.878002,11.893169,10.399687,5.969842
1006.640625,5.848154,0.983511,5.668119,6.028742
1006.644531,10.155877,-1.912059,-1.643374,-1.141204
1006.648438,3.532015,-4.149534,3.835527,0.120186
1006.652344,1.394611,-4.774691,-3.769137,0.735691
1006.656250,-0.786699,-2.568474,-6.394980,-0.491714
1006.660156,-6.393130,-11.556554,-9.348779,-5.056562
1006.664062,-6.292834,-11.804422,-7.591399,-9.240336
1006.667969,-12.475891,-12.941171,-4.089626,-15.058193
1006.671875,-10.903962,-12.018871,-6.354391,-9.533701
1006.675781,-10.970605,-12.987813,-6.697813,-7.272201
1006.679688,-13.408187,-4.243001,-3.385392,-3.826712
1006.683594,-6.846430,-10.313897,-8.570506,-7.858819
1006.687500,-9.096388,-8.023684,-3.078968,-6.284720
1006.691406,-5.909845,-4.475252,-5.573872,-1.677818
1006.695312,-8.049047,-4.327567,-3.545566,3.376616
1006.699219,3.922379,-0.444788,4.792977,3.846052
1006.703125,-3.709282,11.836487,1.537415,5.117778
1006.707031,3.821992,9.451828,12.381062,3.917259
1006.710938,11.340566,13.311228,0.260949,7.157904
1006.714844,4.814942,7.183723,0.214542,10.982273
1006.718750,13.464624,6.401721,12.556983,10.756721
1006.722656,15.963398,11.109801,8.852410,15.222327
1006.726562,12.363530,6.490748,7.058874,14.094126
1006.730469,8.260370,21.652223,15.664665,10.352245
1006.734375,8.169440,7.538064,6.393779,6.450760
1006.738281,9.049819,5.881595,6.542080,6.677441
1006.742188,-2.929159,1.779011,5.453512,2.820548
1006.746094,0.027391,-4.310944,-2.200030,7.378086
1006.750000,6.638648,3.193094,-1.841812,6.743139
1006.753906,-1.783662,-1.542223,0.394410,2.348616
1006.757812,-7.502312,3.488985,-1.109942,-6.450304
1006.761719,0.592413,-8.725234,-5.393999,-7.375718
1006.765625,-8.875787,-9.565796,-14.624419,0.891683
1006.769531,-13.412815,-9.632517,-9.312031,-10.732489
1006.773438,-5.566951,-8.720209,-9.754921,-11.190183
1006.777344,-6.406548,-9.105038,-5.231336,-9.996493
1006.781250,-13.988413,-10.328054,-5.033009,-10.289835
1006.785156,-10.177602,-9.824273,-3.990248,2.017388
1006.789062,-9.207920,-4.338183,-8.569998,-4.602416
1006.792969,-0.520781,-7.804577,-3.561015,0.789794
1006.796875,-4.084948,-4.998999,-6.183872,2.245432
1006.800781,-2.325910,4.110536,2.940273,3.884364
1006.804688,2.527845,0.560929,3.562853,-0.583745
1006.808594,2.191040,5.926410,4.371913,2.028898
1006.812500,9.587962,11.800899,11.961274,5.324167
1006.816406,15.531983,13.321898,6.028292,9.116386
1006.820312,16.389377,14.323163,16.976097,12.937886
1006.824219,13.535552,9.922685,10.791037,5.931194
1006.828125,11.502116,6.934103,4.496779,11.538299
1006.832031,10.586154,13.955704,9.561021,9.201423
1006.835938,1.433574,4.970354,6.123278,9.790920
1006.839844,3.164131,16.380466,11.295559,10.555005
1006.843750,-2.207573,6.186093,0.040435,2.867388
1006.847656,3.899177,-0.157664,6.363850,8.190836
1006.851562,-3.686625,3.359665,-1.093949,-1.283613
1006.855469,-2.090362,0.642832,-0.581980,-8.705022
1006.859375,-1.971218,-5.387906,-7.042433,-1.394687
1006.863281,-9.780854,-2.143333,-8.830615,-7.889105
1006.867188,-15.007328,-9.823759,-10.792241,-13.189170
1006.871094,-5.247884,-8.578685,-12.756309,-7.219030
1006.875000,-10.631241,-7.948417,-15.632701,-9.943758
1006.878906,-10.172316,-8.059459,-4.515722,-8.966830
1006.882812,-16.989224,-9.107456,-2.377360,-11.808315
1006.886719,-4.907124,-14.682461,-9.742667,-8.936010
1006.890625,-12.822324,-8.667053,-4.359105,-7.805984
1006.894531,-1.964822,-12.602128,-6.419054,-6.313730
1006.898438,-3.605424,-0.961070,-0.513009,1.759758
1006.902344,1.004318,-0.570748,4.526538,-1.687116
1006.906250,5.275530,11.646434,5.980489,-0.854267
1006.910156,5.002443,9.680071,7.549273,10.541266
1006.914062,8.545850,6.998536,5.966778,5.295287
1006.917969,8.673449,13.560326,10.853323,8.319246
1006.921875,10.953528,6.270528,4.824760,-0.295876
1006.925781,14.207701,14.280846,4.060968,9.621312
1006.929688,7.449149,4.438557,12.293539,10.618614
1006.933594,13.159049,5.550278,9.011324,10.213273
1006.937500,8.259708,8.987651,5.642729,11.767081
1006.941406,9.924151,5.410773,9.021530,6.575889
1006.945312,-1.069267,-4.677234,1.347978,7.935910
1006.949219,-1.261277,-1.033061,0.463220,5.461876
1006.953125,-1.899307,-3.307943,-6.577404,1.191249
1006.957031,-4.770247,-14.000994,-1.261888,-1.393115
1006.960938,-3.904305,-14.940134,0.306130,-7.534025
1006.964844,-10.189297,-5.671956,-7.081354,-8.938713
1006.968750,-9.047673,-12.150526,-4.537549,-6.896799
1006.972656,-8.735628,-3.209603,-19.470350,-8.098039
1006.976562,-11.864682,-3.701116,-8.297796,-9.580470
1006.980469,-7.483809,-13.946368,-14.042909,-8.905137
1006.984375,-7.336048,-10.886547,-5.848366,-8.371368
1006.988281,-14.391198,-7.946148,0.254628,-9.916403
1006.992188,-6.056922,-3.869770,-6.019366,0.173980
1006.996094,8.891086,-0.448823,-12.558817,-7.163947
1007.000000,-0.034664,-1.672544,-3.352444,-6.672993
1007.003906,-5.403206,3.025703,6.288818,9.290686
1007.007812,1.569967,-1.796778,5.324594,1.152665
1007.011719,15.390829,6.169714,1.406583,3.548302
1007.015625,-0.886329,6.610709,5.830803,8.945181
1007.019531,15.713011,8.964943,13.711025,0.492744
1007.023438,5.359828,16.345774,7.549031,11.618376
1007.027344,15.747855,16.034888,6.123632,12.864138
1007.031250,9.448421,12.782835,10.177750,14.218183
1007.035156,10.788973,5.776516,2.474019,7.604152
1007.039062,11.917698,8.461217,7.897971,4.990640
1007.042969,0.611544,3.166740,1.063832,6.633730
1007.046875,1.305166,3.507314,4.250569,-4.732362
1007.050781,3.924919,-9.722603,1.907703,-2.550164
1007.054688,-2.697888,-3.470062,-0.581689,-0.683991
1007.058594,-7.891455,-10.227601,4.349622,3.135452
1007.062500,-3.348718,-2.600105,-4.522475,-13.612829
1007.066406,-6.412140,-8.583116,-9.667576,-15.783223
1007.070312,-9.345005,-13.761051,-6.563320,-5.794382
1007.074219,-8.815723,-6.421681,-9.667355,-7.475590
1007.078125,-9.106294,-8.859881,-8.211382,-9.422433
1007.082031,-4.268132,-12.787757,-9.232865,-2.357584
1007.085938,-7.676434,-9.706996,-9.684863,-15.274296
1007.089844,-7.446898,-11.378040,-11.758352,-5.846655
1007.093750,-5.865799,-4.381942,-5.647539,-3.468472
1007.097656,-1.744331,-3.923317,-3.114549,-5.317893
1007.101562,3.092538,-0.179776,7.870135,0.935890
1007.105469,8.273852,1.341386,5.223072,9.336808
1007.109375,3.007074,4.143502,7.580088,10.688895
1007.113281,3.540915,9.129823,7.581226,14.986628
1007.117188,11.189621,14.834024,7.416270,7.692334
1007.121094,9.634706,9.638698,7.176818,-0.139384
1007.125000,8.632258,8.508334,12.857444,15.089781
1007.128906,9.945329,16.197280,9.956647,11.920064
1007.132812,7.793105,3.746649,16.129449,11.510532
1007.136719,4.575338,-0.103094,13.960354,5.070858
1007.140625,6.471298,10.649507,8.078917,-0.587161
1007.144531,-2.147049,4.904986,0.157998,-4.880923
1007.148438,1.053943,-5.619779,3.915831,-4.298174
1007.152344,3.904976,0.136799,-4.426663,-1.709702
1007.156250,-3.356193,-7.114217,1.682784,-12.361914
1007.160156,-3.168426,-4.617076,-0.608892,-2.278544
1007.164062,-12.241572,-8.309568,-7.182982,-17.276930
1007.167969,-11.224864,-13.724507,-11.435530,-12.827380
1007.171875,-10.542977,-11.362225,-13.919506,-7.816318
1007.175781,-10.620713,-10.901460,-4.672080,-15.403292
1007.179688,-13.384164,-9.419403,-12.503083,-7.440618
1007.183594,-14.308723,-15.666004,-4.510386,-8.830553
1007.187500,-9.281822,-8.147663,-4.049305,-10.103259
1007.191406,-9.687533,-3.808263,-4.420207,-5.708897
1007.195312,2.068918,-8.206727,-4.941368,-4.359584
1007.199219,8.329633,3.239508,-4.234951,3.869835
1007.203125,0.001820,-7.402397,-2.383439,10.127123
1007.207031,-0.717886,5.718358,5.102567,1.383931
1007.210938,1.834836,11.241729,8.939223,9.140304
1007.214844,0.783079,8.609639,9.812093,1.932500
1007.218750,4.517270,10.428511,4.400640,8.257533
1007.222656,16.857874,11.191450,11.051788,12.364967
1007.226562,7.606007,10.274043,5.767996,8.364395
1007.230469,9.586923,7.767237,8.832674,10.033811
1007.234375,4.604196,7.274767,8.231865,10.123768
1007.238281,4.185044,4.072048,3.974354,10.246674
1007.242188,1.858872,1.795310,-4.131999,1.630864
1007.246094,7.539261,10.784092,-1.666678,8.790288
1007.250000,-1.585232,-8.405077,1.057295,4.146886
1007.253906,-0.312733,-0.728360,-7.183003,-6.256017
1007.257812,-5.472119,-3.699183,-5.091288,3.949921
1007.261719,-6.579401,-4.677532,-16.161776,-10.806169
1007.265625,-12.063131,-10.908223,-13.161247,-7.888299
1007.269531,-13.562761,-16.265461,-8.871819,-8.434489
1007.273438,-10.815859,-11.699342,-16.004341,-11.785806
1007.277344,-15.678846,-14.965606,-8.354395,-14.286866
1007.281250,-14.272532,-6.927253,-10.806077,-10.949413
1007.285156,-3.637368,-6.912685,-6.774587,-7.186449
1007.289062,-10.363185,0.575459,-2.126876,-14.377892
1007.292969,-4.962794,-5.932882,-4.042607,-11.225395
1007.296875,-0.902175,4.221080,-5.088261,1.325458
1007.300781,2.297218,-5.576412,-5.709784,2.606800
1007.304688,6.112220,0.512665,1.442863,3.559460
1007.308594,2.544066,7.949763,12.931697,2.289599
1007.312500,4.016162,3.582832,1.807091,3.987062
1007.316406,8.552384,13.247757,12.322707,8.947796
1007.320312,5.807370,9.823300,13.288967,19.696588
1007.324219,9.292120,6.272951,10.756535,17.654186
1007.328125,19.457992,10.749925,6.672013,10.163706
1007.332031,9.908494,12.663778,14.010505,13.415037
1007.335938,14.228043,1.857805,13.215913,9.161276
1007.339844,7.354512,4.729127,11.242950,7.714947
1007.343750,4.235330,6.421213,2.975465,7.793452
1007.347656,3.944177,6.096815,-1.727221,-11.588680
1007.351562,-6.573339,-7.268501,0.899191,-6.112473
1007.355469,-4.802226,3.220335,-2.949323,0.726182
1007.359375,-5.210868,-5.881355,-6.643085,-3.745100
1007.363281,-12.060073,-8.614658,-12.851279,-6.576879
1007.367188,-10.986540,-11.215024,-11.689049,-11.652855
1007.371094,-5.629016,-15.848916,-4.641223,-6.147779
1007.375000,-12.785400,-7.238894,-10.471295,-6.393520
1007.378906,-12.233533,-14.300251,-8.440732,-6.589539
1007.382812,-9.012035,-7.899707,-3.172510,-12.985805
1007.386719,-7.702762,-3.672575,-10.497839,-2.772879
1007.390625,-2.459185,-7.399632,-3.475401,-3.937197
1007.394531,-3.638559,-9.624961,-5.443894,-1.723717
1007.398438,-3.373386,0.971585,6.055098,-4.562518
1007.402344,-2.221840,3.537026,-7.218723,-0.460448
1007.406250,6.137702,3.366887,1.360286,8.657214
1007.410156,6.589287,5.241962,6.261155,10.960523
1007.414062,7.209230,8.841494,10.579841,5.212560
1007.417969,11.164032,12.312488,10.276498,11.251957
1007.421875,14.945736,11.188465,3.244414,11.779760
1007.425781,14.350304,11.547452,10.018931,6.806293
1007.429688,14.156421,7.568456,12.335060,8.469576
1007.433594,7.457079,7.178204,17.931945,8.646907
1007.437500,7.013719,11.632911,7.144869,13.044864
1007.441406,5.686619,8.613482,3.853983,8.035259
1007.445312,3.778994,11.765424,1.530124,2.685408
1007.449219,1.238925,-2.627187,0.515825,2.197907
1007.453125,-3.953219,-0.593682,0.327233,-4.641900
1007.457031,0.617625,3.821957,-3.541659,-6.112039
1007.460938,-9.925606,-3.043323,-7.821628,-7.869639
1007.464844,-6.779302,-11.917952,-12.617113,-13.884357
1007.468750,-10.763342,-3.943164,-6.353984,-6.309635
1007.472656,-13.014575,-2.384920,-8.753281,-12.833556
1007.476562,0.993225,-8.591873,-6.723613,-9.157289
1007.480469,-12.043039,-6.856612,-6.690817,-18.633142
1007.484375,-15.749958,-4.905217,-9.944163,-7.031328
1007.488281,-2.879152,-2.466121,-3.527637,-6.392869
1007.492188,-7.806429,-7.226855,-2.759469,-5.962287
1007.496094,-7.032206,-10.745521,0.009973,-6.027878
1007.500000,5.360999,4.452534,2.367482,-1.021784
1007.503906,-1.451233,4.421403,7.988099,-3.433569
1007.507812,12.194960,-2.490129,3.550020,7.717210
1007.511719,7.388110,10.242160,7.601671,9.723318
1007.515625,12.569286,6.396123,6.651794,6.407662
1007.519531,6.603361,8.411137,12.452721,3.847559
1007.523438,8.521558,13.976662,14.045454,14.620606
1007.527344,6.639138,9.243376,9.304876,9.916359
1007.531250,11.523772,15.072044,10.850939,12.963836
1007.535156,6.347990,9.888429,5.091221,2.482191
1007.539062,2.800176,5.833222,3.305416,15.174660
1007.542969,7.887537,0.401394,3.157770,9.438595
1007.546875,10.645718,4.233395,1.212622,1.182108
1007.550781,2.798987,-0.171541,-0.906584,-2.036680
1007.554688,2.290303,-1.737730,-4.170154,-2.753218
1007.558594,-5.985359,-6.195088,-5.004523,-7.649310
1007.562500,-13.255984,-10.067803,-5.072345,-9.532392
1007.566406,-5.616433,-10.156729,-10.960977,-14.343889
1007.570312,-9.525347,-14.214954,-13.114537,-14.010926
1007.574219,-10.301796,-12.526392,-7.910880,-11.421880
1007.578125,-10.279289,-4.027295,-15.185278,-10.889479
1007.582031,-14.762396,-16.346222,-13.247403,-9.686694
1007.585938,-9.283278,-11.972166,-3.952651,-2.630000
1007.589844,-7.827488,-5.650436,-14.274684,-13.834578
1007.593750,-4.473117,-5.477634,0.830401,1.679290
1007.597656,1.885503,-8.450793,-0.099754,-0.717608
1007.601562,3.235065,-1.517669,-2.930709,1.944467
1007.605469,7.404369,0.510876,1.213800,7.745270
1007.609375,6.455230,10.036552,6.622449,11.556354
1007.613281,17.281020,3.886058,4.867126,0.880262
1007.617188,0.657712,9.943947,10.593077,11.521983
1007.621094,15.386007,13.829919,7.964808,10.963320
1007.625000,13.911949,3.626794,9.824999,11.490848
1007.628906,6.197199,9.231486,2.625967,6.111789
1007.632812,14.512936,13.144819,10.739653,7.282405
1007.636719,7.143996,10.177901,6.267635,6.108155
1007.640625,4.284110,5.882308,-0.379295,5.731991
1007.644531,7.306616,4.452631,5.228695,-0.007681
1007.648438,3.322509,0.867120,5.774062,-2.431081
1007.652344,2.452560,-3.477796,-6.228157,2.218029
1007.656250,-4.327104,-4.683610,-7.040412,-5.967650
1007.660156,-9.993276,-3.250464,-1.865867,-2.456937
1007.664062,-12.454264,-1.869813,-6.020850,-11.517953
1007.667969,-7.695597,-5.540628,-13.414104,-4.558843
1007.671875,-7.000044,-4.679648,-16.344346,-17.980966
1007.675781,-8.483804,-4.675011,-11.072162,-12.412794
1007.679688,-8.987947,-14.328779,-12.713123,-17.601194
1007.683594,-7.967679,2.437807,-11.046959,-5.513160
1007.687500,-9.851507,-13.256646,-5.384271,-8.520391
1007.691406,-4.363904,-2.848538,-11.335762,-5.627559
1007.695312,-1.515887,-7.790432,-3.378891,0.444970
1007.699219,-0.271346,3.042431,-4.299414,0.701479
1007.703125,-1.630218,-1.960394,-3.010412,-0.672470
1007.707031,2.115912,3.380373,9.272189,6.342915
1007.710938,6.370694,8.973423,0.750496,5.383795
1007.714844,6.237874,9.979131,15.569585,5.701805
1007.718750,6.891294,2.074198,13.038578,7.192494
1007.722656,9.695699,17.266189,5.901420,9.372985
1007.726562,8.711413,2.031826,15.968185,4.016971
1007.730469,10.967892,7.365059,12.776440,7.592391
1007.734375,12.695282,12.361257,8.634929,4.864018
1007.738281,6.868775,9.083191,4.724597,9.562744
1007.742188,6.729817,-2.060795,2.319821,2.482090
1007.746094,5.049468,1.237092,-0.497705,-1.522338
1007.750000,8.218345,-0.062854,1.711647,0.449694
1007.753906,-1.585858,2.349283,-4.506602,-2.141570
1007.757812,-6.864728,-10.631274,-2.820490,-6.892203
1007.761719,0.432517,-13.321321,-2.666625,3.390864
1007.765625,-4.299407,-7.476181,-8.124611,-2.218596
1007.769531,-8.325521,-8.264186,-8.270227,-15.247927
1007.773438,-11.232910,-13.846023,-7.214864,-9.731558
1007.777344,-11.855320,-9.663866,-13.219728,-14.047513
1007.781250,-2.115749,-8.613494,-15.550121,-7.777001
1007.785156,-6.645518,-10.538562,-9.000539,-10.770557
1007.789062,-2.462020,1.472081,-1.907580,-3.262357
1007.792969,-7.507340,-3.261610,-2.918695,-4.595518
1007.796875,-4.220069,-0.048702,-10.523986,1.155421
1007.800781,2.877554,2.987520,3.298271,-0.295641
1007.804688,4.774086,5.015424,0.873660,5.324967
1007.808594,8.239739,4.913663,4.875811,-0.055808
1007.812500,0.951000,3.212425,1.283763,8.684356
1007.816406,9.956284,11.858144,11.695936,8.930107
1007.820312,11.017121,5.590965,9.163088,15.133988
1007.824219,5.869045,5.159187,10.504582,12.195509
1007.828125,12.181309,14.803900,3.983468,14.882647
1007.832031,11.855742,11.926693,7.282466,16.081075
1007.835938,14.852704,11.107617,6.632053,11.535418
1007.839844,4.105017,7.673002,14.440022,9.770900
1007.843750,5.925431,0.482795,5.544614,-4.820326
1007.847656,-4.232328,-0.070348,0.261678,6.266920
1007.851562,3.658852,-3.198656,-0.218524,-5.768634
1007.855469,-8.678518,0.052761,-1.559406,2.127304
1007.859375,-5.660372,4.875536,-6.154359,-13.467183
1007.863281,-8.748923,-2.983204,-9.515188,-7.444032
1007.867188,-10.834216,-5.276968,-11.332651,-11.273565
1007.871094,-21.500280,-9.988605,-6.793844,-13.210338
1007.875000,-8.449147,-3.141975,-14.753340,-14.263232
1007.878906,-6.895675,-5.637862,-11.045979,-6.973899
1007.882812,-8.101321,-12.619867,-11.405185,-16.990583
1007.886719,-6.488431,-4.930737,-5.439941,-10.624123
1007.890625,-3.578949,-1.755300,-9.767812,-3.482151
1007.894531,0.642688,-1.672061,-3.210109,-9.049213
1007.898438,0.451205,6.174012,-1.113340,-10.032773
1007.902344,5.491799,-1.005245,2.811420,9.565100
1007.906250,2.548863,7.054893,1.941482,3.251568
1007.910156,8.855481,4.019269,3.282078,4.635937
1007.914062,4.919587,7.041256,9.233499,8.992262
1007.917969,4.145238,12.189901,6.384043,13.195535
1007.921875,7.456492,6.918159,9.944407,2.265397
1007.925781,8.329310,12.443381,10.180994,9.601416
1007.929688,18.528560,9.958275,11.104628,11.832767
1007.933594,9.226285,7.794339,7.384056,9.796294
1007.937500,7.127913,12.413428,1.593003,5.297278
1007.941406,6.166591,5.623573,1.635552,7.350955
1007.945312,-0.907042,8.883507,4.780596,10.008621
1007.949219,0.369639,1.689363,-3.482694,2.045188
1007.953125,-2.868097,-5.016841,-2.847603,-6.748603
1007.957031,-4.554324,-13.238946,-7.097863,2.614394
1007.960938,-1.831837,-6.721310,-4.389445,-11.099165
1007.964844,-7.338466,-3.852841,-7.482667,-10.957771
1007.968750,-12.635038,-6.443917,-10.802199,-8.257231
1007.972656,-16.872854,-4.702207,-9.368089,-8.224527
1007.976562,-14.331338,-1.851201,-11.230294,-5.578092
1007.980469,-9.252950,-6.412142,2.204270,-13.368129
1007.984375,-5.548274,-5.507525,-12.862706,-13.530185
1007.988281,-11.954210,-9.982635,-9.088121,-10.894366
1007.992188,-3.050200,2.010984,-2.762073,-11.146566
1007.996094,5.362472,0.912164,-7.702496,-1.073940
1008.000000,-0.555585,2.774953,-0.856079,-2.812163
1008.003906,1.947647,6.007997,-2.841918,4.326339
1008.007812,1.133385,2.406509,-3.593871,1.834650
1008.011719,9.050806,10.606011,4.360569,-2.606637
1008.015625,9.360221,9.842846,7.613124,8.071600
1008.019531,14.658337,5.682269,10.461317,10.913080
1008.023438,-0.550728,8.757617,13.296986,12.853752
1008.027344,7.317670,10.634416,12.639160,13.124583
1008.031250,16.233088,0.602384,6.926498,8.072668
1008.035156,12.809235,15.884123,4.502986,9.876240
1008.039062,7.257532,-0.081524,3.081496,7.976244
1008.042969,8.629295,-0.376239,-0.120030,5.280727
1008.046875,1.314831,0.871129,-2.022038,10.810796
1008.050781,-1.812590,3.357464,-2.544631,1.247205
1008.054688,-7.351605,0.910420,-2.110915,-0.698633
1008.058594,-3.373644,-7.877456,-6.272698,-1.021636
1008.062500,-3.870557,-5.439885,-1.908666,-11.378990
1008.066406,-4.742890,-6.858631,-7.548125,-9.170875
1008.070312,-9.690055,-10.958628,-4.780069,-13.368573
1008.074219,-5.136642,-14.497875,-8.477973,-8.835719
1008.078125,-13.912134,-12.009462,-3.442345,-9.338207
1008.082031,-0.963885,-13.437804,-7.744297,-2.359300
1008.085938,-6.835200,-5.296590,-6.838752,-8.918410
1008.089844,-1.535025,-11.627823,1.339622,-5.378245
1008.093750,-3.405358,-3.549030,-3.582817,-5.807760
1008.097656,-1.578079,-5.915544,3.040507,-4.455403
1008.101562,5.708360,6.878622,3.781245,-0.021123
1008.105469,0.820577,0.951341,0.523583,1.168196
1008.109375,9.378799,6.128147,-0.880556,9.901853
1008.113281,12.835000,6.931095,9.731504,1.324134
1008.117188,10.467531,9.873914,10.067730,7.385726
1008.121094,14.571240,10.441527,12.556979,2.464629
1008.125000,8.718100,12.250414,9.434356,15.656570
1008.128906,4.168435,11.613224,7.632640,3.090401
1008.132812,7.521136,8.575153,17.973090,6.441141
1008.136719,9.260028,4.468487,6.512869,6.590594
1008.140625,5.923343,7.331772,3.109624,8.945090
1008.144531,4.397463,0.258429,8.159911,-0.514278
1008.148438,8.535699,7.183450,4.256246,-6.831131
1008.152344,-0.846324,-7.407895,-3.994083,0.608882
1008.156250,-14.112742,-5.298966,-0.706367,6.469347
1008.160156,-5.043901,-10.326331,-10.763755,-6.226229
1008.164062,1.464529,-4.640774,-1.899819,-8.238626
1008.167969,-8.763640,-0.336306,-12.791035,-8.277686
1008.171875,-10.089438,-11.920522,-2.640373,-4.729894
1008.175781,-10.472766,-8.358015,-7.027366,-6.008149
1008.179688,-9.694553,-9.327000,-0.566074,-12.415520
1008.183594,-8.030054,-12.196131,-6.212862,-9.390161
1008.187500,-2.132748,-7.933557,-10.990769,-2.112482
1008.191406,-8.656233,-7.055050,-6.418392,-7.739239
1008.195312,-8.105362,2.289212,-6.940083,1.577164
1008.199219,1.072316,-1.910592,-3.423641,-3.743417
1008.203125,6.827671,10.959840,1.787866,2.680521
1008.207031,7.533034,-0.846812,5.626293,3.132703
1008.210938,4.252328,1.662865,11.902521,5.429976
1008.214844,6.045682,4.189774,13.366208,11.619658
1008.218750,11.227702,6.879953,14.043650,9.734629
1008.222656,6.709956,4.515624,15.603092,10.943441
1008.226562,3.346927,3.657865,11.100885,13.836830
1008.230469,11.368566,7.760185,-0.286489,8.115825
1008.234375,11.236497,9.797700,9.291029,6.253936
1008.238281,7.625679,6.764983,7.085300,12.583946
1008.242188,9.512054,4.682337,4.014562,10.584814
1008.246094,8.722586,-0.998065,7.309005,7.537391
1008.250000,0.620625,8.382034,-2.411145,-2.048102
1008.253906,-2.653664,-1.614310,1.773022,-3.481757
1008.257812,0.090263,-1.450547,-12.135034,-2.356409
1008.261719,-8.810165,-4.492449,-11.283342,-10.804258
1008.265625,-4.500041,-8.346872,-15.732565,-11.057109
1008.269531,-6.355529,-9.285288,-12.541402,-4.611244
1008.273438,-15.669968,-8.977674,-15.849945,-9.031007
1008.277344,-6.089034,-8.047233,-12.420211,-11.584002
1008.281250,-11.704085,-12.833830,-7.249170,-9.479122
1008.285156,-4.330792,-5.335777,-10.908951,-4.553539
1008.289062,-12.348922,-0.992398,-1.736197,-7.106961
1008.292969,-9.201677,-2.860116,-3.633483,-4.388062
1008.296875,-4.603756,4.983832,-7.537987,-1.654302
1008.300781,5.159064,2.351930,0.348283,-3.379041
1008.304688,1.585741,1.291932,-3.001130,6.868432
1008.308594,3.765529,5.708791,0.541433,2.253941
1008.312500,10.777010,4.299416,11.801751,1.826543
1008.316406,11.435449,3.095046,10.221902,4.485203
1008.320312,10.092280,9.883409,3.091523,14.406421
1008.324219,8.269336,9.537361,8.328826,9.424629
1008.328125,1.651914,7.169348,11.574855,4.132924
1008.332031,7.393973,10.746525,13.245365,6.967499
1008.335938,11.984133,4.352647,4.284680,8.123754
1008.339844,-0.648778,7.621066,2.095045,5.015516
1008.343750,-0.359053,-0.812360,-3.663725,5.946431
1008.347656,1.378427,6.488495,-0.709065,-5.059655
1008.351562,-0.353822,-7.071278,-9.496742,-0.357040
1008.355469,-0.971416,-1.338623,-4.015143,1.013716
1008.359375,-5.723822,-5.734894,-7.466373,-12.680252
1008.363281,-3.988414,-6.839666,-6.926018,-7.705029
1008.367188,-13.140393,-10.567812,-5.178082,0.947255
1008.371094,-7.589706,-9.286453,-4.437492,-9.953522
1008.375000,-13.159696,-4.048483,-17.496544,-15.227412
1008.378906,-10.971050,-10.230953,-9.582449,-10.282972
1008.382812,-11.516648,-12.965841,-8.161811,-9.560548
1008.386719,-8.664332,-3.571736,-7.336671,-7.921948
1008.390625,-2.681813,-7.346006,-3.993062,-8.559490
1008.394531,3.867253,-6.197650,-7.967388,-7.789774
1008.398438,3.315505,-4.839595,0.918923,-3.575838
1008.402344,3.334775,-0.314569,0.085526,9.596836
1008.406250,-0.730571,3.705341,-4.221051,4.524740
1008.410156,6.910235,3.054153,14.532975,2.160331
1008.414062,12.494718,6.870027,6.675450,6.551511
1008.417969,7.880649,2.607895,7.320217,6.887195
1008.421875,12.639937,7.880143,12.168038,6.668447
1008.425781,11.993306,12.040586,7.160072,11.160839
1008.429688,16.706680,12.545775,2.910130,14.325851
1008.433594,5.908371,8.524816,8.630337,2.168607
1008.437500,8.070778,2.684176,7.034056,10.370774
1008.441406,16.948857,11.081487,7.679356,5.480883
1008.445312,-0.485908,0.924230,5.642750,2.206959
1008.449219,5.935361,-1.506930,-1.254673,11.262057
1008.453125,-8.594161,-1.087547,-10.479315,-6.045110
1008.457031,-1.470337,-1.354202,-6.168486,-2.117813
1008.460938,-12.153996,-10.239370,-9.138947,-5.654310
1008.464844,1.395651,-10.605556,-15.381760,-12.109161
1008.468750,-10.013535,-7.277546,-9.933594,-14.146196
1008.472656,-12.940227,-9.040615,-5.426990,-10.497384
1008.476562,-10.350368,-16.561651,-2.545284,-16.640336
1008.480469,-6.111232,-13.312972,-11.186939,-7.372827
1008.484375,-8.381359,-8.692868,-8.539872,-3.386856
1008.488281,-3.211672,-7.526871,-5.553806,-6.031898
1008.492188,-5.890836,-0.123564,-3.304675,-3.336281
1008.496094,-1.769899,-10.437978,-4.045154,-0.050698
1008.500000,-3.883614,-1.255481,-3.652555,2.213784
1008.503906,3.204764,4.823760,-1.190807,4.301475
1008.507812,4.177847,13.046643,12.647947,-0.882135
1008.511719,6.073895,11.328615,11.868703,4.699545
1008.515625,7.585009,1.581551,8.871202,14.079524
1008.519531,7.551448,10.559803,6.952723,13.951048
1008.523438,6.732405,14.784417,17.963309,13.979040
1008.527344,14.906253,15.049814,8.269075,3.597158
1008.531250,6.058734,2.651310,13.730452,4.344733
1008.535156,7.273987,13.002262,10.149801,15.002586
1008.539062,-2.382216,10.406143,5.397151,14.178519
1008.542969,1.635656,11.637468,1.249323,4.523138
1008.546875,4.767265,1.982999,7.652081,4.638783
1008.550781,0.407743,3.680878,4.458946,-4.148168
1008.554688,-1.571620,-7.155573,0.598396,-6.847036
1008.558594,-10.254434,-9.191741,-2.583122,-8.112572
1008.562500,-12.171513,-1.663324,-8.879805,-4.599431
1008.566406,-4.324578,-4.248791,-11.423349,-14.172945
1008.570312,-5.855522,-9.136157,-9.877278,-11.517501
1008.574219,-11.645742,-9.716121,-9.684144,-1.515227
1008.578125,-4.406143,-4.016276,-6.688389,-14.036627
1008.582031,-10.918534,-11.820491,-9.385933,-9.159403
1008.585938,-15.779323,-9.742705,-8.546660,-7.440155
1008.589844,-4.253664,-7.995933,-6.004601,-2.767365
1008.593750,-0.210301,-5.833034,-10.391282,-3.204939
1008.597656,-3.618022,-0.053892,-2.807686,-2.736705
1008.601562,0.596055,-0.624246,2.044849,-7.635536
1008.605469,5.358688,5.407254,0.743338,5.555389
1008.609375,-2.497374,10.026037,9.681589,7.139507
1008.613281,9.637311,9.605362,8.070159,4.073088
1008.617188,10.228516,10.374501,12.835294,6.865474
1008.621094,15.185236,17.248323,5.937562,8.987276
1008.625000,9.347058,14.858939,9.978861,6.907719
1008.628906,13.285974,12.940667,16.695765,11.295805
1008.632812,5.841030,11.556183,5.794876,4.331040
1008.636719,10.827835,2.443977,4.901044,6.154985
1008.640625,10.287400,4.008299,4.068409,9.050385
1008.644531,1.056380,-4.165368,3.264445,-0.994229
1008.648438,5.607741,-4.120633,-3.064032,-1.342655
1008.652344,-4.377376,-2.952110,-9.145760,1.414123
1008.656250,0.203682,-4.801886,-7.082293,4.141989
1008.660156,0.656354,-6.736144,-2.324584,-9.033358
1008.664062,-6.609629,-3.246812,-3.638385,-3.662162
1008.667969,-6.249392,-3.980077,-9.252327,-11.746837
1008.671875,-15.905705,-9.724228,-9.202640,-12.413168
1008.675781,-5.804223,-11.460054,-10.128283,-18.322453
1008.679688,-11.896789,-7.613684,-1.895927,-11.822291
1008.683594,-6.186665,-13.362568,-12.147564,-19.251176
1008.687500,-12.627649,-4.576755,-3.435736,-11.685245
1008.691406,-4.762465,-2.645566,-10.658752,-7.010951
1008.695312,1.421095,-6.159587,-10.098427,-6.683596
1008.699219,-3.324352,1.537858,1.231251,2.348958
1008.703125,-3.269862,1.668378,2.251062,3.270837
1008.707031,11.921317,7.487981,-1.376425,5.101176
1008.710938,4.840115,7.882960,-0.038456,3.289781
1008.714844,-0.974235,8.888535,13.409275,5.227323
1008.718750,5.945937,6.112256,9.248075,12.639670
1008.722656,7.078307,8.601064,5.392639,9.932398
1008.726562,5.238423,6.676415,15.252526,14.347587
1008.730469,9.915097,9.163377,15.715978,10.726521
1008.734375,5.748046,7.827370,10.051334,6.028202
1008.738281,5.179562,11.244442,7.519039,8.151125
1008.742188,7.557490,4.290728,3.519121,5.773210
1008.746094,5.730330,-1.072691,6.703414,8.502476
1008.750000,-1.397250,-3.774695,-2.803348,-2.839997
1008.753906,-4.268488,-2.582111,-8.357986,0.352476
1008.757812,-8.051362,-5.914470,-7.994487,-0.342028
1008.761719,-7.763664,0.339066,-5.931200,-3.693235
1008.765625,-3.884981,-7.885485,-10.622702,-5.839683
1008.769531,-15.932070,-8.493452,-19.851849,-14.245536
1008.773438,-16.013787,-12.522988,-9.885959,-13.011497
1008.777344,-15.689488,-8.427040,-7.155895,-9.871811
1008.781250,-8.528444,-1.315172,-8.623155,-12.044005
1008.785156,-6.809419,-7.175672,-11.841585,-14.368230
1008.789062,-7.247574,-1.929904,-9.721644,-1.763532
1008.792969,-1.151098,-1.974708,-6.401720,-10.064444
1008.796875,-2.836525,-2.542097,-2.947000,5.790214
1008.800781,-0.756798,-2.427760,-1.693232,0.082262
1008.804688,6.180819,1.515594,12.484220,3.145756
1008.808594,7.629803,5.182773,8.756567,-1.533821
1008.812500,-1.879809,15.563976,14.223506,-0.722950
1008.816406,11.171068,8.632822,0.077170,1.776656
1008.820312,15.524449,8.218295,11.339274,10.971750
1008.824219,6.592447,12.930002,5.250940,10.371538
1008.828125,12.172162,9.083769,13.629762,7.255985
1008.832031,0.978055,8.464377,6.854346,10.567325
1008.835938,7.905580,6.742194,11.073528,12.751018
1008.839844,5.706707,11.900243,-0.466050,10.675879
1008.843750,1.807833,6.049678,4.330541,6.365358
1008.847656,0.115107,11.264546,0.852853,-5.427337
1008.851562,-3.191544,5.711984,-0.689851,3.878867
1008.855469,-5.658005,3.143623,0.787349,-13.237490
1008.859375,-12.480115,-9.602877,-3.232501,-10.657154
1008.863281,-8.111845,-16.462902,-3.752380,-8.515031
1008.867188,-5.489472,-7.729214,-13.173668,-10.498951
1008.871094,-2.745095,-8.848021,-12.075899,-11.631790
1008.875000,-12.945960,-7.721211,-14.876849,-1.432663
1008.878906,0.247710,-10.451295,-8.721235,-6.626216
1008.882812,-15.994409,-7.870781,-2.936882,-4.970972
1008.886719,-4.127977,-10.799927,-2.015508,-7.483361
1008.890625,-4.813016,1.902296,-8.077358,-4.793483
1008.894531,-1.253662,-5.998235,-9.933653,-0.586589
1008.898438,3.522719,-1.551739,3.135896,-2.383812
1008.902344,-4.557105,-2.167140,-0.638293,1.799293
1008.906250,-0.083840,5.937509,1.747477,3.183735
1008.910156,4.234737,12.282333,3.255229,3.020340
1008.914062,6.387692,4.991556,14.196953,13.528077
1008.917969,8.198953,12.947165,7.938104,1.256870
1008.921875,8.687074,7.426722,8.974166,9.392908
1008.925781,9.719604,5.035111,5.916076,16.337566
1008.929688,3.280250,7.519001,7.289978,4.350804
1008.933594,7.234128,13.996542,10.024447,11.236629
1008.937500,14.520484,9.057549,5.219193,3.561254
1008.941406,6.819474,7.096655,2.181897,8.682073
1008.945312,-0.842975,2.640042,8.261315,-1.477634
1008.949219,3.580666,-0.511212,0.856687,0.229641
1008.953125,-4.799353,0.487851,-1.211651,-0.966285
1008.957031,-4.328684,-12.270440,-4.707364,-5.695624
1008.960938,-13.804699,-6.558532,-9.848945,-12.419561
1008.964844,-8.528395,-8.001924,-5.901549,-9.765366
1008.968750,-9.698704,-11.192831,-11.221210,-17.170173
1008.972656,-3.195388,-6.158044,-9.094507,-6.084340
1008.976562,-11.849330,-11.769879,-6.433348,-12.634468
1008.980469,-7.057229,-7.692550,-6.586434,-10.950827
1008.984375,0.233824,-2.008828,-9.652889,-13.284806
1008.988281,-10.843589,-10.897313,-3.633594,-3.078588
1008.992188,-4.120888,-5.809392,-3.705203,8.975665
1008.996094,-4.157525,-9.864926,-2.885459,-2.086794
1009.000000,4.155258,2.315093,-3.061845,-1.440815
1009.003906,1.000542,3.895956,-0.698064,-4.111282
1009.007812,-0.355340,0.094617,2.764664,0.545722
1009.011719,16.605620,4.465625,14.186407,7.896416
1009.015625,5.658409,6.774259,8.125367,13.421339
1009.019531,11.405337,15.028516,8.769894,9.210476
1009.023438,9.885845,12.037424,11.143624,2.031507
1009.027344,9.200203,8.296676,7.995742,10.257651
1009.031250,7.528850,9.021727,15.517317,14.286373
1009.035156,6.178626,6.840159,5.611031,11.080439
1009.039062,4.896941,6.303107,6.668069,3.615576
1009.042969,6.097869,5.879151,5.652818,5.258196
1009.046875,-3.873253,3.172027,1.299491,3.474716
1009.050781,-2.452443,-1.300088,5.003363,1.988563
1009.054688,-4.418336,-4.886824,-9.137823,0.305447
1009.058594,-0.518892,-6.001308,-3.896335,-8.464905
1009.062500,-5.448470,-8.772535,-11.703069,-6.707435
1009.066406,-6.484023,-3.800371,-11.882724,-0.735219
1009.070312,-7.161576,-13.046327,-10.377812,-12.980664
1009.074219,-6.821865,-6.029315,-16.283753,-14.695892
1009.078125,-11.550871,-9.690628,-12.297382,-17.836365
1009.082031,-6.593333,-4.497446,-7.936983,-16.125458
1009.085938,-4.739148,-12.190310,-3.659030,-12.831942
1009.089844,-4.131701,-4.655691,-6.517006,-6.084334
1009.093750,-7.989643,-11.634074,-5.934926,-2.920487
1009.097656,-5.811900,-4.773263,-4.294176,-9.182513
1009.101562,4.404652,0.144115,-4.535866,0.845662
1009.105469,11.115873,-4.629115,-4.306314,-0.252648
1009.109375,7.141684,0.536186,6.800885,7.827699
1009.113281,5.056751,11.684886,21.679269,6.544450
1009.117188,10.939741,13.640086,11.453987,7.680641
1009.121094,12.775983,9.731152,14.242141,15.580252
1009.125000,14.705030,3.555554,9.601577,14.081917
1009.128906,11.743173,12.820541,9.069821,11.214402
1009.132812,13.423306,9.375920,8.312882,16.927261
1009.136719,11.432498,5.340675,7.914020,9.394745
1009.140625,2.735564,3.948046,0.474604,4.765933
1009.144531,-0.382805,3.537680,1.583952,1.626603
1009.148438,0.721675,6.000223,1.603928,-1.746939
1009.152344,2.714095,-3.988384,-4.242175,-0.634623
1009.156250,4.942971,-4.542200,-6.796017,-11.151442
1009.160156,-0.564902,-7.971006,-3.781463,-0.631423
1009.164062,-10.040035,-3.370375,-4.572868,-11.473257
1009.167969,-9.664738,-10.407842,-10.678694,-11.449936
1009.171875,-15.615708,-9.765816,-17.969403,-2.834150
1009.175781,-13.136781,-8.660162,-1.416988,-10.300150
