timestamp,TP9,AF7,AF8,TP10
1000.000000,-0.928091,-1.118070,2.836480,5.088358
1000.003906,0.676394,0.186556,-2.158184,5.357586
1000.007812,8.502167,5.068322,-4.204882,4.489311
1000.011719,7.857815,4.971978,1.163872,5.771027
1000.015625,10.685248,9.710405,17.173825,7.506942
1000.019531,5.417190,-0.312098,5.161786,3.205077
1000.023438,10.380911,2.816226,13.198698,13.966819
1000.027344,1.664103,8.770865,3.219163,3.263490
1000.031250,14.835367,6.746781,4.742066,7.932054
1000.035156,9.458357,13.351326,6.609281,3.459144
1000.039062,2.193466,7.056762,9.492690,4.381842
1000.042969,3.848953,-2.781127,4.713429,0.203367
1000.046875,2.610406,1.342189,1.297759,8.492944
1000.050781,10.021322,-3.618490,-0.306118,-5.031121
1000.054688,-7.063081,1.548876,-2.698217,4.640409
1000.058594,2.131749,-9.023321,-6.553116,-7.964392
1000.062500,-1.187642,-7.755116,-8.914855,-4.601793
1000.066406,-8.780219,-6.483375,-3.018315,-5.484648
1000.070312,-6.779679,-16.940583,-9.946032,-13.650498
1000.074219,-10.165057,-13.581057,-12.350734,-7.696264
1000.078125,-9.751915,-7.559098,-10.967370,-9.461417
1000.082031,-16.150823,-7.449791,-9.119913,-7.082496
1000.085938,-7.062276,-8.118516,-5.961254,-1.481511
1000.089844,-1.299328,-11.726066,-3.552544,-2.445712
1000.093750,-5.574985,-3.530398,-10.815554,-10.020215
1000.097656,-7.887880,5.677627,-0.967076,-2.522723
1000.101562,7.122254,1.950699,-2.079190,-4.250273
1000.105469,3.772147,5.971026,6.714700,2.359106
1000.109375,2.782984,7.679254,10.823456,7.155517
1000.113281,6.754064,-2.541283,13.215064,3.850962
1000.117188,7.388270,7.184817,10.228300,10.400033
1000.121094,14.443344,9.178363,6.615329,2.541761
1000.125000,9.624671,13.971436,11.711162,3.590098
1000.128906,12.013442,5.285385,1.540676,8.403847
1000.132812,8.215591,13.853069,5.829280,11.954561
1000.136719,10.929815,14.300260,1.897864,7.581201
1000.140625,0.689868,5.271221,3.109223,12.137086
1000.144531,1.319792,5.393096,2.927865,1.218549
1000.148438,8.129536,3.167863,8.719070,-0.898129
1000.152344,-9.171016,-0.494973,-0.685994,-4.015760
1000.156250,-2.340859,-5.432111,0.657140,-2.768234
1000.160156,-9.520441,-13.439619,-0.820351,-14.764725
1000.164062,-9.683980,-11.834027,-6.283202,-9.914001
1000.167969,-9.875203,-11.306228,-0.586374,-6.633241
1000.171875,-12.224837,-11.647847,-16.070207,-12.895536
1000.175781,-8.895039,-11.097430,-7.489136,-4.740024
1000.179688,-4.540109,-5.538120,-11.234701,-12.584731
1000.183594,-13.016090,-16.744319,-13.378122,-6.938814
1000.187500,-0.547465,-3.604255,-9.511843,-5.911315
1000.191406,-8.830430,-4.333376,-5.454913,0.850725
1000.195312,0.010264,-8.882835,-6.518904,-2.980471
1000.199219,-0.191334,2.724499,-2.255112,-1.281063
1000.203125,7.361109,4.038050,-8.982233,7.058749
1000.207031,-0.392770,2.730955,4.049795,0.492914
1000.210938,17.354559,1.736673,1.371773,7.701405
1000.214844,7.439163,9.104166,9.940292,6.742702
1000.218750,7.490040,12.265314,9.984478,9.681393
1000.222656,6.533787,8.337143,7.528153,10.076111
1000.226562,14.012130,13.647916,9.127869,17.492126
1000.230469,8.782756,5.364809,3.022810,7.024715
1000.234375,15.893851,3.697741,12.082358,16.720207
1000.238281,4.711222,-0.501300,1.676874,11.466277
1000.242188,13.654116,1.997956,14.218110,13.213171
1000.246094,2.763822,1.859919,8.118443,-0.069095
1000.250000,-1.263963,2.502343,3.908076,0.280119
1000.253906,-0.533113,-3.190024,-4.041974,-7.988265
1000.257812,-5.147588,-0.438571,4.005150,0.651107
1000.261719,-10.452639,-7.551575,-0.382447,-6.619055
1000.265625,-13.932320,-10.268013,-10.889168,-11.084876
1000.269531,-13.858040,-9.762427,-5.808408,-2.028496
1000.273438,-10.414779,-14.880046,-6.784516,-4.890297
1000.277344,-13.091360,-13.294322,-6.074286,-4.970534
1000.281250,-11.441325,-14.162084,-9.295821,-9.773776
1000.285156,-15.284291,-2.185502,-5.509793,-6.993604
1000.289062,-1.928346,-13.060644,-5.147803,-5.323537
1000.292969,-6.581372,-6.131843,-5.174366,-5.424244
1000.296875,-5.773403,-5.839233,-1.623992,-1.208633
1000.300781,9.125873,5.116383,5.944124,-3.117758
1000.304688,3.941644,3.241970,6.270325,0.915189
1000.308594,5.116722,7.845615,3.907179,9.019758
1000.312500,4.612911,8.919501,3.540660,1.568900
1000.316406,7.269047,5.543478,10.454231,10.502898
1000.320312,13.300775,5.498280,9.395243,6.153425
1000.324219,14.807391,15.543640,3.179868,11.521278
1000.328125,13.647667,8.071276,7.378058,3.908253
1000.332031,11.847586,12.276684,8.364410,15.807728
1000.335938,11.974307,10.726068,10.084423,8.539867
1000.339844,4.997894,4.380100,11.424534,4.008154
1000.343750,10.068949,7.025687,2.885234,5.295707
1000.347656,0.780245,-1.727640,5.650749,-0.797525
1000.351562,-2.225537,0.302317,-5.400979,5.025545
1000.355469,-6.988959,-5.613494,-6.830088,-0.505058
1000.359375,-14.815068,-1.133336,-5.334342,-2.370621
1000.363281,-4.273707,-15.205372,-8.521588,-14.048162
1000.367188,-6.276738,-6.594534,-7.947563,-6.180229
1000.371094,-11.130553,-12.032578,-10.587478,-13.070337
1000.375000,-7.801543,-12.398354,-13.401783,-10.483190
1000.378906,-5.064189,-13.798579,-5.955274,-15.554650
1000.382812,-12.514337,-13.978893,-11.582429,-3.384046
1000.386719,-11.263915,0.255916,-6.868504,-10.020632
1000.390625,4.865524,-13.374612,-6.222706,-1.609427
1000.394531,-7.421357,-4.878891,-2.447763,-3.714935
1000.398438,-1.622758,-3.944575,-6.279341,-6.915301
1000.402344,0.817378,-0.764267,-3.457017,2.583725
1000.406250,6.422435,10.999095,2.392045,2.174157
1000.410156,12.105919,1.967028,5.677185,10.751849
1000.414062,3.893707,4.538053,11.890909,11.272823
1000.417969,11.145325,9.168686,12.855462,9.609038
1000.421875,7.751188,14.234218,8.497430,10.148663
1000.425781,13.623556,10.926560,9.470410,3.867351
1000.429688,7.034798,9.894047,12.937118,10.079972
1000.433594,10.294604,3.468541,13.523065,13.088825
1000.437500,3.997428,6.085957,9.053205,8.770063
1000.441406,-2.878083,6.883999,4.415302,3.395379
1000.445312,4.726133,5.546105,3.036320,1.154536
1000.449219,3.193986,-1.671153,2.071917,-1.271111
1000.453125,-3.519280,-4.030534,0.018336,-1.286266
1000.457031,-1.182928,-0.465422,-3.349717,-5.239522
1000.460938,-8.859058,-13.214425,-9.986433,-11.494350
1000.464844,-5.231412,-3.691967,-7.003772,-10.429993
1000.468750,-14.131593,-4.705662,-14.339368,-12.129349
1000.472656,-1.891819,-7.766014,-11.451308,-12.401379
1000.476562,-13.343977,-4.151156,-12.532314,-5.101747
1000.480469,-12.135301,-13.204385,-8.957309,-12.065337
1000.484375,-3.842623,-8.610457,-10.423873,-8.114796
1000.488281,-1.513797,-4.809078,-9.206853,-13.716573
1000.492188,-7.678932,-7.605880,2.137948,-9.103803
1000.496094,-3.688948,-6.270942,-0.648017,-2.685807
1000.500000,-7.004564,0.606982,0.445452,-0.465131
1000.503906,1.441892,3.054423,3.767394,-4.151125
1000.507812,1.646939,9.850039,6.508378,12.105747
1000.511719,8.453463,1.374717,5.590132,1.392609
1000.515625,10.775977,3.990207,6.830384,7.658633
1000.519531,3.802929,9.721074,17.328247,6.123177
1000.523438,9.146238,8.968518,6.699997,12.820844
1000.527344,10.341067,12.310691,18.349283,10.500084
1000.531250,13.832641,13.005903,14.355831,10.141220
1000.535156,6.159578,5.987670,9.594379,11.099807
1000.539062,-1.021131,-1.486551,9.220929,6.663870
1000.542969,-6.644702,9.750066,6.408036,5.046350
1000.546875,-0.004650,8.004722,-4.249645,-1.865687
1000.550781,-0.519648,-5.002361,6.186162,0.658698
1000.554688,-1.299265,-1.296737,-7.089712,-10.046229
1000.558594,-9.110417,-0.643822,-5.797773,-5.090148
1000.562500,-3.051743,-3.783007,-17.243666,-11.310731
1000.566406,-15.692891,-12.951817,-7.304530,-13.600443
1000.570312,-9.608559,-9.878884,-17.164553,-11.527468
1000.574219,-5.789205,-12.791381,-6.752900,-0.248521
1000.578125,-7.533224,-8.285516,-15.530850,-10.804815
1000.582031,-11.177281,-9.258224,-7.246106,-7.352204
1000.585938,-8.686751,-2.919005,-3.862934,-8.599549
1000.589844,-2.878466,-12.567510,-10.670372,-3.522506
1000.593750,-6.499597,-1.386008,-3.881527,-5.366030
1000.597656,2.236335,4.579849,-0.474477,-4.122796
1000.601562,3.109714,-1.748087,-6.996780,2.084214
1000.605469,7.920315,10.228471,2.204314,5.191031
1000.609375,2.771405,2.582171,12.389461,4.632973
1000.613281,7.634188,11.128523,5.701738,1.605800
1000.617188,12.214882,13.612715,11.241543,4.404130
1000.621094,8.148000,7.762963,8.975531,5.846094
1000.625000,12.655681,9.442843,9.448681,8.303680
1000.628906,10.306576,5.476615,10.161448,6.694760
1000.632812,18.597321,11.899046,8.065047,8.058501
1000.636719,6.169845,8.606496,4.128742,5.461599
1000.640625,3.940869,-4.632400,10.056428,-1.247591
1000.644531,4.165207,7.428084,-0.941834,-1.177611
1000.648438,6.108285,-2.002355,2.448783,7.118277
1000.652344,-1.750223,2.742178,-7.097950,-0.343891
1000.656250,-1.525245,-4.199388,-2.604899,-5.579604
1000.660156,-5.436770,-8.020946,-5.867635,-5.709220
1000.664062,-4.312979,-9.844927,-9.861298,-3.026981
1000.667969,-13.272116,-17.210234,-7.191457,-18.125367
1000.671875,-9.741852,-11.641190,-10.745682,-8.939807
1000.675781,-8.052743,-11.324861,-8.847729,-18.756667
1000.679688,-8.359448,-13.714733,-4.387943,-8.020761
1000.683594,-5.419642,-13.285359,-9.509088,-6.608055
1000.687500,-7.153904,-10.967120,-2.106484,-12.515841
1000.691406,-5.029890,-3.903214,-1.279421,-0.470168
1000.695312,-5.258466,0.686726,1.076116,-4.017029
1000.699219,-2.575680,-0.000465,-2.059669,-6.024849
1000.703125,1.908327,4.342408,1.779886,3.467796
1000.707031,5.445653,10.449182,7.551678,0.524167
1000.710938,6.320789,6.406886,4.068632,11.483001
1000.714844,10.540497,-1.427376,7.059342,9.953619
1000.718750,7.008082,9.014012,6.597183,7.421219
1000.722656,14.624467,13.914976,9.411848,4.370512
1000.726562,1.687925,8.649704,8.049413,13.808604
1000.730469,13.798918,4.517877,7.587329,10.074252
1000.734375,10.335175,9.951896,8.787144,2.137622
1000.738281,10.584267,12.063893,6.835063,10.135070
1000.742188,3.437568,3.605438,0.268139,7.045722
1000.746094,2.342334,3.926036,7.979690,7.184827
1000.750000,5.611790,1.644492,-0.963461,-4.135562
1000.753906,-0.570678,2.670457,-4.074598,-2.243976
1000.757812,-4.592558,-5.248050,-7.515351,-8.475014
1000.761719,-10.732438,-8.661654,-4.508156,-5.832564
1000.765625,-10.460430,-2.264177,-7.786289,-11.948027
1000.769531,-10.978267,-14.406334,-5.985412,-6.092278
1000.773438,-16.237933,-8.786290,-10.494335,-6.499665
1000.777344,-13.808577,-5.900320,-12.107026,-9.693022
1000.781250,-7.565167,-9.800711,-5.636959,-3.832648
1000.785156,-0.643359,-5.473373,-13.277235,-10.190353
1000.789062,-9.415439,-3.813413,-3.771101,-8.424277
1000.792969,-1.572340,-5.104684,-2.630584,-5.827551
1000.796875,2.887814,-10.343617,-2.943328,-0.174348
1000.800781,2.912303,12.772507,-0.943052,1.453255
1000.804688,4.269989,2.910130,-2.458858,0.681340
1000.808594,-1.365412,1.657176,7.305930,8.638193
1000.812500,4.944372,9.556375,6.282691,7.956716
1000.816406,15.513013,8.146356,5.180443,6.990059
1000.820312,7.062642,12.577093,11.049485,14.564151
1000.824219,9.933602,13.578051,12.927820,16.661293
1000.828125,1.711626,7.322823,0.201287,16.389262
1000.832031,11.227796,19.483799,14.752120,15.168217
1000.835938,11.673508,6.307165,7.518419,11.785813
1000.839844,4.069454,4.474783,7.261763,0.368593
1000.843750,6.574669,5.062450,0.975788,4.286098
1000.847656,7.911956,7.759903,-2.094187,7.780199
1000.851562,0.851510,1.316726,0.634606,2.953843
1000.855469,5.140829,1.383075,-4.116212,1.066985
1000.859375,-10.203789,-2.831832,-5.538228,0.158149
1000.863281,-2.468400,-3.753990,-7.802838,-6.649283
1000.867188,-14.996890,-5.492595,-5.841461,-14.121133
1000.871094,-6.134756,-13.701292,-7.767737,-12.868478
1000.875000,-11.765404,-1.838371,-9.541328,-14.181478
1000.878906,-7.354039,-9.707908,-7.227391,-13.067174
1000.882812,-10.532657,-4.797213,-13.936908,-12.897716
1000.886719,-3.406585,-7.024550,-11.182182,-8.077828
1000.890625,-8.606494,-13.631158,-3.163670,-4.541742
1000.894531,-7.667393,-3.271203,-1.694131,-4.925496
1000.898438,-10.859968,-3.493928,-1.518888,3.093726
1000.902344,1.854011,-4.574215,5.566328,3.931256
1000.906250,2.141850,-1.978574,7.845329,7.791988
1000.910156,1.872626,4.300069,2.756160,11.288414
1000.914062,7.555391,14.735612,2.740753,5.823275
1000.917969,13.305198,7.310378,4.681830,9.303332
1000.921875,8.696324,8.876140,11.422834,7.652278
1000.925781,8.542842,6.750258,12.741423,2.353079
1000.929688,9.119666,13.447090,3.869494,7.996266
1000.933594,13.854502,11.636609,0.435668,19.752729
1000.937500,4.811598,3.546692,9.641492,4.934085
1000.941406,5.077997,-1.570741,3.163710,8.428384
1000.945312,11.815368,-0.350953,3.966334,3.991855
1000.949219,-4.023092,0.718018,2.604369,5.027660
1000.953125,5.491873,7.219360,-3.801964,-3.359146
1000.957031,-9.015206,-3.908344,-6.165458,5.003000
1000.960938,0.961179,-11.954569,-13.229166,-1.926920
1000.964844,-6.623350,-0.722391,-9.687056,-5.868357
1000.968750,-9.285673,-14.295933,-12.477258,-10.422859
1000.972656,-13.074118,-10.353459,-10.351959,-13.073491
1000.976562,-9.660566,-9.699591,-13.328372,-24.473646
1000.980469,-11.241485,-13.049210,-0.706314,-4.115419
1000.984375,-9.471827,-12.097020,-9.093045,-9.868207
1000.988281,-3.306764,-12.269323,-9.467775,-7.289680
1000.992188,-3.494833,-0.488261,-3.045139,-8.434657
1000.996094,-5.737728,-0.995901,-1.259593,-2.350263
1001.000000,-0.973349,0.196711,5.200411,-0.602384
1001.003906,-1.007161,4.461025,4.243189,4.224792
1001.007812,2.096430,4.149308,-2.612618,8.361978
1001.011719,11.353488,6.256394,1.051159,3.230613
1001.015625,5.852126,16.377019,9.893572,5.759758
1001.019531,12.184248,4.885635,5.080067,15.340955
1001.023438,9.958144,18.698862,12.996407,8.008101
1001.027344,12.781363,7.259758,7.056913,6.277580
1001.031250,10.093384,16.073987,18.871183,8.456723
1001.035156,3.721731,9.130507,9.341243,2.020468
1001.039062,3.504433,1.849736,-2.031261,7.034859
1001.042969,3.504645,-1.194211,7.085369,3.390200
1001.046875,7.205894,-0.908363,-2.236692,-3.892491
1001.050781,-4.342323,-2.369393,5.660899,-0.113380
1001.054688,-8.502463,-2.489279,3.117106,0.450854
1001.058594,-6.782601,-8.651746,-4.185378,-6.279710
1001.062500,-11.513138,-6.849490,-6.597401,-10.647685
1001.066406,-7.129230,-9.964182,-5.131627,-9.272524
1001.070312,-12.371709,-18.934433,-2.193617,-6.854321
1001.074219,-6.110881,-11.953316,-10.025695,-15.066193
1001.078125,-9.916406,-7.683406,-10.789343,-8.027328
1001.082031,-16.577484,-3.488832,-16.747325,-11.927618
1001.085938,-2.375167,-4.839509,-13.392908,-2.700328
1001.089844,-6.768595,-10.458906,-2.299502,-1.544335
1001.093750,-5.631361,-0.612047,-3.825390,-3.412029
1001.097656,3.657546,-1.548939,0.396046,0.348212
1001.101562,-1.129033,0.375493,0.802400,2.669519
1001.105469,5.850328,0.537450,-0.677801,-3.663618
1001.109375,5.508461,7.988198,0.910783,7.515318
1001.113281,10.849913,6.917976,14.270185,5.923526
1001.117188,15.362687,8.271300,14.689828,6.197527
1001.121094,8.091127,12.069155,14.978537,10.048766
1001.125000,11.216630,4.198695,6.838363,5.105937
1001.128906,10.006314,12.779987,11.673584,6.646808
1001.132812,11.025578,9.962627,9.944741,1.221341
1001.136719,8.681913,5.368849,3.809858,15.608609
1001.140625,17.303905,7.702616,10.419865,6.677156
1001.144531,3.312890,4.386251,6.100295,11.174931
1001.148438,0.956706,9.666457,2.708399,-0.245682
1001.152344,-3.528235,-6.596113,-4.933283,0.264934
1001.156250,1.549297,-9.012258,-6.645553,-1.896833
1001.160156,1.738008,-6.353260,-8.890388,-2.306068
1001.164062,-11.932188,-13.665983,0.591856,-3.672362
1001.167969,-7.993122,2.089960,-12.161043,-15.315148
1001.171875,-10.471960,-11.947545,-6.076103,-10.140568
1001.175781,-5.657135,-8.298195,-6.582382,-11.803135
1001.179688,-10.688871,-6.836965,-10.965702,-2.776882
1001.183594,-9.283210,-4.683925,-9.131795,-6.946469
1001.187500,-10.903499,-11.332566,-8.359997,-4.373911
1001.191406,-7.798810,-5.857463,-11.963817,-1.744566
1001.195312,-4.092264,-6.249040,-7.629654,0.208510
1001.199219,6.366406,-2.041917,-11.607989,-1.684419
1001.203125,-1.744190,4.605018,3.230452,8.468203
1001.207031,2.494211,4.550743,3.194163,4.877322
1001.210938,15.536454,12.455678,11.203096,6.651516
1001.214844,5.836643,13.252814,12.185942,8.561917
1001.218750,9.681659,13.809431,9.648262,9.419872
1001.222656,15.651687,17.470545,11.857645,11.223353
1001.226562,8.452850,8.523121,6.683733,10.300948
1001.230469,7.892467,7.350631,8.535027,10.764434
1001.234375,7.671799,3.392058,10.248340,1.789817
1001.238281,6.926435,5.811963,3.840899,5.551058
1001.242188,-1.084493,8.755308,2.911388,6.678651
1001.246094,-3.325571,-4.586623,1.999006,2.299940
1001.250000,0.483406,-1.287733,-2.746248,-2.109764
1001.253906,-7.631706,1.095211,-2.376686,-1.246065
1001.257812,-9.923831,-3.795468,-10.870782,-6.073177
1001.261719,-3.273823,-8.286549,-11.502994,-6.244019
1001.265625,-8.421726,-4.371080,-11.785589,-15.511923
1001.269531,-7.899950,-7.681160,-11.069145,-6.377310
1001.273438,-16.497057,-14.708176,-14.963751,-6.339815
1001.277344,-10.281230,-7.827000,-0.504006,-7.914239
1001.281250,-8.896980,-10.114020,-13.211402,-1.256199
1001.285156,-0.711895,-7.492653,-2.206787,-7.789900
1001.289062,-1.734621,-6.261130,-7.559922,3.657773
1001.292969,-7.493640,-3.082438,-8.487445,-1.149264
1001.296875,-3.325748,1.710684,-9.407629,2.122869
1001.300781,2.627732,-3.614999,6.348632,0.305383
1001.304688,7.969802,8.764824,1.015563,-4.606236
1001.308594,6.118888,6.622591,5.472493,2.609046
1001.312500,12.382790,5.152750,-2.635953,5.599893
1001.316406,9.218990,14.728270,15.916618,8.331904
1001.320312,5.669104,2.278136,7.124155,15.054287
1001.324219,7.331117,7.074603,8.699077,9.347214
1001.328125,15.868951,9.629310,4.208378,10.092617
1001.332031,15.180122,11.737764,12.905074,4.568809
1001.335938,10.713539,6.516252,6.489538,7.636258
1001.339844,7.640980,6.732349,11.537336,6.054915
1001.343750,-1.408928,2.901895,5.696972,-5.681951
1001.347656,4.926888,-3.933498,2.646555,8.626507
1001.351562,0.238684,-1.734713,-0.895685,-6.971670
1001.355469,-9.572094,-1.486145,-1.059727,-5.597611
1001.359375,-6.293209,0.768863,-11.852307,-10.666204
1001.363281,-4.007284,-12.727211,-5.235501,-10.477208
1001.367188,-6.910654,-10.200514,-9.135200,-9.532126
1001.371094,-14.992844,-11.855100,-6.589695,-14.387552
1001.375000,-12.727023,-4.135658,-6.888431,-5.262787
1001.378906,-13.143572,-4.394176,-5.666006,-11.495507
1001.382812,-6.735969,-11.223793,-7.779324,-6.967365
1001.386719,-3.932925,-6.880253,-10.367549,-11.061440
1001.390625,-7.091469,-10.370867,-10.178858,-10.800419
1001.394531,3.011298,-1.483330,-0.760422,-3.119843
1001.398438,-0.571281,-0.411323,0.526918,0.167011
1001.402344,3.931628,5.942064,5.513265,-3.974734
1001.406250,4.697212,10.435236,-0.015330,-0.259181
1001.410156,6.490277,7.070989,3.163729,5.953052
1001.414062,7.791130,11.985152,8.294841,2.703896
1001.417969,13.558325,11.584355,4.752663,4.605069
1001.421875,17.070003,0.594664,6.089150,7.402923
1001.425781,6.754440,15.512343,10.117329,13.107320
1001.429688,9.671625,10.082391,6.643814,13.255078
1001.433594,0.414255,8.839280,6.243713,19.534045
1001.437500,1.455727,3.368904,8.806555,4.391199
1001.441406,7.707914,1.804493,10.598601,-6.383958
1001.445312,4.741595,1.071530,0.822735,1.587914
1001.449219,6.106435,8.180417,-1.219875,0.039455
1001.453125,-0.896381,-3.495683,-5.129024,2.179012
1001.457031,-6.131630,-3.717398,-2.916737,-9.196856
1001.460938,-6.621718,-6.033859,-7.602883,-9.156934
1001.464844,-6.007134,-10.172884,-3.656116,-4.730511
1001.468750,-9.060481,-5.163359,-8.574129,-7.297830
1001.472656,-13.273098,-14.034747,-7.068186,-9.194877
1001.476562,-4.076238,-11.353273,-11.875020,-11.118769
1001.480469,-1.989238,-7.129075,-4.763071,-7.827526
1001.484375,-6.274051,0.619764,-3.406148,-15.270042
1001.488281,-9.617880,-2.992588,-8.793993,1.235958
1001.492188,-1.831046,-6.945438,-11.495239,-5.170289
1001.496094,-2.957782,0.600085,-6.092133,-9.656576
1001.500000,2.300179,-8.755878,0.698651,-0.885759
1001.503906,3.896392,8.807780,3.989146,6.721115
1001.507812,9.958764,8.348707,-9.736559,6.075862
1001.511719,5.261172,4.008904,3.697151,11.750253
1001.515625,7.634709,6.928718,10.075299,10.499131
1001.519531,9.264115,7.336652,8.307127,6.171115
1001.523438,4.227995,12.779210,13.171150,3.810605
1001.527344,19.974339,7.510449,8.290872,5.981235
1001.531250,12.434762,10.209323,7.203900,4.164414
1001.535156,4.336907,5.156646,7.523172,13.354661
1001.539062,1.567496,0.669662,-0.698613,3.101751
1001.542969,1.564530,-0.518441,3.408572,3.903710
1001.546875,-3.781016,8.795867,3.892843,-3.665274
1001.550781,-0.724196,2.193457,3.725325,-1.491178
1001.554688,-1.870619,1.595807,-2.020729,0.498727
1001.558594,-1.773606,-10.578602,-6.205832,-9.086807
1001.562500,-7.645082,-9.385530,-6.306264,-6.396352
1001.566406,-2.504843,-9.064125,-6.434903,-10.243765
1001.570312,-11.935368,-4.093540,-15.846981,-16.326440
1001.574219,-13.278502,-13.398626,-7.795244,-11.805578
1001.578125,-11.890302,-5.932239,-10.371311,-17.555619
1001.582031,-13.068094,-11.246638,-5.669380,-5.049854
1001.585938,-2.768055,-7.897036,-3.788869,-9.852812
1001.589844,-8.890826,-6.974425,-5.986315,-2.078122
1001.593750,1.435505,0.728752,-5.762542,-4.745822
1001.597656,2.251992,-10.371168,-2.650269,3.433707
1001.601562,-1.795288,-2.957399,-4.842656,2.257868
1001.605469,6.691477,1.854095,4.569898,9.580096
1001.609375,3.608765,9.512037,5.197254,5.764977
1001.613281,1.995695,15.164670,3.441352,8.673656
1001.617188,12.471808,11.197721,7.969618,13.333125
1001.621094,2.378702,6.689815,7.431209,9.192903
1001.625000,5.180039,8.499454,11.446503,9.435702
1001.628906,8.540545,5.940967,10.469362,10.135410
1001.632812,5.118942,7.585392,13.331259,4.782388
1001.636719,11.960136,6.285575,1.460240,5.387384
1001.640625,4.207286,5.023446,8.959866,5.245960
1001.644531,3.773325,0.344466,4.648222,2.473517
1001.648438,0.960250,2.243396,5.361174,-0.286927
1001.652344,4.274514,-4.987909,-3.777998,-1.067585
1001.656250,-5.235153,-2.564004,-2.383293,-9.496237
1001.660156,-8.036604,-9.217092,-8.616449,-6.313979
1001.664062,-10.153922,-11.214274,-4.349530,-9.430055
1001.667969,-6.152312,-4.410990,-5.830131,-9.424486
1001.671875,-7.054909,-13.232230,-16.668920,-5.191384
1001.675781,-11.035128,-6.832734,-4.488364,-4.523239
1001.679688,-14.563935,-5.881094,-15.026667,-12.267359
1001.683594,-15.086996,-2.299653,-10.338635,-6.706818
1001.687500,-4.050965,-1.836259,-7.234064,-5.161813
1001.691406,-7.771578,-4.868774,-1.960192,-1.384172
1001.695312,-8.739951,-5.419832,3.202234,-8.300293
1001.699219,-0.487154,-0.823450,4.731906,4.724284
1001.703125,-2.098545,-2.930070,3.179473,-0.284747
1001.707031,8.016244,8.381517,10.372450,3.529143
1001.710938,14.600949,12.604642,9.534265,3.944624
1001.714844,8.762697,8.079772,2.194030,9.876035
1001.718750,15.922052,15.162704,6.431380,7.197486
1001.722656,8.329823,14.230753,8.154809,6.137418
1001.726562,2.733137,10.947858,9.746026,10.426264
1001.730469,4.332520,14.304984,11.501583,7.306216
1001.734375,10.030742,9.117249,8.010381,3.639451
1001.738281,7.664252,11.188607,-0.329393,9.861276
1001.742188,13.044339,0.149087,10.123939,3.824398
1001.746094,-3.242658,-1.442927,1.677030,-2.772803
1001.750000,4.861670,5.497199,-5.352672,-0.103878
1001.753906,-6.559791,5.957949,-4.855220,-6.709174
1001.757812,-0.774811,-1.177733,-3.237832,-1.975921
1001.761719,-4.093525,-2.106250,-9.680434,-4.519061
1001.765625,-7.703723,-6.887938,-10.436829,-11.202603
1001.769531,-10.478006,-8.694931,-4.291195,-11.779576
1001.773438,-12.353108,-3.965297,-15.545099,-8.268114
1001.777344,-9.974496,-10.158531,-12.931599,-10.361570
1001.781250,-18.444061,-8.709328,-10.858874,-7.221716
1001.785156,-14.451121,-14.314968,-5.464678,-9.455628
1001.789062,-13.923309,-9.459711,-3.739045,-7.695475
1001.792969,-7.495632,4.921610,-8.043258,-4.042790
1001.796875,-6.365822,-1.979245,-1.911588,0.761100
1001.800781,4.525015,1.380688,0.991061,-0.122233
1001.804688,-3.619909,8.727408,4.437159,1.975303
1001.808594,7.608884,5.259689,4.372487,4.693673
1001.812500,-3.388869,6.363131,2.590731,16.045840
1001.816406,16.442651,7.178669,8.261847,6.603906
1001.820312,10.335093,10.428695,13.389750,12.779812
1001.824219,4.588966,14.401803,5.848165,10.414104
1001.828125,3.554464,4.784150,8.803736,8.679994
1001.832031,11.979096,9.202753,3.272706,7.432516
1001.835938,5.125331,8.525040,9.042713,5.219669
1001.839844,10.777785,3.026068,12.293572,10.110536
1001.843750,3.692566,1.244918,3.218443,2.706391
1001.847656,5.367459,-1.447809,-0.914117,4.535788
1001.851562,0.971763,-1.131887,-5.136449,-6.133764
1001.855469,-0.110530,-8.089277,-10.562029,-5.304683
1001.859375,-7.712069,-5.278652,-6.697829,-8.182527
1001.863281,-8.746220,-12.235455,-12.886726,-4.704949
1001.867188,-6.136247,-11.540393,-7.245622,-10.299221
1001.871094,-15.580691,-15.958754,-18.743229,-8.432486
1001.875000,-17.115833,-13.185743,-10.023332,-2.343985
1001.878906,-11.676699,-11.315256,-12.047152,-3.468234
1001.882812,-2.648501,-8.114367,-10.416648,-7.189034
1001.886719,-8.231493,-9.140541,-10.902232,-3.342444
1001.890625,-1.792440,-5.937117,-6.274018,3.402182
1001.894531,-6.494621,-5.024420,-6.470314,-2.766763
1001.898438,-4.069510,-7.649637,-10.956496,-2.107539
1001.902344,2.025641,-3.688404,-2.443673,3.202073
1001.906250,7.657715,-1.156362,8.346648,1.229942
1001.910156,9.412950,8.571533,0.254633,14.838981
1001.914062,13.499322,11.031905,14.132516,11.193133
1001.917969,13.982495,4.604217,3.658722,1.614473
1001.921875,4.803596,11.547112,6.144590,11.087363
1001.925781,15.032695,15.758779,13.220733,6.797468
1001.929688,14.247878,8.137022,7.989595,6.949210
1001.933594,5.729166,10.590980,2.811060,3.089602
1001.937500,3.838363,6.905549,4.605087,7.564979
1001.941406,2.187465,1.020608,7.646583,-3.348938
1001.945312,10.939097,10.515687,3.482064,10.510264
1001.949219,3.994351,5.324237,5.327382,0.424321
1001.953125,-2.104138,1.892369,0.006180,7.159744
1001.957031,-0.050599,-9.501529,-3.334126,-6.790871
1001.960938,-14.970508,-8.649220,-9.208853,-3.747512
1001.964844,-3.013779,-6.913252,-5.286716,-2.655011
1001.968750,-8.298325,-9.070096,-10.091583,-8.178746
1001.972656,-3.129731,-13.320299,-6.355862,-0.056938
1001.976562,-8.318888,-2.980986,-10.381492,-14.916661
1001.980469,-10.961363,-8.704815,-5.207826,-9.261561
1001.984375,-9.608350,-4.022814,-8.785560,-11.208039
1001.988281,-10.449270,-8.460269,-5.386188,-5.106231
1001.992188,-6.988871,2.710108,-1.354290,-5.387896
1001.996094,-3.437104,-6.124103,-8.437980,-5.257821
1002.000000,-5.156463,1.019417,0.043619,-5.865544
1002.003906,1.539423,3.737489,-3.143606,10.201979
1002.007812,1.431092,3.037216,12.130671,-2.387179
1002.011719,11.839280,0.927251,3.549922,-1.050070
1002.015625,9.874833,8.924550,1.824014,5.398765
1002.019531,7.209632,14.374226,12.189199,14.406221
1002.023438,10.427846,8.976444,9.736649,8.161649
1002.027344,12.249078,12.301745,17.514737,18.233662
1002.031250,11.969656,9.447673,5.424948,13.128676
1002.035156,7.724472,1.937710,9.261449,1.642872
1002.039062,4.215196,5.281656,1.627095,0.702574
1002.042969,7.689016,8.979624,0.514692,7.699741
1002.046875,9.075965,0.993274,4.288730,5.420713
1002.050781,11.433237,0.092739,-5.358583,-2.603484
1002.054688,-3.228488,-13.007172,-4.958011,-1.734180
1002.058594,-2.082293,-1.519529,-6.246245,-2.086215
1002.062500,2.245583,-13.642058,-3.764770,-9.336959
1002.066406,-9.898720,-5.913220,-7.559171,-8.556502
1002.070312,-12.653547,-4.159406,-14.554472,-5.421180
1002.074219,-11.668834,-11.446573,-7.650735,-10.669534
1002.078125,-5.011156,-11.997017,-11.202380,-7.640945
1002.082031,-3.221151,-0.169234,-10.194880,-5.838533
1002.085938,-2.504835,-4.315854,-3.801470,-8.958933
1002.089844,-5.792987,-1.739616,-4.181582,-10.184935
1002.093750,-7.442202,-2.422890,-7.330796,-1.848851
1002.097656,-1.278254,-6.484155,-2.759299,-3.820950
1002.101562,2.759322,-0.480864,5.729912,6.006023
1002.105469,9.305069,0.386460,3.329819,-5.027625
1002.109375,-1.163698,-1.289822,0.086936,4.831292
1002.113281,1.168672,14.511254,2.967561,12.101962
1002.117188,10.922067,13.597875,10.233850,17.376654
1002.121094,7.888412,5.581125,3.544159,10.437763
1002.125000,4.910914,13.942288,14.937369,13.195849
1002.128906,9.195419,9.285631,4.713280,1.354183
1002.132812,2.378692,10.906799,6.157970,12.601765
1002.136719,8.587760,6.810243,5.864965,1.967479
1002.140625,8.280630,6.081733,14.257003,9.593045
1002.144531,6.473574,7.169764,-1.012345,4.015888
1002.148438,4.245207,2.678292,-2.063805,0.086497
1002.152344,-3.329454,-1.427485,-6.642889,-2.587965
1002.156250,-6.423190,-8.097547,-0.182816,0.424631
1002.160156,-10.045157,-3.040763,-2.104893,-4.202346
1002.164062,-7.566140,-6.486420,-9.333956,-6.591249
1002.167969,-6.677810,-11.661314,-12.147536,-6.293720
1002.171875,-7.088684,-6.369938,-12.211015,-9.510402
1002.175781,-11.132225,-15.923508,-7.982839,-15.650261
1002.179688,-1.901629,-9.277995,-21.309999,-7.233043
1002.183594,-4.278332,-9.972107,-9.842041,-9.189832
1002.187500,-11.404410,-8.471592,-6.818676,-5.581672
1002.191406,-5.496421,-2.186417,2.306752,-12.459293
1002.195312,-5.806435,0.665507,-1.062283,-2.809692
1002.199219,3.857960,-6.429009,-1.485035,2.186184
1002.203125,4.414109,-0.687078,-7.293413,6.931222
1002.207031,2.435622,4.028707,4.108323,15.239049
1002.210938,6.820021,10.216206,7.268456,3.351565
1002.214844,2.400519,6.720428,6.733092,8.613437
1002.218750,13.670681,14.007814,7.304053,11.782456
1002.222656,12.540843,11.896856,-1.341039,7.718164
1002.226562,9.559786,8.519747,4.436185,6.667174
1002.230469,13.487861,9.859679,10.000660,8.823730
1002.234375,6.582868,9.760034,5.440490,6.207100
1002.238281,7.990411,11.268795,3.651198,12.371197
1002.242188,2.922231,4.707774,-0.054664,6.669897
1002.246094,6.070337,-1.984155,-1.686760,7.466438
1002.250000,7.682365,3.913506,4.828064,-6.026028
1002.253906,-5.806657,-2.336904,-2.204096,-0.172156
1002.257812,-8.937991,-1.290721,-10.223458,-8.092633
1002.261719,-8.265238,-6.082475,-11.023969,-10.174235
1002.265625,-4.042173,-6.223148,-10.477840,-3.706822
1002.269531,-7.877587,-8.339710,-8.126887,-12.023713
1002.273438,-9.949419,-12.918174,-3.252052,-6.818097
1002.277344,-11.251230,-3.453614,-1.221973,-11.622159
1002.281250,-1.031490,-6.907037,-4.482104,-6.958447
1002.285156,-2.978947,-5.692526,-5.606878,-2.398375
1002.289062,-3.379856,-10.810316,-8.159938,-10.390448
1002.292969,-3.142382,-6.267214,-2.629185,-3.020145
1002.296875,-0.409821,0.782933,0.823931,-0.631278
1002.300781,-5.885737,-5.896599,-0.923489,5.367380
1002.304688,9.448918,11.902434,8.172225,1.812512
1002.308594,7.420068,2.750101,8.897874,11.859313
1002.312500,4.902394,5.131387,3.844980,10.153914
1002.316406,10.013693,14.324348,16.681408,11.630298
1002.320312,2.451053,9.477212,14.661340,15.150465
1002.324219,14.899160,5.879965,6.669518,10.188405
1002.328125,10.974454,16.530728,17.036922,12.156282
1002.332031,8.913375,6.619126,11.100536,2.882707
1002.335938,5.738643,2.166526,2.828487,5.092509
1002.339844,7.574770,0.078802,7.040977,6.495759
1002.343750,0.617580,-2.049338,-0.089501,5.656808
1002.347656,4.291137,-0.146241,-2.142999,3.935152
1002.351562,0.428967,-6.000058,1.191199,-0.143026
1002.355469,-7.903826,-2.382184,-3.200886,-2.972932
1002.359375,-1.415809,-12.960916,-6.084193,-2.550425
1002.363281,-12.195233,-9.617338,-12.223888,-9.866139
1002.367188,-6.110166,-6.021533,-4.906620,-10.191802
1002.371094,-8.937606,-16.018454,-6.538128,-7.859078
1002.375000,-14.898008,-1.158354,-8.730345,-8.569092
1002.378906,-11.413369,-13.789521,-4.560868,-9.397566
1002.382812,-9.871281,-5.908423,-12.269545,-6.262393
1002.386719,-2.691324,-2.019274,-5.182886,-6.655303
1002.390625,0.251958,-3.607658,-5.144843,-10.350016
1002.394531,-5.218153,-0.641966,-8.404833,-4.033834
1002.398438,2.724322,0.103170,-2.282528,-1.585901
1002.402344,6.115930,1.351937,2.755814,-3.757608
1002.406250,4.080345,8.568117,0.667608,5.825907
1002.410156,10.625810,5.382357,4.565915,7.180662
1002.414062,0.713772,9.486090,11.558218,10.025305
1002.417969,8.328725,7.868481,6.026051,10.497941
1002.421875,9.308323,5.919718,10.446990,19.897006
1002.425781,13.487789,7.144527,14.534139,4.886823
1002.429688,5.994154,11.551506,9.794478,12.627508
1002.433594,6.503022,4.050050,11.781122,11.480996
1002.437500,7.515417,0.174250,3.596605,4.185760
1002.441406,1.381423,6.769237,4.648269,2.515656
1002.445312,8.142743,-0.376414,-2.625950,-2.998742
1002.449219,3.232327,4.456105,-5.857342,-1.148206
1002.453125,-3.625597,-3.516980,-3.049511,-2.929770
1002.457031,-1.362669,-0.628761,-4.404688,-3.512409
1002.460938,-6.362129,-9.694320,-0.333061,-10.873195
1002.464844,-6.798072,-12.116853,-17.773127,-9.636786
1002.468750,-8.036761,-14.843445,-17.341506,-3.697752
1002.472656,-9.736127,-5.453808,-11.461541,-8.009797
1002.476562,-5.577983,-12.354057,-12.361912,-12.673203
1002.480469,-12.878509,-13.570668,-10.617023,-7.764044
1002.484375,-7.725813,-15.476812,-5.179210,-3.489324
1002.488281,-8.235925,-4.227715,-4.240040,-4.483310
1002.492188,-2.487941,-2.785812,-4.619365,-5.783205
1002.496094,1.395299,-3.193914,-4.005765,-2.933922
1002.500000,0.305391,-5.821158,-8.221785,1.696688
1002.503906,9.870568,2.983949,-1.847254,8.116313
1002.507812,4.024487,1.210406,2.903720,6.512192
1002.511719,5.884140,-5.099790,9.124877,9.372303
1002.515625,8.969447,8.602626,7.422864,9.280292
1002.519531,3.496602,8.554385,12.200970,15.699808
1002.523438,7.367778,9.733397,5.304314,13.091305
1002.527344,17.464035,10.763272,14.067642,6.799625
1002.531250,12.792186,8.709962,8.686708,12.366501
1002.535156,-1.853457,7.730039,12.098519,5.726216
1002.539062,10.093331,0.712458,8.918787,-0.360906
1002.542969,3.773177,4.540990,7.245964,3.744533
1002.546875,-2.446226,2.353793,7.495126,0.140140
1002.550781,-0.106715,-0.017441,5.279799,-2.840533
1002.554688,-8.710937,1.139923,-8.947988,2.718520
1002.558594,-6.239609,-2.819074,-6.241336,-0.702030
1002.562500,-3.510766,-12.912586,-2.290883,-3.988366
1002.566406,-5.612985,-14.325198,-8.031508,-5.870656
1002.570312,-9.247168,-7.925013,-13.567594,-11.867024
1002.574219,-7.430787,-7.016857,-8.238364,-7.496256
1002.578125,-3.488766,-4.133953,-11.102390,-9.629095
1002.582031,-6.541161,-9.153629,-11.723240,-4.827173
1002.585938,-7.643488,-15.862730,-9.119003,-14.709016
1002.589844,-11.337351,-10.226521,-8.882716,-5.714071
1002.593750,-0.724932,-6.872325,-7.763528,-1.118701
1002.597656,5.816931,7.089892,2.893462,-2.047852
1002.601562,-2.760122,-2.211908,-1.286193,-1.508056
1002.605469,7.069728,3.614629,3.227952,8.659110
1002.609375,11.812357,7.147630,1.030040,10.066880
1002.613281,6.901358,6.400189,12.015828,10.822667
1002.617188,3.211657,5.295286,9.021350,7.667441
1002.621094,9.952094,18.255074,6.046574,9.209409
1002.625000,8.579730,10.536461,16.335227,13.105223
1002.628906,9.819901,3.026415,9.909718,8.936453
1002.632812,7.897262,9.417983,8.383218,6.094136
1002.636719,6.208410,3.433987,7.275408,8.555404
1002.640625,4.752266,1.885481,9.409370,12.673365
1002.644531,2.512010,9.045878,-0.616526,5.157505
1002.648438,-5.034847,5.261825,-6.908825,2.222095
1002.652344,2.941846,0.892703,-6.326333,-3.699725
1002.656250,-2.600212,-7.151224,-5.722491,9.283225
1002.660156,-11.455257,-9.877029,-6.033558,-5.089381
1002.664062,-9.781543,0.544054,-9.448576,-4.667640
1002.667969,-8.200184,-10.978762,-12.774485,-3.968915
1002.671875,-10.330326,-9.207379,-4.071624,-8.861404
1002.675781,-7.787328,-3.681737,-15.535196,-12.053079
1002.679688,-13.101037,-1.947466,-7.339413,-13.058114
1002.683594,-8.194734,-3.285588,-4.166793,-7.251161
1002.687500,-5.651967,-4.032173,-10.081679,-5.311104
1002.691406,-12.529102,-2.840188,-12.874199,-10.397061
1002.695312,-7.185612,-4.700178,-0.206128,5.024649
1002.699219,4.758588,-7.620913,0.102275,4.189271
1002.703125,-4.167280,-3.929454,-0.417769,0.384570
1002.707031,3.358151,13.383466,10.678568,2.773560
1002.710938,2.965974,7.698172,5.189156,5.415716
1002.714844,14.337809,4.553939,7.633822,7.577808
1002.718750,11.448244,12.889913,-1.203341,8.995047
1002.722656,11.127965,4.351797,11.938722,7.803712
1002.726562,9.347869,11.215659,13.020544,12.388907
1002.730469,15.956211,7.289203,12.662149,11.868374
1002.734375,12.521296,-2.532995,8.643424,2.389922
1002.738281,7.357740,4.664887,7.500694,8.106144
1002.742188,7.740631,5.652583,12.578209,-0.804297
1002.746094,-0.082426,7.343141,4.702719,0.958616
1002.750000,-1.254823,-5.300166,5.003899,0.177950
1002.753906,-1.103693,-6.390570,-2.299870,-4.315879
1002.757812,-4.498034,-7.922074,-6.182592,-5.628409
1002.761719,-10.784015,-7.220489,-5.922154,-7.606749
1002.765625,-2.715380,-8.965959,-17.607033,-15.862752
1002.769531,-6.679295,-12.860166,-9.702154,-1.286232
1002.773438,-5.525606,-14.360609,-9.418757,-14.452660
1002.777344,-10.499949,-6.584772,-11.025340,-15.303356
1002.781250,-10.084383,-14.337247,-4.011573,-16.358529
1002.785156,-15.134901,-9.157689,-12.507972,-6.603121
1002.789062,-7.213410,-4.418194,-0.968151,-7.068348
1002.792969,-6.104919,-3.326544,-7.317258,-5.198315
1002.796875,1.917354,-3.119925,-6.070736,0.336684
1002.800781,-2.553493,-3.674023,-4.843882,3.096778
1002.804688,6.215903,1.224047,-0.341310,4.333371
1002.808594,7.190871,10.429570,7.948268,4.829254
1002.812500,12.013037,7.006926,4.037369,5.572271
1002.816406,8.866517,14.732338,8.237526,12.206207
1002.820312,8.489998,11.556639,17.974141,9.042952
1002.824219,14.208754,11.194917,11.388722,15.006405
1002.828125,9.069917,15.566683,4.178604,14.356288
1002.832031,7.621735,7.129264,6.753759,14.057850
1002.835938,9.945231,7.789347,5.638604,6.627725
1002.839844,4.299491,6.646602,7.158399,8.548594
1002.843750,6.075583,3.453589,-0.817871,0.944415
1002.847656,9.336238,-1.485066,0.157581,5.513915
1002.851562,-0.408652,-4.314026,-2.689157,3.820199
1002.855469,-2.158129,-5.322283,-10.317143,-4.620676
1002.859375,-6.257271,-5.317161,-2.351039,-6.796000
1002.863281,-6.426203,-4.773444,-10.314937,-7.393347
1002.867188,-6.452952,-8.478091,-3.583592,-5.937413
1002.871094,-15.102387,-11.816741,-9.298114,-7.059538
1002.875000,-11.341627,-17.865685,-7.366698,-11.212222
1002.878906,-9.653457,-4.123861,-11.961922,-9.477144
1002.882812,-10.784662,-8.772180,-5.565451,-4.358176
1002.886719,-14.575445,-2.570805,-10.392606,-8.252264
1002.890625,-10.861543,-5.388931,-3.696074,-9.240801
1002.894531,-6.974692,-7.826719,-4.516723,-8.211094
1002.898438,0.415417,1.467355,-5.953155,-0.308180
1002.902344,0.898340,-1.780677,3.153962,5.334743
1002.906250,-0.473968,0.983888,6.215000,7.460978
1002.910156,8.052561,7.099019,11.461905,3.103633
1002.914062,4.253245,12.019628,12.513027,5.571436
1002.917969,8.557247,8.297239,10.173826,15.195779
1002.921875,20.331363,11.957121,12.079856,14.435701
1002.925781,7.326980,15.819175,17.101085,12.018961
1002.929688,9.959426,7.000986,3.199902,6.620326
1002.933594,7.264854,11.599457,10.601868,17.683649
1002.937500,7.128773,7.915375,7.930727,8.179803
1002.941406,6.232658,8.905272,5.337490,2.352454
1002.945312,10.541772,6.108040,-2.429957,-3.461298
1002.949219,-3.735017,-1.830201,1.791699,4.422602
1002.953125,0.444373,-10.178102,-6.107241,-4.132788
1002.957031,1.696483,-6.116713,-2.080655,-9.079155
1002.960938,-8.294285,-7.983711,-6.810331,-6.432888
1002.964844,-14.378773,-7.969437,-11.677767,-6.471876
1002.968750,-8.926972,-14.779942,-0.910247,-11.734225
1002.972656,-12.846796,-6.258575,-10.931307,-12.506750
1002.976562,-9.685089,-3.528819,-15.077167,-5.045114
1002.980469,-11.648635,-12.523729,-10.827711,-6.690386
1002.984375,-11.008360,-12.918515,-8.899572,-9.745839
1002.988281,-7.412824,-10.680614,-5.092386,-6.624583
1002.992188,-5.187105,-2.309794,-4.495526,-8.019858
1002.996094,-2.353492,1.071917,3.679360,-0.379574
1003.000000,7.135606,8.628836,2.361493,-3.373705
1003.003906,-0.037500,-0.243920,2.262153,-0.509314
1003.007812,5.065630,9.327477,-0.834940,2.613203
1003.011719,6.519550,10.068115,3.945344,3.466000
1003.015625,8.579658,20.075002,13.926262,13.263249
1003.019531,12.085006,9.921732,9.976654,13.156551
1003.023438,1.197191,11.833116,11.603638,12.070340
1003.027344,14.948377,5.985179,6.072818,21.710068
1003.031250,9.817632,4.454247,15.675697,6.126565
1003.035156,3.839021,5.883708,7.665198,10.560961
1003.039062,3.575516,4.357732,5.155868,8.525588
1003.042969,1.316797,0.792840,4.332608,0.088788
1003.046875,-1.063053,0.794192,0.531178,0.572084
1003.050781,1.210936,-9.432733,-2.559698,-1.776208
1003.054688,-0.584538,0.072523,-11.870984,-6.706908
1003.058594,-8.326915,-3.215235,-3.188702,-12.687831
1003.062500,0.590275,-10.451993,-12.221436,-9.379552
1003.066406,-9.911806,-7.569613,-8.251118,-7.847066
1003.070312,-7.845264,-9.849536,-10.078840,-12.417868
1003.074219,-3.862062,-8.063738,-7.610705,-9.801704
1003.078125,-8.265237,-12.292861,-12.251754,-10.138020
1003.082031,-6.039469,-9.986508,-12.741979,-9.220287
1003.085938,-4.476495,-11.301318,-6.692229,-3.670630
1003.089844,-3.051023,-4.889415,-4.791968,-4.926793
1003.093750,-10.383808,-14.113632,-5.315652,-2.003773
1003.097656,-2.159619,-4.407531,-1.429083,-8.068890
1003.101562,0.894121,0.648625,-0.316319,0.761462
1003.105469,6.984048,6.028586,2.883408,-0.508740
1003.109375,10.426621,4.203032,7.471189,1.154667
1003.113281,12.656181,13.213295,3.196819,9.493194
1003.117188,7.810591,8.475028,4.970126,13.045058
1003.121094,11.397328,6.957337,10.156875,15.623027
1003.125000,8.277072,7.935591,10.921975,13.501070
1003.128906,12.931910,4.597799,9.516050,9.788767
1003.132812,14.868769,12.072589,7.511066,7.540936
1003.136719,10.891411,7.200177,5.182181,5.923854
1003.140625,0.890589,2.325327,7.022737,3.934194
1003.144531,5.725631,1.723924,1.921973,6.603694
1003.148438,4.588182,-2.634286,2.708536,-9.057205
1003.152344,3.705157,-2.612044,-3.289965,-7.952832
1003.156250,-1.661634,-4.013601,-6.882471,-6.642795
1003.160156,-7.288258,-10.893217,-6.748069,-8.792204
1003.164062,-7.125846,-12.028139,-4.719191,-11.825523
1003.167969,-8.973301,-7.002431,-16.965937,-6.729905
1003.171875,-8.355910,-5.049084,-11.459816,-14.646664
1003.175781,-6.710610,-11.719756,-9.416546,-18.343009
1003.179688,-10.548686,-9.707089,-12.624608,-0.635648
1003.183594,-6.709367,-11.914321,-8.942232,-13.450628
1003.187500,-6.174921,-3.990334,-9.482466,-3.417416
1003.191406,-10.029556,-10.236735,-11.389475,-7.347871
1003.195312,-1.657076,-2.573604,-0.694049,-5.735470
1003.199219,-0.200428,-5.247845,-2.604337,3.930445
1003.203125,-2.782347,2.790143,-2.104438,-5.253376
1003.207031,9.876074,5.647825,4.336743,6.307359
1003.210938,5.253740,12.429815,8.906666,15.722285
1003.214844,9.869745,7.587778,7.965939,-2.430513
1003.218750,6.160608,11.772047,5.923067,8.252431
1003.222656,10.221929,12.229329,6.509253,10.682121
1003.226562,11.622706,10.683042,12.647041,12.547209
1003.230469,13.158592,15.453123,10.771263,13.643463
1003.234375,8.185004,8.844081,8.771115,5.488607
1003.238281,6.464866,12.050404,2.018913,6.887326
1003.242188,0.763283,-1.278779,4.566162,3.947599
1003.246094,9.678007,-1.934578,8.252150,2.431074
1003.250000,-3.999248,6.556915,1.130497,2.448953
1003.253906,-6.367173,-0.817374,5.413042,-2.433129
1003.257812,-5.185774,-5.893325,-5.463047,-7.767547
1003.261719,-2.661217,-8.000582,-8.493067,-5.681453
1003.265625,-7.266596,-4.015214,-11.720621,-7.907191
1003.269531,-9.419262,-6.393744,-12.990395,-8.299137
1003.273438,-8.625311,-14.533709,-6.425978,-4.508401
1003.277344,-10.160074,-7.433178,-16.335424,-8.986064
1003.281250,-11.524916,-18.189649,-12.776445,-10.414145
1003.285156,-8.378220,-7.014520,-9.983755,-12.099308
1003.289062,-7.198587,-6.789357,-1.344661,-8.320373
1003.292969,-5.489973,-0.518252,4.731618,0.116097
1003.296875,-1.294820,3.540251,-1.611140,-8.905671
1003.300781,-0.619809,-3.656535,-1.573837,12.107248
1003.304688,-1.824558,-5.596387,2.790993,-3.464075
1003.308594,7.637086,3.914989,10.249175,-7.910204
1003.312500,13.211802,3.696870,7.454554,10.765658
1003.316406,8.642278,6.234625,0.762264,4.059150
1003.320312,11.097235,17.537097,5.549129,3.983543
1003.324219,7.329921,4.001273,8.952444,6.751032
1003.328125,11.953422,11.939742,14.811387,14.300275
1003.332031,9.086538,20.068470,7.495939,3.288533
1003.335938,2.801930,11.408103,3.519487,11.055858
1003.339844,3.051254,4.747992,7.537479,9.839056
1003.343750,2.293353,4.757258,3.412728,4.061971
1003.347656,-8.842643,-0.013632,-0.701354,1.534382
1003.351562,-1.165044,-2.195996,-7.010614,-7.563097
1003.355469,-7.512065,1.625945,-3.434383,0.781258
1003.359375,-3.558113,-4.411067,-3.347387,-3.918240
1003.363281,-6.982728,-15.589788,-3.446181,-13.164834
1003.367188,-5.925218,-5.721978,-10.232211,-6.146475
1003.371094,-2.442323,-12.558912,-0.396829,-5.415231
1003.375000,-12.110077,-18.476344,0.787499,-8.684193
1003.378906,-9.586360,-9.630275,-5.241902,-10.217671
1003.382812,-15.982908,-9.194505,-14.044238,-10.216490
1003.386719,-2.020590,-7.998198,-6.367568,-11.131538
1003.390625,-13.664789,-7.353075,-5.543170,-8.560994
1003.394531,2.170333,-2.206977,-9.823597,-12.373502
1003.398438,3.237569,0.318450,1.436744,-6.664689
1003.402344,-0.915783,-6.736732,5.434659,3.875766
1003.406250,4.367417,4.470623,4.881060,1.090209
1003.410156,4.905064,4.471491,5.345580,6.044411
1003.414062,6.563366,8.874393,5.949407,10.061171
1003.417969,12.323488,8.386390,14.420807,12.528796
1003.421875,10.082634,9.127512,10.099095,6.197257
1003.425781,13.442743,10.753979,6.455437,8.168738
1003.429688,13.994399,4.513704,6.985730,2.188325
1003.433594,9.180658,10.904339,6.727182,14.771997
1003.437500,9.862098,-0.892481,7.500720,7.797116
1003.441406,11.201628,5.894138,6.510020,3.480748
1003.445312,-2.106622,3.247874,6.963484,6.661521
1003.449219,3.718238,-0.458796,0.845685,7.346333
1003.453125,0.683967,-3.196780,-0.332965,1.501887
1003.457031,-12.075888,-10.428628,-1.826857,-8.043598
1003.460938,0.437438,-6.720133,-5.435499,-4.222678
1003.464844,-13.353417,-6.903893,-15.011819,-7.697126
1003.468750,-9.452304,-7.744594,-8.988655,-16.408373
1003.472656,-9.412669,-12.732024,-9.000641,-13.786304
1003.476562,-8.531707,-2.676440,-12.549309,-6.938906
1003.480469,-10.690703,-12.562451,-11.660115,-5.363244
1003.484375,-14.337457,-10.145724,-7.018999,-2.650580
1003.488281,-9.035033,-6.804386,-8.323380,-5.026457
1003.492188,0.533518,-4.392179,-5.779575,-12.029166
1003.496094,-5.417165,3.603246,-9.262131,6.401518
1003.500000,4.421866,-4.747109,-2.438077,15.780768
1003.503906,2.015548,4.041168,4.435122,9.667119
1003.507812,0.843207,7.955083,4.421593,5.103203
1003.511719,3.299495,4.464229,11.765147,1.215513
1003.515625,3.781018,6.311935,8.311196,7.729270
1003.519531,8.833468,5.666734,4.704372,0.885533
1003.523438,10.856564,4.886700,13.582957,19.032554
1003.527344,11.467837,10.284317,9.423921,5.877568
1003.531250,9.673693,9.475532,11.557992,17.274086
1003.535156,4.794871,12.082348,3.196308,2.110860
1003.539062,5.012227,5.621879,9.826632,2.373089
1003.542969,6.725586,7.111370,2.418247,4.137445
1003.546875,-0.506673,7.596119,-0.831733,2.318935
1003.550781,-1.747738,-1.906399,1.013428,0.601638
1003.554688,-2.752710,-1.382801,1.073779,-0.119096
1003.558594,-3.606791,-14.915896,-2.822890,-6.077602
1003.562500,-0.573950,-4.396930,-11.838353,-7.223890
1003.566406,-10.727456,-4.695085,-12.431285,-4.912409
1003.570312,-10.851842,-8.498468,-13.638535,-12.798080
1003.574219,-10.820084,-3.490836,-8.816560,-22.087768
1003.578125,-12.983824,-6.639814,-9.790330,-3.451058
1003.582031,-7.977180,-4.004703,-8.813742,-10.035811
1003.585938,-5.239071,-9.938295,-13.304627,-0.968610
1003.589844,-9.658974,-9.659967,0.599215,-5.167475
1003.593750,-1.329262,1.425421,-10.594287,-3.232450
1003.597656,1.481859,-4.869756,-1.241929,5.193280
1003.601562,3.473010,5.392918,-3.745371,-7.389610
1003.605469,5.327866,-3.114036,9.689515,1.848897
1003.609375,10.049349,12.924450,6.691870,16.791021
1003.613281,8.255771,2.909791,4.109045,8.207589
1003.617188,6.945292,12.574736,2.954017,6.484111
1003.621094,6.834649,12.127901,13.266366,8.987664
1003.625000,7.848397,9.671959,4.340815,9.535932
1003.628906,13.376835,8.387372,5.411828,13.172699
1003.632812,9.103093,3.452802,5.019474,6.879928
1003.636719,11.749668,9.212111,9.136287,5.811224
1003.640625,-2.969537,8.972380,-0.187689,-0.755839
1003.644531,6.651584,5.061891,3.992708,5.281037
1003.648438,6.692391,0.233760,2.942046,1.991634
1003.652344,-4.065156,-2.711262,6.173350,-4.435051
1003.656250,-3.620676,3.890125,-2.144687,-11.883424
1003.660156,-11.840868,-8.422808,-8.555803,-11.414602
1003.664062,-8.016300,-0.334092,-6.361104,-7.213047
1003.667969,-17.235571,-4.681761,-10.472214,-16.536355
1003.671875,-16.411486,-19.135369,-11.310926,-10.758305
1003.675781,-9.257850,-15.258282,-18.054742,-14.573713
1003.679688,-9.005124,-7.705520,-0.933437,-11.733689
1003.683594,-6.804931,-11.374562,-10.813436,-4.104886
1003.687500,-13.791805,-7.054850,-8.912698,-1.213059
1003.691406,-3.527860,-9.395347,-3.780276,-4.340712
1003.695312,3.573886,-9.543920,-1.981846,5.754089
1003.699219,2.168446,-6.111080,6.021080,-0.374668
1003.703125,-0.821181,-1.046743,6.774506,4.916241
1003.707031,5.407692,5.531031,-0.659207,-0.443313
1003.710938,4.820914,14.800550,-3.867580,12.548071
1003.714844,6.162714,7.104549,8.310365,10.850049
1003.718750,8.641631,9.083376,15.500616,6.953913
1003.722656,3.228595,7.313061,7.183721,7.770502
1003.726562,8.611630,5.912916,5.478626,7.951552
1003.730469,1.614339,12.850834,10.804473,11.478118
1003.734375,7.837858,8.147678,14.858675,10.905704
1003.738281,-0.696627,6.624880,8.101599,7.334469
1003.742188,9.506108,5.771875,1.845391,0.179191
1003.746094,-2.566985,-0.400345,5.023279,4.638842
1003.750000,0.649649,-5.324656,2.888936,-0.000378
1003.753906,6.302657,0.473373,4.106333,-5.071938
1003.757812,0.427649,-10.485199,-0.260750,-4.223584
1003.761719,-2.440025,-4.188850,-10.962940,-5.925108
1003.765625,-11.141966,-8.867817,-2.920989,-11.668037
1003.769531,-15.121343,-11.211738,-6.639637,-13.543796
1003.773438,-8.837745,-9.221243,-16.150421,-6.949373
1003.777344,-4.542609,-9.705858,-7.483960,-11.039222
1003.781250,2.467164,-12.483567,-13.197053,-11.759093
1003.785156,-12.897040,-7.588903,-13.682287,-2.282547
1003.789062,-3.146354,-11.112987,-15.556229,-12.037165
1003.792969,-14.028989,-2.247375,0.637892,-6.276489
1003.796875,2.352095,-9.547169,-6.487700,-10.341078
1003.800781,5.299462,0.124065,-3.340798,4.541955
1003.804688,1.853566,-9.850179,-0.734825,14.174867
1003.808594,5.451377,9.211730,7.157663,1.300004
1003.812500,10.694606,5.009334,9.905699,12.505380
1003.816406,10.642445,11.318817,10.157063,6.780170
1003.820312,8.759292,12.609786,11.959930,16.752309
1003.824219,9.445048,10.511446,7.666586,11.440408
1003.828125,12.850084,9.779549,6.855721,4.266489
1003.832031,9.862460,10.065296,2.389835,4.703977
1003.835938,6.312031,8.789268,12.412485,6.784568
1003.839844,11.150022,11.585105,9.703808,5.941270
1003.843750,1.590421,2.031753,1.165930,7.917998
1003.847656,1.771385,8.695493,8.900871,-0.213353
1003.851562,4.358389,-8.163162,5.737861,-1.403985
1003.855469,2.358383,-6.211339,1.948156,-6.584338
1003.859375,-2.969504,-11.016312,-3.484777,-5.215294
1003.863281,-10.317234,-5.114626,-8.928741,-9.875616
1003.867188,-1.227771,-7.404816,-3.455511,-9.595162
1003.871094,-2.941761,-5.222418,-11.225380,-5.063495
1003.875000,-3.025150,-16.063073,-9.969787,-17.573266
1003.878906,-6.379446,-9.899820,-0.804358,-11.718863
1003.882812,-7.849025,-10.034466,-8.609818,-5.295436
1003.886719,-4.223347,-13.091392,-5.710573,-4.875553
1003.890625,-1.901331,-9.301445,-11.414598,-10.360415
1003.894531,1.950294,-6.002187,4.149478,1.544652
1003.898438,-2.291563,3.409245,2.074358,0.773704
1003.902344,3.867586,0.129293,0.394111,1.800641
1003.906250,12.097287,0.939856,5.568705,-0.758307
1003.910156,4.944682,6.535995,5.479724,2.029899
1003.914062,-2.095992,6.334716,3.735740,17.980876
1003.917969,16.041254,5.944096,9.619627,4.803572
1003.921875,13.831378,12.998237,14.096666,2.772619
1003.925781,5.807896,9.858489,17.451591,6.099101
1003.929688,9.339744,7.153270,15.180973,10.046990
1003.933594,5.132379,8.410602,4.763588,8.773890
1003.937500,10.284190,-0.616272,5.126313,10.595702
1003.941406,10.271374,4.155172,2.976809,2.057529
1003.945312,-5.134567,3.095767,-1.260123,5.123847
1003.949219,-3.291043,0.533520,2.265224,1.899396
1003.953125,-2.722815,-2.741211,1.558525,-4.630720
1003.957031,-5.251055,5.361808,-3.388508,-4.725789
1003.960938,-6.574398,-5.756179,-4.650047,-13.954886
1003.964844,-6.693996,-4.577447,-0.215922,-9.333852
1003.968750,-10.228568,-6.707610,-8.249290,-13.645126
1003.972656,-11.952481,-12.600290,-5.889332,-16.917010
1003.976562,3.521307,-11.138613,-6.379040,-8.716959
1003.980469,-12.648976,-13.300165,-13.938935,-6.670892
1003.984375,-15.890594,-11.796471,-0.412597,-6.638474
1003.988281,-5.221800,-8.642717,-0.148689,-10.197856
1003.992188,0.899924,-6.873350,-6.137756,-2.408647
1003.996094,-7.972588,2.287932,-4.338427,3.151779
1004.000000,-1.592774,1.989549,9.207835,-6.064110
1004.003906,2.893238,6.110967,7.904454,8.837609
1004.007812,4.053983,1.018700,6.351557,8.306765
1004.011719,5.244316,14.128924,5.102670,4.400107
1004.015625,3.898585,5.850169,9.309809,9.889880
1004.019531,5.506702,8.018350,8.514750,14.953342
1004.023438,4.633409,9.740931,7.600101,8.869381
1004.027344,6.087115,14.450575,16.681756,5.727178
1004.031250,10.695431,8.889839,13.823780,9.728289
1004.035156,5.808892,10.126359,8.531399,8.031381
1004.039062,3.138201,7.632950,9.508724,5.160845
1004.042969,2.885141,1.032157,-3.558392,6.979411
1004.046875,2.363206,6.192802,5.034351,3.809778
1004.050781,-3.046808,-0.724408,-0.512526,1.544413
1004.054688,-3.602055,-5.746966,-15.014869,-3.704685
1004.058594,-4.515395,-5.308707,-6.658802,-3.132182
1004.062500,-3.392043,-6.585710,-4.281737,-10.826557
1004.066406,-5.365710,-0.680452,-12.994261,-4.489485
1004.070312,-6.806492,-8.924115,-14.319693,-10.112032
1004.074219,-6.498822,-12.175433,-9.629803,-13.076870
1004.078125,-1.532169,-9.691494,-10.619595,-7.290383
1004.082031,-9.110372,-9.156152,-9.964403,-17.196488
1004.085938,-8.063508,-9.695543,-7.113793,-7.185621
1004.089844,-7.540221,-9.137975,-2.642901,-6.221953
1004.093750,2.085154,-2.348580,-5.040674,-1.515057
1004.097656,-5.545409,-8.457966,-7.008942,-0.694487
1004.101562,5.025439,0.631687,3.909939,8.517901
1004.105469,3.470167,5.894243,-0.594376,3.316213
1004.109375,8.126103,9.810820,2.258722,-1.879929
1004.113281,14.829743,9.948110,13.354077,4.860123
1004.117188,8.054812,9.057699,12.860409,2.978851
1004.121094,10.091587,11.581340,13.282122,12.149943
1004.125000,-1.913451,4.460858,5.325643,10.399854
1004.128906,11.438987,5.428016,11.503886,17.386305
1004.132812,0.055763,2.760280,4.445699,4.622168
1004.136719,5.810972,7.223537,3.765049,7.570692
1004.140625,3.402921,4.716366,3.272172,6.222080
1004.144531,8.872186,10.855418,4.259508,9.304788
1004.148438,1.625739,5.674016,2.079108,2.082480
1004.152344,-2.372337,2.180904,0.727268,-7.843951
1004.156250,-3.846942,-3.639922,-5.577286,3.229214
1004.160156,-7.691331,-8.270274,1.754059,-1.682501
1004.164062,-9.926774,-8.881912,-8.529207,-16.999642
1004.167969,-8.366075,-8.200687,-9.036746,-12.850824
1004.171875,-11.436475,-15.976204,-5.634788,-3.882907
1004.175781,-12.287178,-8.754062,-9.855454,-8.227395
1004.179688,-12.196951,-8.404789,-10.787512,-13.991698
1004.183594,-7.991072,-13.023608,-14.810532,-5.442901
1004.187500,-12.484739,-11.669875,-2.848114,-2.138054
1004.191406,-8.050257,-2.406675,-9.155178,-10.907179
1004.195312,-7.392929,-2.814073,-9.898950,-0.601498
1004.199219,6.426168,-1.146704,4.116202,-0.466633
1004.203125,2.194951,1.692724,7.791114,4.159983
1004.207031,10.291535,-1.859962,10.049088,-0.615380
1004.210938,9.146060,5.676719,13.979182,1.568950
1004.214844,9.136645,9.614509,16.715890,-0.231654
1004.218750,6.941433,7.553118,9.794944,8.951048
1004.222656,12.327918,8.577151,16.083654,16.022603
1004.226562,15.306396,7.583611,10.723809,8.308282
1004.230469,10.662652,10.160883,2.666922,10.142344
1004.234375,14.280715,13.090776,14.543731,10.449744
1004.238281,7.513816,7.758961,10.236545,2.525984
1004.242188,10.142855,-0.485678,0.592383,7.130989
1004.246094,1.062109,-2.068834,1.111248,8.436498
1004.250000,-3.407250,-0.373686,5.657143,5.307280
1004.253906,-3.790954,-6.293501,-1.607626,-3.167605
1004.257812,-8.346387,-4.489451,-4.378272,-10.408964
1004.261719,-9.467261,-13.520119,-8.976272,-7.595490
1004.265625,-13.181586,-1.536079,-5.357691,-14.138918
1004.269531,-9.035465,-17.049563,-6.872467,-9.516892
1004.273438,-6.366123,-8.476275,-6.314249,-12.072598
1004.277344,-17.535035,-13.438307,-4.206037,-13.837078
1004.281250,-7.882578,-22.046573,-15.028939,-13.190114
1004.285156,-4.004609,-16.631634,-9.517967,-10.627397
1004.289062,3.192441,-4.069829,-0.707853,-7.299282
1004.292969,-3.543295,-8.053200,-6.917270,2.278908
1004.296875,8.807822,2.822460,1.217956,-1.553499
1004.300781,1.351805,-8.032972,-4.215841,4.366502
1004.304688,-0.522347,2.725624,4.369668,10.516235
1004.308594,5.786328,2.739756,6.407429,5.246765
1004.312500,5.142116,8.710516,5.925908,7.046123
1004.316406,3.361739,10.446489,17.139398,10.812290
1004.320312,13.612449,6.446260,12.766791,15.154378
1004.324219,11.686238,20.276895,9.885441,7.837325
1004.328125,7.848692,3.613734,10.660903,9.523132
1004.332031,9.848056,20.864072,12.497383,5.446048
1004.335938,4.191038,5.469991,11.376014,8.216860
1004.339844,8.371167,8.373484,12.084619,4.554559
1004.343750,0.954550,9.963806,6.186013,12.548279
1004.347656,0.972782,0.575641,-4.522886,-0.628644
1004.351562,-5.313735,-1.719637,-3.721255,-2.617040
1004.355469,-4.385061,-0.349781,0.309395,-7.790382
1004.359375,-10.058967,-9.289363,-7.941887,-8.051951
1004.363281,-15.034709,-11.164541,-8.834298,-12.402284
1004.367188,-7.685946,-11.538085,-8.268635,-8.751413
1004.371094,-13.262902,-6.680329,-4.971978,-12.000332
1004.375000,-18.950411,-8.805115,-11.448285,-12.311396
1004.378906,-20.508168,-6.512510,-16.499591,-14.678734
1004.382812,-11.014349,-4.917457,-6.230022,-13.289036
1004.386719,-3.334167,-11.104202,-4.370808,-7.872911
1004.390625,-0.576873,-2.089978,-5.193407,-5.808662
1004.394531,-2.875729,-4.535400,-9.971750,-1.180163
1004.398438,-0.254764,-3.546806,-2.559679,2.479760
1004.402344,4.457645,-3.775734,9.109139,0.472913
1004.406250,1.708835,6.335067,3.921638,8.254911
1004.410156,1.729447,5.177522,14.047189,12.748215
1004.414062,3.222720,7.999682,3.059468,14.807589
1004.417969,10.873116,13.386593,10.337485,10.385391
1004.421875,10.000037,10.946545,12.114408,7.069700
1004.425781,10.741649,7.817790,1.541300,11.762149
1004.429688,9.775608,14.662810,6.146890,3.060188
1004.433594,14.373718,7.391471,11.664992,7.618551
1004.437500,10.278381,12.283158,5.236551,4.773800
1004.441406,0.275835,4.659633,3.277942,9.347706
1004.445312,4.432926,1.847464,-1.608057,9.987670
1004.449219,-3.999149,1.038842,4.788277,-1.076678
1004.453125,-1.915526,-6.950661,1.245521,-7.893863
1004.457031,2.527680,-1.094780,-4.259250,-0.130709
1004.460938,-11.685963,0.756765,-1.849350,-4.819981
1004.464844,-8.554254,-12.724126,-9.509699,-5.367190
1004.468750,-4.996663,-7.317509,-11.061600,-13.146086
1004.472656,-11.973302,-7.867177,-11.815182,-9.991319
1004.476562,-10.908094,-10.390484,-13.724760,-7.714400
1004.480469,-1.685410,-6.758087,-9.885303,-14.664441
1004.484375,-3.096543,-3.098778,-8.034004,-4.885574
1004.488281,-3.863317,-10.678743,-0.804147,-2.739952
1004.492188,-5.409749,-0.792788,-6.815796,-16.702228
1004.496094,0.822330,-3.845491,-8.731994,4.691235
1004.500000,2.284820,-3.183241,-3.541212,-3.767033
1004.503906,5.397799,2.065409,-0.518525,-4.674356
1004.507812,1.726839,8.203999,5.985244,7.946640
1004.511719,13.722470,6.036209,3.814447,9.619293
1004.515625,11.764370,5.020560,3.602516,10.443513
1004.519531,3.674921,6.303181,3.383004,8.123979
1004.523438,14.078434,13.468727,15.576828,11.268690
1004.527344,7.180667,7.184302,5.198890,2.434779
1004.531250,9.335557,5.840734,12.212898,4.904122
1004.535156,6.485283,3.102277,5.934055,14.829314
1004.539062,8.791505,7.845437,7.396646,7.306074
1004.542969,4.094913,-3.565508,-7.565056,7.574116
1004.546875,4.083215,-2.819768,1.692857,5.479002
1004.550781,-1.477491,-0.264655,-5.346632,0.024331
1004.554688,-9.254514,-1.193159,3.678436,-7.406027
1004.558594,-3.937860,-7.780827,-4.584196,3.757036
1004.562500,-8.412720,-4.303900,-4.183515,-2.410769
1004.566406,-16.350819,-7.966293,-10.230180,-13.187009
1004.570312,-6.921168,-14.537248,-3.981193,-11.991458
1004.574219,-7.771943,-6.197316,-8.021775,-8.441963
1004.578125,-5.729309,-7.917008,-13.598997,-17.935895
1004.582031,-10.520441,-11.417825,-13.119004,-14.351265
1004.585938,-9.966691,-5.316186,-9.118199,-4.390644
1004.589844,-0.974439,-9.678612,-2.122782,-2.721637
1004.593750,3.957611,-5.203340,-8.337015,-7.262966
1004.597656,1.884904,1.713619,0.552402,1.151726
1004.601562,2.610563,0.330769,-2.247015,7.365820
1004.605469,-0.796741,0.286497,1.908159,-0.751527
1004.609375,6.386919,-3.117771,10.489422,6.595091
1004.613281,6.056071,11.517414,-1.198104,8.088703
1004.617188,7.655383,15.426869,13.775983,13.334840
1004.621094,9.678515,8.076116,5.812138,12.340454
1004.625000,15.617415,15.326511,11.819466,9.645771
1004.628906,5.667976,13.563957,24.730205,7.078553
1004.632812,11.054258,7.161659,11.041647,6.225054
1004.636719,6.155540,5.116181,5.778213,2.042620
1004.640625,2.561076,7.168656,10.799658,5.828963
1004.644531,2.849660,7.879329,1.885176,5.067328
1004.648438,-6.838431,3.741934,3.981987,4.664084
1004.652344,4.424723,-6.181782,3.666225,-1.728320
1004.656250,-1.486185,-9.900491,1.915404,-0.503726
1004.660156,-7.496100,-5.765962,3.297792,-5.805026
1004.664062,-10.127403,-14.396882,-3.955976,-9.391852
1004.667969,-6.767635,-7.777638,-7.718042,-1.088874
1004.671875,-8.201393,-6.751958,-9.663744,-5.553418
1004.675781,-10.327379,-9.105096,-4.706552,-6.305313
1004.679688,-16.727930,-5.187835,-3.097327,-11.334151
1004.683594,-11.850019,-8.483107,-12.284053,-5.311938
1004.687500,-4.856200,-5.993511,-9.458967,-9.272625
1004.691406,-3.041653,-8.325890,-5.664873,-0.990354
1004.695312,-2.291767,-3.492086,-13.012130,-6.460998
1004.699219,0.862340,3.652211,6.719281,-4.672676
1004.703125,6.882908,4.504075,9.124045,-1.269353
1004.707031,-4.208796,1.542824,8.850997,5.578232
1004.710938,6.374053,7.660510,6.040114,3.382727
1004.714844,9.922212,10.216893,7.720952,10.110680
1004.718750,14.262471,6.496476,12.473933,8.812886
1004.722656,14.003503,9.307276,12.999644,12.598595
1004.726562,8.832663,12.772740,14.850101,10.170476
1004.730469,11.423386,9.229931,14.821387,6.247052
1004.734375,12.562038,11.444667,10.302206,11.090566
1004.738281,10.537691,3.223040,-3.435337,3.936341
1004.742188,6.313979,4.134855,8.824295,7.895103
1004.746094,-5.218864,6.380886,5.023978,5.958895
1004.750000,2.801699,-1.438575,-0.434761,1.415159
1004.753906,-5.900770,-6.788092,1.705745,-2.706566
1004.757812,1.555974,-2.444403,-5.951163,-7.905079
1004.761719,-7.389266,-10.677133,-6.913524,-2.597224
1004.765625,-10.339877,-7.909956,-8.040378,-10.156174
1004.769531,-7.028952,-8.052689,-9.717873,-12.303262
1004.773438,-14.443570,-10.625442,-6.358506,-4.868613
1004.777344,-10.323569,-8.723432,-8.166088,-19.077583
1004.781250,-7.055775,-2.722143,-8.621328,-7.376670
1004.785156,-10.153068,7.365859,-9.786942,-10.001042
1004.789062,-10.458243,-3.459173,-6.273775,-10.294376
1004.792969,-7.182224,-1.010700,-6.465223,-7.697720
1004.796875,3.268507,-1.035960,6.564376,-1.880557
1004.800781,0.639028,-1.001285,2.621706,5.144933
1004.804688,-1.023452,-1.620612,3.384729,7.821195
1004.808594,8.971981,3.492563,14.469073,8.782368
1004.812500,-1.343157,11.289520,10.497781,0.618791
1004.816406,9.511369,7.524426,7.833765,16.346499
1004.820312,11.210090,6.184992,10.575607,13.110859
1004.824219,14.688999,16.354088,9.631582,13.170100
1004.828125,9.844153,13.015140,6.889809,17.020419
1004.832031,5.484989,5.957540,9.611575,4.481163
1004.835938,7.637464,16.545250,2.616478,7.020446
1004.839844,2.976511,1.955098,10.639827,2.645241
1004.843750,6.219630,7.016649,5.664610,7.414314
1004.847656,3.537003,3.831520,-5.246641,-3.595547
1004.851562,2.504353,-6.276456,-5.338895,-0.827505
1004.855469,-4.699216,-11.483363,-4.670283,-8.100948
1004.859375,-2.367463,-5.462048,-4.369976,0.115659
1004.863281,-9.788792,-11.341673,-12.140228,-5.680180
1004.867188,-4.310235,-6.020179,-8.574836,-1.785803
1004.871094,-7.958005,-3.131199,-4.030574,-6.906135
1004.875000,-6.898731,-10.638278,-10.301566,-10.387201
1004.878906,-6.037520,-11.525592,-10.199296,-10.361867
1004.882812,-3.048452,-11.593573,-7.378373,-9.377558
1004.886719,-6.001409,-10.290980,-1.986549,-8.059152
1004.890625,-4.220375,-5.754189,-9.371008,-1.428480
1004.894531,-3.111655,-3.861807,4.241642,5.813588
1004.898438,-5.713168,-7.306284,-6.322677,3.399855
1004.902344,-2.370644,9.206774,3.761300,-1.230831
1004.906250,4.622858,0.664318,7.762869,-0.036115
1004.910156,5.292797,9.420660,4.358661,6.742093
1004.914062,7.035315,4.937981,8.018775,4.929145
1004.917969,7.695271,3.913800,12.112206,8.852772
1004.921875,14.720799,14.475688,7.886392,18.164211
1004.925781,8.209998,7.202217,14.085325,10.430654
1004.929688,11.081689,15.197572,7.668407,6.156187
1004.933594,0.309502,9.443957,6.231080,5.086681
1004.937500,11.596022,0.796293,9.975977,4.807408
1004.941406,8.766737,1.762862,3.174014,6.693975
1004.945312,4.962558,9.768642,-1.020079,-5.370897
1004.949219,3.213618,-1.134766,-1.459405,3.322369
1004.953125,-2.694279,4.442610,-1.908764,4.564683
1004.957031,-1.569530,-4.540205,-12.942218,-9.473231
1004.960938,-7.569593,-4.486308,-6.234360,-12.621799
1004.964844,-4.860218,-11.408563,-7.260980,-10.352005
1004.968750,-14.872933,-3.266917,-10.959889,-10.883397
1004.972656,-10.677915,-14.496909,-9.153744,-12.368098
1004.976562,-5.386677,-12.332579,-8.048678,-7.661530
1004.980469,-9.892437,-1.367548,-13.032747,-1.660512
1004.984375,-9.432399,-7.381505,-3.328429,-6.048457
1004.988281,-10.456279,-6.440289,-11.059518,-12.699717
1004.992188,-8.329837,-6.524921,-8.676106,-4.070169
1004.996094,-1.601318,-5.281111,-2.939899,-6.132053
1005.000000,1.623547,-5.233922,-1.468584,-6.593360
1005.003906,8.703972,-0.625357,4.478669,5.631421
1005.007812,1.262185,3.651186,-1.841573,7.328589
1005.011719,9.444720,-3.005709,3.217835,7.122013
1005.015625,6.920478,4.804283,4.020461,8.631451
1005.019531,2.046889,15.139410,17.104404,2.624485
1005.023438,5.688555,4.345294,5.136096,10.527310
1005.027344,10.253730,11.142873,10.656467,7.161260
1005.031250,0.928250,8.102611,8.765684,12.260812
1005.035156,4.633361,9.175510,5.246138,8.371543
1005.039062,5.576172,8.857216,15.090933,11.488129
1005.042969,7.656049,7.538246,1.258872,-1.060839
1005.046875,1.780958,-6.312875,-5.892450,-0.922906
1005.050781,-5.341634,-4.621051,4.682653,-4.396089
1005.054688,-5.038293,0.015197,-0.013025,-13.115373
1005.058594,1.267758,1.647815,-5.899750,-5.577851
1005.062500,-0.370410,-3.085818,-7.789039,-4.754805
1005.066406,-8.531782,-7.646950,-8.872920,-7.605175
1005.070312,-11.923069,-14.575591,-7.047597,-11.634419
1005.074219,-12.655054,-10.579658,-17.189773,-6.283064
1005.078125,-3.567643,-14.507594,-12.779554,-4.513969
1005.082031,-12.097382,-8.794727,-7.759163,-7.752058
1005.085938,-10.613712,-9.195021,-6.652760,-6.470713
1005.089844,-4.130982,-9.036695,-6.206868,-5.377959
1005.093750,-2.068376,2.619616,-4.761320,-3.480177
1005.097656,1.214646,7.061837,-6.426851,0.016724
1005.101562,-5.026651,-5.238699,6.007029,6.982707
1005.105469,-7.197115,4.204827,1.035114,-5.061172
1005.109375,2.584878,8.736733,5.022645,5.073806
1005.113281,6.197072,15.578965,9.917421,8.689025
1005.117188,15.123441,8.905642,4.569588,11.534505
1005.121094,0.490309,14.385189,7.044521,10.273100
1005.125000,9.743685,12.732430,1.879920,6.417172
1005.128906,7.112339,10.598723,10.743696,9.244028
1005.132812,11.574811,7.404079,12.683776,8.929056
1005.136719,7.634378,5.500184,10.798393,13.773673
1005.140625,12.519085,6.674241,5.786845,2.071543
1005.144531,4.353859,-5.757981,2.644365,2.822257
1005.148438,-1.184887,1.866800,-10.006090,0.591484
1005.152344,-1.954683,-0.964414,-1.990964,-3.847447
1005.156250,2.086492,-4.423598,-7.904167,-1.347233
1005.160156,-0.231686,-0.915784,-3.143112,-9.031588
1005.164062,-1.403095,-9.579161,-9.033924,-6.930418
1005.167969,-15.327542,-5.199214,-10.835268,-10.657401
1005.171875,-10.860839,-5.304952,-8.487336,-5.922626
1005.175781,-7.012064,-8.137732,-13.595379,-17.354631
1005.179688,-12.428295,-12.416111,-10.538743,-12.847098
1005.183594,-11.549689,-8.938724,-7.665368,-10.866401
1005.187500,-4.680426,-5.860934,-8.305177,-11.524416
1005.191406,-8.714719,0.426228,-7.730064,-7.475547
1005.195312,1.900487,-3.756758,-1.350288,3.027075
1005.199219,2.023215,-8.641185,4.811011,1.749394
1005.203125,-3.323235,0.096572,-2.156522,2.249391
1005.207031,3.544120,9.153082,2.489524,2.215738
1005.210938,-0.398150,7.966319,5.079065,12.514004
1005.214844,11.933333,14.489640,11.110712,9.604974
1005.218750,15.360512,-0.268791,1.118280,6.301067
1005.222656,15.703864,15.839202,7.726694,15.423992
1005.226562,14.227715,5.198413,14.044915,7.619046
1005.230469,17.228314,7.961645,10.334537,11.470403
1005.234375,6.528628,8.621629,4.181632,12.308073
1005.238281,9.411233,6.663865,6.988550,5.665943
1005.242188,5.064668,13.365656,5.051052,6.637668
1005.246094,-3.247599,-3.962577,3.249638,3.207157
1005.250000,-1.346854,-5.310035,-0.976288,4.044929
1005.253906,1.899463,-6.545122,-1.687233,-2.262813
1005.257812,-7.694029,-7.184150,-3.209380,-7.849306
1005.261719,-9.306812,-4.181059,-4.960380,-3.001625
1005.265625,-7.467761,-4.950876,-7.004790,-4.591073
1005.269531,-12.769055,-4.146328,-2.353951,-13.336939
1005.273438,-9.370911,-10.392320,-8.181568,-9.609395
1005.277344,-10.759699,-16.356894,-10.529170,-6.669450
1005.281250,-11.873911,-4.884645,-8.381283,-2.870213
1005.285156,-6.285036,-6.300452,-4.698025,-9.836033
1005.289062,-9.480651,-12.506968,-4.855881,-8.537303
1005.292969,-8.486244,1.837013,0.531173,3.948167
1005.296875,-5.966895,-7.684554,-6.021207,-6.321282
1005.300781,-0.366527,-8.955942,1.384103,0.723875
1005.304688,1.501692,5.708447,6.447392,11.401354
1005.308594,0.966771,5.523150,4.602662,5.999039
1005.312500,15.771643,8.304711,5.657532,4.697962
1005.316406,7.821330,8.906904,14.925597,6.937727
1005.320312,12.288109,6.917848,10.555341,15.453499
1005.324219,12.727935,7.716267,15.785909,16.090766
1005.328125,7.711552,13.310797,2.315344,7.101973
1005.332031,11.985287,4.567451,7.712612,10.641913
1005.335938,10.292065,1.140857,2.175301,13.382591
1005.339844,3.008400,10.820003,5.402632,2.699719
1005.343750,8.662136,-4.005389,1.183003,-1.392095
1005.347656,2.279194,6.429966,-3.763046,-1.231039
1005.351562,-3.309917,4.663627,-0.425367,3.928222
1005.355469,-2.472299,-0.834983,-0.790442,-0.182986
1005.359375,-7.365004,-5.766213,-10.570093,-1.885751
1005.363281,-2.930881,-4.637411,-11.818147,-8.600269
1005.367188,-8.661673,-11.001907,-8.849703,-4.063771
1005.371094,-7.147414,-10.228401,-3.835800,-11.814443
1005.375000,-8.002636,-6.153016,-11.748727,-2.817941
1005.378906,-18.354890,-9.304337,-17.463778,-9.939659
1005.382812,-16.422735,-8.211330,-5.146316,-12.599737
1005.386719,-3.960100,-7.820242,-4.785211,-13.439099
1005.390625,-5.259631,-9.597016,-6.510715,-6.300765
1005.394531,1.226031,-0.414092,-2.824988,-0.688423
1005.398438,-2.870648,1.017437,4.713391,-2.324222
1005.402344,3.185052,-3.132143,-1.226515,6.427633
1005.406250,5.150743,1.232284,8.766652,-0.607660
1005.410156,5.865303,3.919892,4.621318,13.056318
1005.414062,6.066914,14.373789,2.820265,6.682514
1005.417969,-0.063375,9.971828,11.948044,11.036854
1005.421875,7.276307,9.960285,8.906965,10.538304
1005.425781,17.247881,11.942611,13.348464,9.421835
1005.429688,8.449288,6.051931,3.372766,12.135873
1005.433594,13.066414,11.944563,11.609497,7.818891
1005.437500,4.158605,3.266611,5.701990,8.553289
1005.441406,-3.939462,9.442268,12.120184,-8.084703
1005.445312,5.299786,3.672412,9.373217,0.487135
1005.449219,-6.362327,-2.621003,0.040309,2.173641
1005.453125,-4.041840,-10.675122,2.121760,-6.831825
1005.457031,-6.567512,-7.552566,-3.953870,-13.211650
1005.460938,-8.413639,-8.213611,-8.274307,-6.328450
1005.464844,-1.866552,-16.876485,-8.351805,-7.446404
1005.468750,-11.808795,-14.335159,-23.001254,-5.980468
1005.472656,-15.016330,-12.473900,-10.453775,-18.110299
1005.476562,-13.179357,-17.495309,-8.437259,-6.636568
1005.480469,-9.930038,-6.611275,-13.434245,-2.733500
1005.484375,-8.558227,-13.628100,-11.609516,-14.766658
1005.488281,-7.181527,-14.277147,-5.927826,-9.609696
1005.492188,-2.334710,-3.343365,-3.123000,-6.601424
1005.496094,1.619500,-7.908464,-7.211174,-0.690117
1005.500000,0.647419,0.855384,1.450445,0.280627
1005.503906,-1.948665,-4.643103,3.578582,3.773495
1005.507812,-0.677068,0.209646,9.943024,7.133426
1005.511719,14.711686,7.474521,4.990336,7.370821
1005.515625,5.042479,9.169282,9.117693,13.450379
1005.519531,14.973512,14.427124,8.361118,7.578288
1005.523438,2.109547,14.086046,10.846800,4.317428
1005.527344,8.818145,5.178951,8.634613,15.470477
1005.531250,12.395445,6.894055,6.858445,12.301072
1005.535156,5.027121,7.062579,1.013371,15.432292
1005.539062,9.859858,4.522009,6.814739,0.656224
1005.542969,4.335762,7.864604,10.008699,7.637022
1005.546875,4.034931,2.941667,0.586859,0.012989
1005.550781,6.486507,3.996457,4.510360,-3.962260
1005.554688,-0.780588,-0.441972,2.293467,3.586148
1005.558594,-13.438040,-9.468077,-4.241700,-6.441876
1005.562500,-7.755479,-10.867234,-0.824430,-16.545751
1005.566406,-8.140865,-12.633945,-8.734142,-18.416614
1005.570312,-14.227468,-13.450313,-11.213837,-8.701106
1005.574219,-13.247787,-5.309820,-7.722960,-6.036576
1005.578125,-13.486727,-5.869760,-5.200964,-9.239254
1005.582031,-10.679320,-1.327514,-17.642003,-11.063182
1005.585938,-10.839709,-6.820365,-9.122947,-7.330490
1005.589844,-10.739843,2.453269,-9.831273,-6.116672
1005.593750,-4.190252,-2.630585,-2.175753,1.603792
1005.597656,-5.902289,2.540328,1.967695,-4.823862
1005.601562,-4.958136,3.075035,1.690289,1.035800
1005.605469,-0.651215,-1.953456,6.752576,4.214889
1005.609375,-3.817689,16.912560,-1.184992,5.240441
1005.613281,-4.649158,11.845897,10.814310,7.104474
1005.617188,4.677907,8.830742,14.172159,8.212877
1005.621094,6.559892,12.500994,12.737391,8.661929
1005.625000,9.413523,18.461363,14.408925,8.452237
1005.628906,5.234797,16.202580,10.465528,7.016311
1005.632812,9.539673,11.306616,11.156599,13.297468
1005.636719,5.977676,8.982601,10.143396,8.003443
1005.640625,5.963590,3.710787,3.000110,7.235904
1005.644531,7.718956,2.990317,6.642216,3.318105
1005.648438,0.574613,1.877750,-2.634119,4.876724
1005.652344,-3.614720,-8.576216,5.856301,0.820393
1005.656250,-0.495630,-2.735640,-5.203444,-0.653398
1005.660156,-5.794819,-4.819471,-2.601432,-3.073722
1005.664062,-5.165988,-12.291098,-8.389757,-9.352902
1005.667969,-13.313621,-9.261526,-1.658213,-6.057985
1005.671875,-18.083924,-9.120026,-6.832773,-7.670446
1005.675781,-5.199547,-10.513843,-7.251146,-4.317591
1005.679688,-6.440528,-21.898696,-12.289923,-9.847982
1005.683594,-6.549443,-12.229065,-4.840436,-0.331309
1005.687500,-9.659794,-9.024663,-12.298990,-3.654934
1005.691406,-2.122115,-10.665692,3.000203,0.117627
1005.695312,-5.928625,-4.403266,-5.499721,-5.898786
1005.699219,4.887052,3.370031,-2.891024,0.256907
1005.703125,3.947933,1.462939,-3.241300,1.986136
1005.707031,3.130899,-3.018192,8.173122,5.650545
1005.710938,7.459635,6.606333,-0.185148,1.381921
1005.714844,3.454676,8.036167,4.905525,4.763474
1005.718750,6.717640,8.611222,2.020745,8.425038
1005.722656,10.070531,10.716478,8.117035,10.158956
1005.726562,11.099343,10.924573,12.985107,11.454036
1005.730469,10.204585,13.177649,6.669469,11.354252
1005.734375,6.907226,4.727785,2.482777,1.475749
1005.738281,8.916895,8.555815,11.166913,6.861787
1005.742188,-0.947986,3.920144,3.588255,3.293181
1005.746094,-0.450799,3.004381,4.254391,-1.213211
1005.750000,-3.228898,0.159463,-0.563352,2.026902
1005.753906,-4.655450,2.184500,-0.537116,-1.197025
1005.757812,-5.258217,-4.964589,-5.078806,-7.746737
1005.761719,-9.346453,-4.556563,-5.938183,-4.223660
1005.765625,-4.612466,-13.130900,-4.934989,-3.514450
1005.769531,-6.198740,-6.775026,-4.456198,-5.238754
1005.773438,-4.281597,-12.853357,-9.744415,-11.925286
1005.777344,-9.190215,-12.841543,-9.191174,-13.968643
1005.781250,-6.765443,-5.170492,-18.793050,-9.537505
1005.785156,-7.897925,-13.325301,-10.326199,-9.144474
1005.789062,0.097971,-13.870395,-2.451488,-9.601557
1005.792969,-7.743249,-10.909551,-5.939124,-9.107189
1005.796875,-0.813829,-3.237045,-2.184263,-0.439857
1005.800781,-7.562502,3.298381,1.318863,-2.412197
1005.804688,4.862284,0.567059,-0.039068,-0.318939
1005.808594,5.403935,2.121687,9.049889,5.129988
1005.812500,5.922397,7.846382,6.203812,7.810334
1005.816406,6.695556,10.544129,10.981176,16.265699
1005.820312,9.669423,12.628234,8.925619,12.948322
1005.824219,11.622164,13.870750,11.112834,7.686068
1005.828125,7.571836,8.718715,12.479978,15.313365
1005.832031,9.389332,7.552868,8.244110,15.848951
1005.835938,13.202037,10.923763,2.830887,6.200934
1005.839844,8.998109,3.588041,12.509620,9.286289
1005.843750,5.182753,6.703765,2.081174,0.733880
1005.847656,1.326464,1.271847,5.013617,2.661197
1005.851562,-5.528626,-1.794584,3.822342,-2.661224
1005.855469,-5.849950,-10.792531,-0.625362,-0.723637
1005.859375,-5.545041,-8.349843,-5.843556,-3.753990
1005.863281,-3.921572,-9.698733,-11.085794,-16.097734
1005.867188,-6.215942,-4.290087,-11.794536,-9.477422
1005.871094,-5.378330,-10.119158,-6.951614,-7.347365
1005.875000,-11.815170,-11.557067,-4.862921,-12.047854
1005.878906,-5.751889,-12.262973,-9.448778,-10.551260
1005.882812,-11.121006,-12.027364,-6.022112,-4.549877
1005.886719,-4.405805,-2.564872,-4.222158,-5.615887
1005.890625,-8.387347,-9.200769,-8.639931,0.570254
1005.894531,-6.978082,-4.413488,-1.183375,-1.119222
1005.898438,-2.329163,2.699921,-1.858515,3.576735
1005.902344,-0.541557,0.685623,-1.761241,1.877350
1005.906250,4.266800,4.559496,2.605914,9.093133
1005.910156,6.142255,-1.451909,11.954963,7.070306
1005.914062,6.263138,6.211276,4.595008,5.679519
1005.917969,8.287188,9.721536,8.219281,9.557981
1005.921875,7.433420,9.947388,4.192413,12.707125
1005.925781,12.215325,10.649926,10.305633,15.269802
1005.929688,7.791018,4.498211,8.193236,14.564980
1005.933594,5.359724,7.713567,12.013258,9.334311
1005.937500,14.001329,6.711644,5.720718,4.231454
1005.941406,4.938681,3.667488,8.530974,0.440298
1005.945312,-1.821060,8.972989,3.288732,0.711116
1005.949219,-2.097821,-4.423453,3.775557,-1.073616
1005.953125,-2.970547,4.251853,-6.685075,-2.733085
1005.957031,-2.350863,-6.011253,0.236596,-3.114803
1005.960938,-3.263877,-8.830841,-12.792169,-2.527476
1005.964844,-1.818701,-5.461682,-13.051424,-6.232216
1005.968750,-7.094696,-11.928855,-6.726922,-13.547206
1005.972656,-8.899528,-6.860098,-15.657899,-11.633635
1005.976562,-8.752392,-7.278787,-8.700732,-11.818763
1005.980469,-12.530471,3.710680,-4.839495,-14.596116
1005.984375,-6.167905,-2.661701,-8.224219,-8.062829
1005.988281,-4.988861,-8.123917,-7.303361,-8.547805
1005.992188,-9.313730,-7.290877,-2.676924,-12.425343
1005.996094,-2.765818,-2.478155,-1.702659,-3.295876
1006.000000,-9.068545,0.513615,-2.173523,6.716725
1006.003906,1.224771,6.404614,4.043410,2.472860
1006.007812,1.143732,9.911150,3.571042,4.270027
1006.011719,9.614650,4.765086,5.806687,8.559557
1006.015625,11.123996,3.723745,8.057086,15.054975
1006.019531,11.072457,11.870543,4.810792,12.252765
1006.023438,6.180391,7.226709,11.277647,9.642153
1006.027344,11.268844,11.327265,16.649797,12.052136
1006.031250,11.646216,5.622882,6.961862,13.846468
1006.035156,12.016315,2.526928,4.521001,15.919104
1006.039062,0.861320,1.357467,9.369085,8.437062
1006.042969,-1.657502,2.598652,6.810748,0.532956
1006.046875,3.922680,6.941024,4.257957,-8.668421
1006.050781,-10.410580,-2.144335,-2.743014,4.233435
1006.054688,-0.834234,-3.281247,-0.328540,-8.333476
1006.058594,-6.761114,-2.053723,-9.009650,-5.477569
1006.062500,-5.018308,-6.945362,-11.071178,-7.724429
1006.066406,-9.932713,-11.270918,-12.683999,2.141889
1006.070312,-10.466916,-3.669293,-6.850084,-17.253580
1006.074219,-17.461042,-6.726131,-11.623459,-3.651845
1006.078125,-8.924946,-11.813870,-13.193522,-14.928176
1006.082031,-6.160097,-9.591893,-8.972396,-14.520999
1006.085938,-5.926134,-3.956645,-2.761347,-11.854576
1006.089844,-0.885835,-5.193805,1.075498,-12.958999
1006.093750,-5.958819,-2.507264,-6.007735,-4.115054
1006.097656,-6.485419,4.059962,-3.918531,-1.998283
1006.101562,-4.483129,2.983705,0.122072,1.351465
1006.105469,2.573699,1.643366,2.448484,7.422820
1006.109375,15.383488,0.143237,15.088955,5.088625
1006.113281,0.886919,9.222128,12.474030,7.252813
1006.117188,4.876533,7.544182,10.004079,8.934335
1006.121094,5.055371,12.018182,9.777718,5.248539
1006.125000,9.917388,8.075055,9.444476,6.083080
1006.128906,8.813547,4.194877,13.421689,9.215715
1006.132812,9.729182,10.401439,4.806300,4.285375
1006.136719,12.240334,13.569390,1.638843,13.675168
1006.140625,9.189820,8.344616,8.202240,3.226862
1006.144531,8.306544,10.481054,5.454371,-0.264628
1006.148438,5.201051,-6.667563,-6.242461,3.674518
1006.152344,-2.134150,-6.166959,-5.250944,-6.495735
1006.156250,-4.960467,-2.062545,-11.503680,2.681794
1006.160156,4.995527,-4.314807,-6.447725,-8.611077
1006.164062,-8.695477,-10.709122,-11.634444,-7.695005
1006.167969,-6.373388,-4.195358,-4.727907,-8.051238
1006.171875,-3.975973,-10.983384,-1.407501,-6.050474
1006.175781,-8.858526,-11.211191,-10.926052,-15.685547
1006.179688,-9.587875,-7.581441,-11.923509,-15.272081
1006.183594,-7.102764,-8.182585,-2.340748,-9.684551
1006.187500,0.878568,-6.279584,-6.774655,-7.970697
1006.191406,-6.368476,-4.396570,-9.300489,1.479626
1006.195312,0.626340,-6.517258,-1.901012,-5.942969
1006.199219,-8.437864,-8.533492,2.009844,5.376778
1006.203125,3.555934,7.455227,-1.551553,3.465995
1006.207031,1.300564,-0.177263,6.973796,-1.099305
1006.210938,4.227185,7.351315,9.836355,11.409381
1006.214844,9.377089,16.620810,10.033113,2.408616
1006.218750,3.536414,7.075054,6.832878,7.405988
1006.222656,19.272121,5.136635,11.249355,8.583883
1006.226562,9.517813,10.265337,9.592184,13.799589
1006.230469,9.293223,10.293372,13.761758,10.687223
1006.234375,8.647223,17.216116,3.175048,6.763295
1006.238281,4.496127,7.878816,7.641454,10.857318
1006.242188,0.278294,5.332999,7.787215,-1.786855
1006.246094,3.034677,-1.669923,8.312216,7.219286
1006.250000,0.765417,-0.304629,-0.959482,0.508087
1006.253906,-3.667751,0.050123,0.224550,-3.339894
1006.257812,4.427548,-3.032827,-15.683905,-12.398412
1006.261719,-8.848168,-5.677122,-2.850429,-10.449720
1006.265625,-11.771764,-2.803550,-0.596783,-5.426394
1006.269531,-11.151786,-18.843694,-12.280201,-10.096051
1006.273438,-6.014445,-6.450928,-6.525283,-16.769294
1006.277344,-13.732586,-9.102152,-10.350095,-12.618353
1006.281250,-10.010118,-9.388862,-12.101666,-5.576083
1006.285156,-13.495105,-0.507083,-8.348532,-7.694020
1006.289062,-3.406007,-8.668515,-8.052358,-2.002970
1006.292969,-3.602330,-3.438827,-7.317096,-2.586317
1006.296875,-5.173301,-7.401833,-0.473144,-2.096111
1006.300781,5.923914,-1.307792,2.629641,-9.592146
1006.304688,-0.104249,8.727106,4.318852,-1.026510
1006.308594,0.182772,-3.418753,11.672395,7.036470
1006.312500,4.215992,10.979880,12.628320,7.527198
1006.316406,7.937606,1.398512,12.668237,6.025487
1006.320312,18.643373,7.894999,11.248829,9.082426
1006.324219,8.334955,12.616812,11.246094,9.259909
1006.328125,4.706437,14.098108,9.669363,5.357013
1006.332031,10.284764,11.469091,10.132190,7.432353
1006.335938,10.689198,4.064104,7.121553,8.168964
1006.339844,8.921249,3.409907,5.236975,6.242100
1006.343750,1.458401,4.571662,5.844380,0.827020
1006.347656,-1.446642,6.489669,-3.372328,-8.462780
1006.351562,-4.723721,5.456390,-0.589120,2.795358
1006.355469,0.690166,-3.631424,-3.651977,-2.587985
1006.359375,-4.817096,-9.143599,-12.582566,-12.442605
1006.363281,-13.763246,-7.740007,-5.839151,-4.420060
1006.367188,-13.114401,-1.902273,-6.001414,-12.932293
1006.371094,-10.187786,-2.417267,-7.842236,-6.129770
1006.375000,-7.334078,-12.726577,-11.115411,-11.760854
1006.378906,-7.908120,-3.587422,-14.261646,-8.528599
1006.382812,-12.773606,-4.768570,-10.449118,-9.385973
1006.386719,-8.238999,-4.996460,-10.066950,-8.389298
1006.390625,-8.533042,-9.318055,-4.720247,-1.977588
1006.394531,-11.318966,-3.345341,-3.880587,1.566791
1006.398438,-3.450515,-3.231135,-4.283682,-0.182249
1006.402344,-3.263847,0.165396,1.868974,3.930768
1006.406250,-1.957532,7.635030,9.661501,11.211811
1006.410156,8.593331,8.729944,-0.352472,10.154707
1006.414062,18.713169,12.899018,2.666435,12.624359
1006.417969,4.632729,6.715398,10.515644,8.264542
1006.421875,6.021590,9.202307,15.711408,12.918289
1006.425781,8.400280,10.777888,10.006600,11.444748
1006.429688,13.397681,10.199571,9.285719,4.781243
1006.433594,15.978188,6.162595,6.075021,8.734577
1006.437500,0.796763,6.697114,4.804337,8.275480
1006.441406,4.660435,11.840506,3.157469,7.776920
1006.445312,-4.272876,-8.441815,11.959413,-7.142729
1006.449219,2.905837,3.243449,0.394143,4.399269
1006.453125,-4.898091,-3.726386,-4.937241,-7.802962
1006.457031,-5.098190,-6.759375,-5.465218,-0.756064
1006.460938,-8.107938,-10.543769,-10.851770,-1.444937
1006.464844,-5.497954,-7.595260,-9.809524,-10.467432
1006.468750,-14.897598,-12.434955,-8.110668,-9.877185
1006.472656,-4.999816,-4.035506,-12.795255,-6.019070
1006.476562,-16.405424,-16.873618,-13.155034,-14.206679
1006.480469,-8.600032,-15.263953,-7.933209,-11.273381
1006.484375,-6.088953,-12.500502,-11.880614,0.616867
1006.488281,-7.639732,-7.948276,-11.131547,-6.324922
1006.492188,-4.185501,-10.917674,-1.550847,-6.389241
1006.496094,-0.260691,-1.929570,1.810337,2.410796
1006.500000,1.861448,2.504904,-0.806690,-0.605511
1006.503906,0.047495,-4.132811,0.094888,-4.579744
1006.507812,9.460322,7.715229,7.185143,2.450974
1006.511719,6.619867,8.403705,6.489420,4.217778
1006.515625,4.915096,13.405714,9.314537,9.837944
1006.519531,10.438158,10.815690,12.330264,10.801640
1006.523438,5.041711,10.113716,8.623507,13.555042
1006.527344,6.413714,2.173050,8.459934,13.639801
1006.531250,8.725685,8.657192,7.949264,17.301434
1006.535156,5.041875,5.770896,6.622166,8.346856
1006.539062,16.766360,11.193435,9.703919,13.350798
1006.542969,2.360378,0.949589,2.697777,3.112515
1006.546875,0.146828,0.272766,3.921338,-10.543798
1006.550781,-1.088426,-0.151313,7.373051,-8.283894
1006.554688,3.990571,-5.413242,3.417904,-2.901360
1006.558594,-5.786694,-11.456210,-2.960737,0.870634
1006.562500,-5.757577,-9.222433,-16.246516,-7.241731
1006.566406,-4.463919,-1.452130,-6.154151,-13.307619
1006.570312,-14.327741,-7.868546,-9.504857,-3.285439
1006.574219,-7.115486,-6.857673,-10.478252,-16.707327
1006.578125,-13.174024,-8.563206,-13.052152,-3.909270
1006.582031,-6.615140,-12.337741,-13.899601,-14.339032
1006.585938,-7.937805,-4.431178,-12.511180,-7.200027
1006.589844,0.857616,0.157389,-1.169764,-7.949654
1006.593750,4.667789,-11.389198,-6.315554,-4.703212
1006.597656,0.282383,-0.065670,-6.166537,-3.179808
1006.601562,2.724625,0.672426,-10.759428,2.400835
1006.605469,3.558909,-1.076839,5.600659,2.529702
1006.609375,4.002598,4.505022,2.831851,0.406184
1006.613281,13.641490,9.634837,8.597966,11.476050
1006.617188,6.601037,10.193487,9.724981,16.836942
1006.621094,11.233304,9.050737,5.205664,11.450216
1006.625000,8.155176,11.625005,11.858475,10.016818
1006.628906,9.294310,9.894878,19.051583,16.379620
1006.632812,6.145486,16.347242,3.889218,11.626721
1006.636719,12.712101,10.086405,2.298721,8.541487
1006.640625,0.479630,2.399400,-1.564583,5.865436
1006.644531,4.746485,5.576040,3.539170,3.859681
1006.648438,3.360700,8.726843,2.607654,2.712974
1006.652344,-4.766177,-13.289128,-8.170722,1.444810
1006.656250,-4.450756,-11.338461,-4.681270,-1.993995
1006.660156,-5.592235,-9.947965,-3.628358,-4.194166
1006.664062,-3.733035,-7.369278,-8.725957,-12.434281
1006.667969,-10.332236,-7.493849,-7.610192,-2.563932
1006.671875,-10.455746,-16.291149,-12.977087,-3.669685
1006.675781,-6.318607,-18.523720,-13.971605,-5.239399
1006.679688,-12.476017,-6.689613,-10.682377,-7.839477
1006.683594,-12.968773,-6.632538,-11.349522,-8.086809
1006.687500,-1.316434,-8.399080,-12.128626,-0.144019
1006.691406,-5.280680,-9.445170,-4.311456,-1.578733
1006.695312,-3.296545,2.450864,-3.879752,-3.508135
1006.699219,4.696254,-1.428170,-8.292645,-8.288823
1006.703125,7.187240,2.751095,-0.953479,1.869754
1006.707031,4.993411,2.520260,2.809348,4.361061
1006.710938,5.675585,9.776269,9.794527,5.600740
1006.714844,9.856227,12.242661,12.301628,10.493683
1006.718750,4.134186,4.975873,13.173470,13.463541
1006.722656,9.286671,5.740762,7.789484,10.123490
1006.726562,17.204299,8.540599,6.995872,9.125951
1006.730469,5.129686,13.932547,12.694413,19.450039
1006.734375,3.178529,10.688662,7.222351,10.237542
1006.738281,2.943304,9.435897,6.234291,-0.683786
1006.742188,8.388042,1.765765,2.351600,2.609951
1006.746094,-3.946716,-1.771158,5.732432,-0.223039
1006.750000,-6.663833,-3.463071,-1.722747,-4.583450
1006.753906,-8.504281,-5.025799,-3.609498,-5.781995
1006.757812,-8.949213,-6.513223,-0.697375,-7.331616
1006.761719,-7.932617,-4.943735,-9.676652,-1.827369
1006.765625,-2.878361,-2.778070,-11.972476,0.450446
1006.769531,-12.378849,-11.396594,-18.016574,-7.835232
1006.773438,-10.919083,-10.910943,-14.032126,-7.804413
1006.777344,-10.309976,-8.718392,-14.135129,-8.148374
1006.781250,-6.758394,-8.079736,-6.089648,-4.299782
1006.785156,-9.189441,-5.575123,-8.473658,-12.887876
1006.789062,-10.699016,-11.526861,-9.155413,-5.523548
1006.792969,-5.820992,0.475609,-3.222626,-5.002416
1006.796875,4.375896,-7.433922,-2.885595,-2.678266
1006.800781,0.132964,0.582852,3.658723,1.922928
1006.804688,2.161191,0.417749,3.751096,6.641299
1006.808594,9.632499,14.858800,-0.637782,3.005916
1006.812500,9.895981,1.780210,2.591716,12.371591
1006.816406,9.843544,8.383358,6.525458,0.413766
1006.820312,6.712146,4.278682,13.695012,14.250533
1006.824219,13.002687,11.776832,8.545788,13.181147
1006.828125,12.214696,11.302742,11.790218,6.241913
1006.832031,8.333334,10.242092,9.866533,13.506768
1006.835938,2.163319,6.690837,9.767570,11.693458
1006.839844,7.971935,8.793097,11.007379,12.323878
1006.843750,8.547514,0.306139,10.077148,8.197260
1006.847656,3.412131,-2.033623,-2.986337,2.910027
1006.851562,7.509513,4.187026,2.459214,-2.207637
1006.855469,-6.263843,-7.353547,-3.964792,-3.062582
1006.859375,-2.026893,-4.180904,-14.712670,-8.199327
1006.863281,-5.031254,-2.628369,-9.652714,-12.114781
1006.867188,-12.673560,-6.971115,-11.356615,-5.939131
1006.871094,-9.307839,1.116297,-12.135224,-11.562278
1006.875000,-14.648338,-7.535585,-3.583443,-9.426231
1006.878906,-11.932668,-12.175223,-14.495192,-4.855276
1006.882812,-11.629985,-4.947084,-8.755778,-16.560233
1006.886719,-6.158673,-1.674421,-13.630170,-6.268054
1006.890625,-3.970279,-7.544353,-2.797776,-4.788160
1006.894531,-3.702346,-4.115207,-2.262809,0.278185
1006.898438,-5.932466,-4.449005,-2.412908,3.796780
1006.902344,0.001762,2.459734,-7.754689,8.755087
1006.906250,-1.018909,-1.422017,3.840319,-0.876419
1006.910156,5.221266,-1.431862,8.505479,13.010242
1006.914062,4.529229,18.934478,10.033663,6.985627
1006.917969,12.466131,7.243339,9.616756,6.841897
1006.921875,6.736764,10.086465,8.255639,12.281427
1006.925781,10.186323,11.650460,0.361992,9.416625
1006.929688,9.866588,18.415948,7.351696,9.543100
1006.933594,2.585832,13.193426,16.053560,10.392968
1006.937500,10.827898,3.644742,7.396985,4.003328
1006.941406,5.434123,11.223188,6.905750,7.941990
1006.945312,1.430166,0.856560,5.698951,1.525860
1006.949219,3.559864,0.179111,1.036966,-0.180184
1006.953125,-5.258567,-1.008967,-1.220166,-0.270972
1006.957031,-6.069245,0.003961,0.316792,-4.639905
1006.960938,-14.276934,-9.196064,-13.951244,-5.653130
1006.964844,-3.994409,-5.663682,-15.196281,-5.599764
1006.968750,-7.128326,-10.211472,-8.065216,-9.502183
1006.972656,-0.123364,-2.177555,-6.608150,-5.050090
1006.976562,-15.877478,-10.310496,-7.536543,-11.950487
1006.980469,-13.634406,-5.470679,-9.205688,-0.727908
1006.984375,-9.471116,-3.202495,-11.284785,-12.093687
1006.988281,-7.191726,-5.475004,-4.287093,0.733733
1006.992188,-4.018997,-3.715199,-7.498899,-8.690386
1006.996094,-7.217122,-10.938469,4.041869,-3.554345
1007.000000,-3.080153,0.408762,-1.829187,1.459161
1007.003906,-8.061149,0.357286,6.484059,6.954488
1007.007812,5.306749,3.506509,1.802818,6.655986
1007.011719,2.011587,8.603397,8.960846,10.193826
1007.015625,9.378557,10.900644,9.812155,3.476507
1007.019531,6.183663,6.279578,10.878872,9.155016
1007.023438,15.788881,13.623888,16.092953,8.192667
1007.027344,4.885145,10.510824,9.845168,13.061911
1007.031250,12.262061,15.142628,9.899840,9.470210
1007.035156,10.263069,6.949816,-1.956071,1.985522
1007.039062,7.010659,1.556282,8.255498,9.919827
1007.042969,4.716853,2.841547,5.642666,4.968963
1007.046875,-3.569683,-5.149171,5.695202,-2.262060
1007.050781,-4.344053,4.692141,-3.566626,-1.894829
1007.054688,-7.495150,-7.023933,-1.690436,-6.826700
1007.058594,0.660445,-2.888378,-2.790264,-2.710658
1007.062500,-4.340269,-14.670969,-6.997486,-9.527468
1007.066406,-10.571758,-2.457799,-9.388577,-14.375318
1007.070312,-6.289228,-7.314362,-9.469799,-11.517661
1007.074219,-15.380070,-13.339268,-13.582766,-11.434295
1007.078125,-11.679008,-14.889624,-15.482792,-9.642343
1007.082031,-15.668264,-6.653235,-8.905349,-12.321666
1007.085938,-6.291361,-5.006269,-5.131760,-9.945569
1007.089844,1.327438,-11.098305,-2.731603,-2.782824
1007.093750,0.817189,-8.662954,0.462838,-11.200318
1007.097656,-4.912825,-4.260331,-1.693493,-0.583200
1007.101562,-5.353536,5.713796,8.131084,3.082708
1007.105469,6.835803,6.922566,-0.113548,-3.496815
1007.109375,8.722750,2.401758,2.493802,9.561794
1007.113281,8.018113,12.450148,6.670496,9.366042
1007.117188,10.448406,6.731937,11.200817,6.522431
1007.121094,13.166248,9.083669,3.283607,8.314714
1007.125000,8.203082,15.094131,11.562381,15.234661
1007.128906,12.167706,6.794681,12.294026,10.472263
1007.132812,13.495393,8.035121,14.109481,13.355188
1007.136719,6.090230,6.440615,5.277142,-0.163807
1007.140625,5.417092,-1.387048,9.176978,9.546223
1007.144531,-2.269343,4.210358,2.905513,2.347091
1007.148438,5.811688,3.339782,0.598258,2.264888
1007.152344,-5.866373,-0.716792,-1.211470,-0.153261
1007.156250,-5.502389,-3.406289,-6.203268,1.305627
1007.160156,-2.444173,-4.413244,-4.929913,-5.918774
1007.164062,-16.927947,-5.713394,-7.849799,-0.939493
1007.167969,-9.193508,-6.621214,-12.017189,-3.200809
1007.171875,-6.286760,-4.832294,-6.719690,-13.044691
1007.175781,-12.589126,-6.722333,-7.427989,-10.227189
1007.179688,-2.011190,-3.925180,-6.455946,-10.684950
1007.183594,-15.354841,-12.555344,-10.741658,-8.428646
1007.187500,-9.707023,-3.524559,-3.134341,-15.085824
1007.191406,-4.103495,-3.490851,-11.731516,-0.632403
1007.195312,-0.620845,-4.738796,-1.949416,-1.061325
1007.199219,-0.318174,6.416758,0.857304,-2.059091
1007.203125,-0.034111,4.400233,1.709032,-1.470133
1007.207031,7.396302,9.906169,0.691500,0.320386
1007.210938,10.429422,9.839585,1.222728,-0.853142
1007.214844,8.675841,6.166238,4.476622,11.466874
1007.218750,17.056918,3.017334,12.507998,4.253157
1007.222656,7.764631,9.976470,6.729950,9.764218
1007.226562,13.886928,9.154809,12.991798,6.916873
1007.230469,11.202444,9.797055,11.868872,9.230706
1007.234375,4.681913,9.511250,4.210757,6.007491
1007.238281,6.596378,6.354964,7.061806,4.920052
1007.242188,2.327308,4.628325,1.877735,7.644894
1007.246094,-2.416791,0.428432,1.607750,9.617550
1007.250000,-2.246766,-4.708737,-8.449471,9.575288
1007.253906,-2.795688,3.699309,-7.838088,-5.137730
1007.257812,-0.674254,4.331691,-1.500478,0.788468
1007.261719,-11.564908,-6.784032,-7.049935,-11.450964
1007.265625,-17.259775,-10.747731,-7.456638,-6.270876
1007.269531,-11.632534,-7.836336,-4.557601,-7.775820
1007.273438,-14.026157,-14.582791,-9.838264,-5.057570
1007.277344,-8.576813,-8.815984,-9.818401,-4.490124
1007.281250,-8.665128,-16.349485,-18.444606,-7.564652
1007.285156,-6.280510,-0.528922,0.244051,-8.620567
1007.289062,-9.140776,-3.445383,-2.412854,-7.139150
1007.292969,-4.102002,2.190100,-2.108209,-1.571232
1007.296875,-1.943520,-2.015151,-1.982671,-0.388134
1007.300781,3.509224,-2.815847,-1.487041,-0.764101
1007.304688,3.733224,4.966282,1.117156,2.273687
1007.308594,5.844848,5.334208,8.011023,5.738999
1007.312500,5.368887,8.360336,9.190084,0.713035
1007.316406,9.466413,3.663032,5.504593,8.396725
1007.320312,-0.003715,9.915273,11.562099,4.678456
1007.324219,10.616520,3.326038,14.019854,6.659087
1007.328125,15.134888,5.460664,8.520667,7.488957
1007.332031,3.733235,8.819582,2.482001,18.876753
1007.335938,5.982820,8.177997,13.720087,2.835731
1007.339844,8.711467,8.782584,3.425004,5.390735
1007.343750,2.420195,-2.018952,4.471012,3.206822
1007.347656,4.550939,2.676350,5.174622,7.935941
1007.351562,-1.887749,-2.099868,-1.542484,1.293621
1007.355469,-4.685401,-3.683420,-10.177482,-6.441221
1007.359375,-1.987860,-7.554346,-14.378670,2.027962
1007.363281,-2.395233,-7.214224,-7.840930,-6.609236
1007.367188,-10.365376,-14.064441,-6.227166,-5.334199
1007.371094,-10.634915,0.759048,-9.078008,-17.869365
1007.375000,-12.793774,-5.604780,-9.939839,-13.443422
1007.378906,-8.925685,-9.594239,-11.583870,-18.571585
1007.382812,-11.341798,-9.794830,-8.856503,-7.949943
1007.386719,-6.916719,-5.990879,-3.424038,-8.138460
1007.390625,-9.884768,-5.676067,-9.994363,-5.392100
1007.394531,-3.571730,-0.615015,-2.612910,-5.177698
1007.398438,-11.131376,-2.162391,1.500174,-0.334628
1007.402344,4.452031,1.849256,4.738001,5.267329
1007.406250,3.398020,-3.675943,-4.968350,4.597030
1007.410156,9.684399,-1.502582,5.161950,-1.903437
1007.414062,9.518648,6.272370,10.080246,11.844813
1007.417969,9.668431,5.981426,-1.243882,10.860248
1007.421875,7.280143,4.531424,6.679064,10.873450
1007.425781,8.309853,8.575272,15.286222,9.254111
1007.429688,10.408902,12.205285,9.907363,10.786202
1007.433594,16.295097,4.986076,5.781718,6.633384
1007.437500,0.421347,6.360782,4.409225,-0.796792
1007.441406,4.223236,6.825254,1.982629,6.209851
1007.445312,1.657725,2.827486,9.303344,2.193222
1007.449219,1.385023,-4.366167,-1.462903,0.965644
1007.453125,-6.251295,-3.762347,-8.342834,0.021962
1007.457031,-6.954848,-10.982773,-5.689429,-6.004790
1007.460938,-3.104502,-12.237662,-7.577032,-6.593852
1007.464844,-11.534051,-10.533474,-14.571145,-2.439565
1007.468750,-13.649472,-12.331195,-5.232820,-5.778314
1007.472656,-11.148394,-12.364042,-10.653321,-8.525963
1007.476562,-6.378578,-10.028815,-7.726444,-12.778343
1007.480469,-7.530441,-7.783143,-6.472010,-8.808493
1007.484375,-6.272414,-7.350961,-13.740108,-10.073928
1007.488281,-5.883084,-6.990692,-7.983091,-2.147163
1007.492188,-3.845274,-9.982057,0.196118,-2.888193
1007.496094,-2.622003,6.573529,-4.366075,-3.550399
1007.500000,0.811167,3.416920,2.797492,-3.126277
1007.503906,-4.555445,4.174253,1.089789,0.144029
1007.507812,10.720484,7.335782,-1.779004,5.592665
1007.511719,7.717628,4.667794,9.453307,5.844721
1007.515625,6.223431,5.946788,7.694354,6.472549
1007.519531,-1.295503,11.012544,9.089578,11.675663
1007.523438,7.071980,12.951707,6.984667,11.037642
1007.527344,12.055699,16.757366,4.780251,10.462093
1007.531250,6.995971,9.789237,0.880998,7.969618
1007.535156,12.069484,8.163117,9.897094,11.159565
1007.539062,7.585603,0.400458,11.108283,0.300534
1007.542969,-0.963114,13.350671,6.427754,3.751278
1007.546875,-1.111043,4.151364,8.564292,4.360519
1007.550781,1.061637,-2.114570,-1.323446,-1.371556
1007.554688,-6.052393,-5.238702,-7.809449,-1.259619
1007.558594,-5.860906,3.500113,-7.513847,-5.777804
1007.562500,0.802728,-7.777361,-8.043653,-7.802430
1007.566406,-6.446266,-5.605378,-4.954984,-13.558950
1007.570312,-9.422029,-11.144654,-13.298875,-11.481573
1007.574219,-13.743328,-8.234776,-14.164931,-5.614920
1007.578125,-13.512081,-17.420589,-11.481632,-9.894913
1007.582031,-10.716898,-5.221951,-7.354253,-15.217553
1007.585938,-0.923841,-6.529127,-8.149487,-4.905087
1007.589844,-9.936460,-7.596228,0.932365,-11.077603
1007.593750,-2.203435,0.229749,-3.305036,0.910112
1007.597656,5.134542,-0.243937,-1.845432,3.929642
1007.601562,-1.252132,1.944921,-3.448369,4.737709
1007.605469,7.368989,3.121646,1.153683,1.182253
1007.609375,4.077458,4.361032,4.622087,11.551027
1007.613281,5.353535,7.138262,7.306784,12.333423
1007.617188,8.985808,4.738954,9.565624,15.172770
1007.621094,8.484116,11.484348,9.357913,12.694967
1007.625000,8.911085,14.012059,15.410595,5.555413
1007.628906,18.237887,9.982457,9.479312,9.748198
1007.632812,7.154430,10.755465,5.683070,10.242133
1007.636719,6.089883,7.017776,7.212020,5.801222
1007.640625,4.212918,7.067807,11.226660,9.485918
1007.644531,0.457241,5.815561,0.827460,3.674688
1007.648438,-1.514040,4.536568,-0.238500,-4.659924
1007.652344,-1.987638,0.086331,3.217228,-3.353225
1007.656250,-8.710492,-9.413574,-2.420860,-3.143701
1007.660156,-4.625369,0.180372,-6.896688,-0.605076
1007.664062,-13.562126,-10.426633,-19.069279,-7.645583
1007.667969,-11.987014,-5.840684,-6.099429,-13.392764
1007.671875,-13.657945,-11.768921,-11.126803,-11.544492
1007.675781,-6.064687,-12.617001,-9.368216,-8.971878
1007.679688,-5.064842,-11.830734,-12.356139,-10.914205
1007.683594,-15.984820,-13.649409,-4.720112,-13.534255
1007.687500,-8.675150,-8.952494,-10.256309,-13.669016
1007.691406,-3.087847,-3.846183,-0.724187,6.616197
1007.695312,-8.632687,-0.244547,-12.812357,-6.695281
1007.699219,-5.446143,-0.070874,-1.367459,3.403765
1007.703125,-1.199967,7.387124,-0.561399,7.975047
1007.707031,9.823757,4.273465,2.139646,-2.438110
1007.710938,9.738597,6.282657,6.660852,4.255611
1007.714844,6.166665,4.631726,10.078562,8.497232
1007.718750,9.181508,13.269256,3.712952,9.287839
1007.722656,11.396457,8.077000,6.385612,1.984464
1007.726562,9.907076,4.723278,5.358269,13.906116
1007.730469,15.910828,1.275614,11.783010,13.949149
1007.734375,12.859080,6.578778,5.351194,4.101561
1007.738281,6.334372,10.493021,6.799168,14.695944
1007.742188,2.929377,4.001875,0.931012,1.305832
1007.746094,3.030867,0.406070,-5.230966,-4.649203
1007.750000,-4.355046,2.156247,-1.644471,-0.091254
1007.753906,-4.960750,-1.450909,0.204571,-9.275087
1007.757812,-7.532972,-1.676392,-2.550412,-5.407688
1007.761719,-7.557207,-8.072896,-5.561315,-13.616710
1007.765625,-9.566110,-4.917108,-6.066397,-7.423128
1007.769531,-10.260415,-13.313691,-9.227031,-8.062206
1007.773438,-14.943585,-3.781235,-9.952154,-5.618481
1007.777344,-14.294251,-13.845089,-5.399072,-12.408077
1007.781250,-12.125146,-9.932855,-10.486341,-14.223981
1007.785156,-0.359039,-10.794238,-11.091696,-3.985389
1007.789062,-1.865705,-7.314879,-9.314288,-7.392828
1007.792969,-4.329067,-2.391087,-10.901290,-2.180165
1007.796875,0.096615,3.975063,-6.905772,-9.026449
1007.800781,10.667647,1.072479,-1.768230,1.243795
1007.804688,5.347610,5.712139,3.354945,4.925911
1007.808594,6.695663,2.271814,15.277058,4.936042
1007.812500,10.111951,5.946005,1.820610,2.496528
1007.816406,6.469619,2.199133,9.402454,8.421799
1007.820312,8.564842,10.243123,8.356297,13.500195
1007.824219,12.630060,15.530096,10.506564,5.572583
1007.828125,7.327763,4.012466,6.597001,14.763606
1007.832031,8.686971,8.118319,10.746924,9.573026
1007.835938,1.163289,8.075782,11.878006,4.153845
1007.839844,2.430092,6.888536,4.302201,4.613318
1007.843750,5.289633,10.951929,10.717863,0.970083
1007.847656,-1.326548,0.537114,6.709751,3.673544
1007.851562,-2.387254,-1.349615,-2.229459,-1.981110
1007.855469,-2.626755,-7.061707,-7.760733,-7.483216
1007.859375,-9.720478,-6.022636,-8.443254,-3.945205
1007.863281,-3.387318,-1.853999,-8.528396,-5.131537
1007.867188,-9.909951,-13.390731,-10.354301,-8.727609
1007.871094,-9.393318,-1.642574,-18.948882,-10.737378
1007.875000,-4.416123,-12.378439,-4.755085,-3.576801
1007.878906,-13.173249,-7.881814,-5.888680,-1.152661
1007.882812,-8.785898,-8.229329,-17.958594,-7.725365
1007.886719,-4.579288,-13.747811,-6.982512,-10.189728
1007.890625,-17.407938,-6.590913,-5.430792,-1.754454
1007.894531,-0.725234,-2.295014,-2.715546,-7.404403
1007.898438,-3.059511,-0.135923,1.095971,0.705712
1007.902344,-0.618223,4.623982,0.253938,2.104955
1007.906250,12.257466,0.914022,9.427825,10.659332
1007.910156,12.955058,1.927904,10.422063,6.299470
1007.914062,7.015783,9.102233,9.272613,10.828172
1007.917969,10.692103,10.714243,5.517893,8.135695
1007.921875,8.389383,8.043960,7.598825,11.736416
1007.925781,9.286818,2.986778,12.782843,13.145755
1007.929688,12.509561,12.758970,3.637438,10.736917
1007.933594,6.721556,2.193187,5.282712,13.586257
1007.937500,3.314224,5.419030,3.992916,0.324737
1007.941406,0.010881,6.623485,10.215400,10.183779
1007.945312,0.965971,4.372474,9.912316,11.288161
1007.949219,-1.244925,1.117885,0.782915,4.733201
1007.953125,-0.002441,-1.578945,0.918017,-1.189483
1007.957031,-8.062397,-10.455781,-6.432720,-4.833545
1007.960938,-8.837764,-3.765149,-1.435570,-2.777351
1007.964844,-11.717921,-11.083114,-8.487051,-10.410051
1007.968750,-6.845101,-8.028598,-5.954192,-10.516023
1007.972656,-13.485495,-9.837851,-13.917238,-13.922508
1007.976562,-10.046836,-9.976938,-13.466492,-16.179929
1007.980469,-12.783859,-12.287703,-5.465743,-8.173136
1007.984375,-5.999019,-5.870951,-13.143365,-7.545475
1007.988281,-7.512437,-4.251786,-5.512512,-12.104021
1007.992188,-3.594975,-4.777597,-8.821479,3.344707
1007.996094,-3.248363,-0.019839,-7.687849,-5.704453
1008.000000,7.146104,-2.524485,2.571104,4.801559
1008.003906,5.725350,1.594876,-2.069387,5.937243
1008.007812,-1.084058,4.904598,13.876740,2.730179
1008.011719,1.147929,5.851924,14.468676,4.111726
1008.015625,5.848792,5.613569,3.915300,10.355374
1008.019531,6.071288,11.821101,15.108667,2.346141
1008.023438,15.184513,2.345419,2.573186,3.835635
1008.027344,11.466810,12.635058,6.385083,13.848667
1008.031250,8.354849,11.042422,2.478134,3.254274
1008.035156,4.169370,11.911757,5.894072,6.511098
1008.039062,11.872459,13.468742,2.032531,15.843980
1008.042969,9.025488,-2.204396,2.303556,0.098333
1008.046875,2.863255,-1.069775,-1.684226,4.458814
1008.050781,-5.253393,-5.074697,1.990780,-1.285307
1008.054688,-8.952273,-7.774634,-3.132692,-10.539081
1008.058594,-3.574179,-10.617126,-8.281907,-6.348834
1008.062500,-7.503004,-7.582679,-13.466167,-6.657332
1008.066406,-8.757148,-10.097633,-10.485181,-7.683403
1008.070312,-7.671786,-9.802121,-7.058834,-8.887314
1008.074219,-5.411082,-7.269262,-7.485855,-13.328243
1008.078125,-13.341100,-5.535224,-8.897179,-10.926782
1008.082031,-10.928190,-1.490862,-5.414165,-10.801052
1008.085938,-6.595866,-2.163693,-3.879592,-10.700056
1008.089844,-8.998399,-3.321399,-0.644947,-4.837447
1008.093750,-7.674155,1.971451,-0.697725,-12.200022
1008.097656,1.530439,-5.329423,-0.404537,0.545565
1008.101562,3.902916,-3.572206,1.611317,2.990938
1008.105469,13.140676,2.079268,5.366148,6.423297
1008.109375,8.417094,5.357553,3.923678,12.578286
1008.113281,4.922061,7.242265,7.665437,7.394702
1008.117188,5.013968,3.775666,11.727342,2.116138
1008.121094,9.852245,19.794153,8.773592,7.366304
1008.125000,11.852595,7.498223,10.152140,16.808341
1008.128906,8.829490,0.541708,13.839479,3.739718
1008.132812,8.473459,9.205674,14.968990,10.306695
1008.136719,3.388927,9.202197,8.505097,12.926081
1008.140625,3.032140,6.170685,0.534205,17.576045
1008.144531,-0.477110,3.368084,-2.346548,3.549319
1008.148438,1.204692,-4.507125,2.506748,5.534230
1008.152344,-1.685832,-1.766248,-6.383400,-1.879195
1008.156250,-5.527264,-5.360898,-2.456461,-2.413496
1008.160156,-9.875060,-8.787268,-8.840599,-4.782474
1008.164062,-7.998075,-5.458702,-6.622998,-8.240261
1008.167969,-8.604297,-13.053752,-13.021276,-9.912861
1008.171875,-14.073002,-12.230169,-8.815093,-6.676056
1008.175781,-11.814165,-8.445299,-9.856450,-10.822500
1008.179688,-9.324091,-5.261774,-13.840827,-7.050237
1008.183594,-8.735242,-3.702918,-13.486965,-7.869447
1008.187500,-9.761786,-13.492562,-6.918875,-9.045019
1008.191406,-3.348148,-3.640706,-10.608681,-5.142022
1008.195312,0.619769,-2.693961,-2.855254,-0.576941
1008.199219,3.428791,0.705998,0.261295,1.491143
1008.203125,6.072027,3.751256,5.043882,6.916196
1008.207031,-2.876022,4.033424,-0.006931,4.428550
1008.210938,-0.315952,10.442193,6.018124,4.769114
1008.214844,8.331992,9.464528,6.010426,15.699376
1008.218750,9.824676,17.250036,8.514249,14.795354
1008.222656,10.539141,12.176823,18.193394,9.997157
1008.226562,3.132465,1.970518,8.518206,10.158969
1008.230469,14.600928,15.819167,5.595137,3.377746
1008.234375,8.715211,7.455220,6.807768,5.651614
1008.238281,11.827414,4.498476,5.247013,6.750699
1008.242188,2.159878,2.705181,6.898075,9.118790
1008.246094,1.952579,9.187332,0.313704,2.379104
1008.250000,2.126684,3.135048,3.005583,-2.928719
1008.253906,-11.512514,0.318658,-2.552027,-8.436873
1008.257812,4.042961,-0.826886,-1.217378,-6.140277
1008.261719,-1.494536,-9.049870,-8.911912,-7.705283
1008.265625,-7.111279,-5.871246,-8.890791,-5.184626
1008.269531,-5.267153,-5.443734,-13.857972,-15.000032
1008.273438,-3.856003,-13.896060,-13.325643,-11.707322
1008.277344,-15.125694,-12.989600,-6.821854,-6.937799
1008.281250,-11.579687,-14.336060,-14.094907,-9.405258
1008.285156,-10.525506,-7.914857,-13.821150,-7.905590
1008.289062,-8.911164,-6.753711,-9.988888,-13.002332
1008.292969,-6.816998,-1.482643,-7.108505,-4.156511
1008.296875,-1.102071,-3.650228,0.708496,-10.947327
1008.300781,4.372615,-5.974901,-1.461712,2.999617
1008.304688,-1.347567,3.768807,1.854214,0.666817
1008.308594,0.792824,6.363173,8.867364,-2.258106
1008.312500,10.174865,11.382874,4.440849,4.684016
1008.316406,8.445398,11.610424,6.134108,8.438414
1008.320312,5.621943,8.418799,7.432102,13.640447
1008.324219,13.911730,13.387993,13.136057,9.327435
1008.328125,12.615983,3.689760,4.042584,13.052096
1008.332031,10.165367,15.872796,9.898220,7.793600
1008.335938,10.562129,8.002980,8.716675,10.152322
1008.339844,2.258380,4.623633,6.797346,2.938750
1008.343750,5.012519,2.277896,4.409657,8.261708
1008.347656,0.552647,0.134073,7.681674,-4.623832
1008.351562,2.816949,1.041014,-2.720564,9.227856
1008.355469,0.969041,-6.507977,-5.893669,-2.451169
1008.359375,-4.057644,-12.082653,-6.929198,-11.328136
1008.363281,-3.404022,-2.256241,-6.198989,-5.168327
1008.367188,-11.559912,-13.520616,2.360435,-9.378624
1008.371094,-9.667766,-11.966820,-12.675297,-7.038224
1008.375000,-11.186792,-6.445391,-13.352713,-7.699695
1008.378906,-18.537945,-8.527111,-7.402346,-9.120417
1008.382812,-6.626018,-14.901205,-9.248552,-9.567492
1008.386719,-8.038753,-5.399855,-4.474335,-6.097359
1008.390625,-2.278616,-7.555234,-1.587939,-1.432004
1008.394531,-7.933720,-3.764682,-7.771569,-3.265814
1008.398438,-0.076960,-2.614662,1.731237,-1.748358
1008.402344,1.526217,4.434919,2.155824,1.685699
1008.406250,5.433401,1.180278,-0.250156,1.106661
1008.410156,8.116606,6.655170,5.876571,0.814101
1008.414062,10.132156,11.677303,7.278649,4.108194
1008.417969,9.960331,17.761844,14.568555,13.919881
1008.421875,10.215082,3.692967,6.593527,10.379500
1008.425781,10.371929,13.084285,14.982284,5.424778
1008.429688,11.120485,6.915918,16.613927,5.578513
1008.433594,2.160555,5.392478,10.551343,0.621657
1008.437500,9.392306,9.991748,-0.040418,2.787275
1008.441406,0.817185,3.853918,5.770195,3.749211
1008.445312,2.869532,5.991109,8.498405,9.284679
1008.449219,1.256369,2.418570,1.652479,6.942030
1008.453125,-3.240933,-4.557592,-6.480346,-3.244292
1008.457031,0.691651,-2.743329,-0.394370,-8.102685
1008.460938,-10.877844,-6.230202,-13.041861,-9.728360
1008.464844,-13.596001,-11.274432,-11.781377,1.349298
1008.468750,-10.660365,-3.946638,-9.009363,-11.278579
1008.472656,-14.092582,-10.251673,-10.062635,-12.569361
1008.476562,-0.998221,-13.543873,-13.190188,-6.057659
1008.480469,-13.764480,-11.550446,-2.845398,-12.216514
1008.484375,6.044142,-13.867949,-9.242741,-3.665062
1008.488281,-2.082898,-6.443014,-2.263546,-7.362331
1008.492188,-6.846846,-10.626827,-8.774507,-6.130715
1008.496094,-1.701512,-6.393263,1.467555,2.160899
1008.500000,0.273401,1.314451,3.338501,-1.921884
1008.503906,1.406741,-0.430673,3.250646,1.382127
1008.507812,3.227796,7.027718,5.319775,9.578697
1008.511719,3.222327,6.396521,8.434945,10.189299
1008.515625,8.597777,7.623636,2.966943,7.038029
1008.519531,5.156419,3.930196,9.636437,13.163988
1008.523438,16.417029,12.692819,11.634179,6.448285
1008.527344,5.868300,11.377310,7.004499,6.712276
1008.531250,12.209852,12.286173,11.694446,10.297295
1008.535156,10.995385,10.678183,17.917140,10.543689
1008.539062,6.695320,1.958640,4.237538,4.399161
1008.542969,7.016196,0.210493,1.659087,10.829137
1008.546875,-4.246408,5.779665,6.762644,-5.709869
1008.550781,0.092482,3.879329,2.026484,-1.632373
1008.554688,2.891934,-6.083195,-4.637929,-7.395693
1008.558594,-10.671210,-5.281071,2.275249,0.873332
1008.562500,-10.900440,-15.174063,3.497599,-9.548211
1008.566406,-14.920547,-10.268363,-4.444886,-10.780488
1008.570312,-8.891975,-4.199941,-10.231268,-9.803233
1008.574219,-10.109612,-12.026063,-10.517214,-8.212491
1008.578125,-9.442911,-6.629802,-15.775975,-10.495656
1008.582031,-6.575071,-2.542866,-10.285553,-6.063040
1008.585938,-5.945274,-3.977418,-10.221014,-4.159879
1008.589844,-5.824748,-10.148317,-10.628455,-10.447917
1008.593750,-7.595583,-3.028039,-11.429486,-7.806423
1008.597656,6.602635,-0.373542,2.467484,4.489410
1008.601562,4.165945,1.657277,7.521953,2.908613
1008.605469,-0.046280,8.503018,8.066270,4.413004
1008.609375,-1.759442,6.694897,7.671431,6.808488
1008.613281,2.033959,9.633044,3.750167,2.745791
1008.617188,2.859021,15.787174,10.541727,10.687633
1008.621094,15.850336,2.055851,1.520921,3.636260
1008.625000,12.074313,8.442173,7.816617,13.610956
1008.628906,7.616296,5.219886,7.226904,5.535581
1008.632812,8.719633,11.702236,2.880983,9.566217
1008.636719,12.879868,9.092275,7.354952,3.961201
1008.640625,10.299320,8.766555,7.279452,3.228833
1008.644531,4.285973,5.180620,5.432499,0.753176
1008.648438,-5.856482,-0.874830,3.522255,-3.799767
1008.652344,0.120800,-1.218360,-4.403043,-3.129754
1008.656250,-6.223458,0.534705,-5.272566,-3.312777
1008.660156,-8.043668,-4.042560,-7.079728,-17.063968
1008.664062,-4.056590,-10.397322,-11.667147,-1.846500
1008.667969,-9.059102,-15.030664,-12.845845,-12.947183
1008.671875,-12.034771,-7.229425,-12.911844,-24.721753
1008.675781,-9.609763,-4.919787,-10.831189,-15.038116
1008.679688,-11.526743,-7.306661,-8.800761,-13.310907
1008.683594,-10.886251,-3.606260,-14.785280,-3.059517
1008.687500,-6.205037,-4.501779,-4.139271,-11.228985
1008.691406,-10.187209,-7.705071,-6.497810,-7.470925
1008.695312,-6.392480,-6.247503,-0.926075,-0.572347
1008.699219,-4.037377,-3.192391,-1.406252,0.892649
1008.703125,7.486581,6.529435,1.073218,2.884819
1008.707031,1.793849,1.957522,7.168100,1.234616
1008.710938,13.485801,11.894291,6.664629,7.577388
1008.714844,14.231412,2.188032,2.324921,5.214299
1008.718750,5.637186,7.629231,9.150149,18.395120
1008.722656,16.007676,6.034226,5.230019,10.540274
1008.726562,12.228275,12.653085,10.615424,9.215875
1008.730469,11.639138,6.279951,6.618227,-0.869721
1008.734375,11.012079,8.728864,6.893893,3.182491
1008.738281,7.794584,5.326241,2.793782,6.896527
1008.742188,1.105004,7.458137,8.319862,-2.139718
1008.746094,1.011129,1.536318,-8.482087,2.942810
1008.750000,2.957959,2.895677,-2.401693,3.546098
1008.753906,-2.245604,-3.533409,-0.021444,1.835087
1008.757812,-10.395903,-2.313428,-6.208420,-2.347931
1008.761719,-4.439964,-3.441239,-5.684228,-13.207993
1008.765625,-15.363174,-2.754269,-9.487201,-5.265480
1008.769531,-12.813784,-5.214494,-15.891644,-11.088623
1008.773438,-9.427974,-8.188244,-5.784990,-8.356535
1008.777344,-13.421847,-6.558060,-14.958129,-11.340504
1008.781250,-8.829052,-13.032630,-3.708842,-8.554275
1008.785156,-7.903595,-12.826160,-12.287250,-13.584785
1008.789062,-8.159900,-11.907919,-10.563295,-1.957888
1008.792969,-0.273604,0.984766,-7.235693,-8.224148
1008.796875,1.339125,-2.747722,-9.491096,-4.426250
1008.800781,-5.374241,0.140305,-0.387172,4.075910
1008.804688,0.286310,4.660464,4.526117,3.388805
1008.808594,7.583474,11.722907,-0.516268,3.758381
1008.812500,3.872310,10.050796,11.902036,0.488651
1008.816406,14.209150,5.701836,7.930241,6.318422
1008.820312,2.995909,15.290182,13.143543,14.282054
1008.824219,9.668012,6.538318,9.926717,3.842472
1008.828125,17.390480,2.053054,11.283184,8.224769
1008.832031,8.653241,14.899337,10.635220,16.003732
1008.835938,3.233814,13.190872,3.599465,8.092941
1008.839844,6.568885,-1.698961,3.575031,4.573269
1008.843750,-2.956286,0.183009,2.396271,6.170625
1008.847656,-2.789180,3.593770,-5.867037,-3.663044
1008.851562,-6.040321,3.673423,-1.690029,2.815664
1008.855469,7.168175,-1.332460,-5.945677,-2.894619
1008.859375,0.827503,-2.090995,-9.888585,-7.937580
1008.863281,-3.822963,-4.217137,-1.310868,-11.672474
1008.867188,-14.370846,-8.118268,-3.305013,-8.654856
1008.871094,-5.452138,-8.125759,-5.292482,-13.416790
1008.875000,-13.360826,-15.005458,-1.899326,-5.691382
1008.878906,-11.724293,-14.513223,-14.024180,-6.664571
1008.882812,-7.989397,-9.852646,-12.052953,-4.234995
1008.886719,-14.821453,-4.331194,-4.649830,-7.406174
1008.890625,-6.242146,-16.282316,-3.801743,-7.579856
1008.894531,1.217254,-4.270063,-5.578240,-11.313886
1008.898438,3.038933,-1.504202,-2.555781,2.851983
1008.902344,-0.373516,13.351993,-0.905645,-2.181204
1008.906250,3.126182,6.508524,0.152311,2.823476
1008.910156,2.458565,5.085663,7.390704,7.807748
1008.914062,4.534942,9.074755,4.075103,12.875288
1008.917969,6.260382,14.882259,5.050132,10.331690
1008.921875,6.903951,-1.570185,5.434405,13.208375
1008.925781,7.096714,8.476113,14.530537,9.492436
1008.929688,4.585349,12.702756,11.653408,8.049159
1008.933594,10.837866,14.653940,9.343095,7.413906
1008.937500,4.094673,10.822827,5.787981,11.658964
1008.941406,10.366705,-2.209252,7.705754,6.483100
1008.945312,-0.915086,3.212147,7.207220,6.195682
1008.949219,0.771630,-0.853290,4.595064,10.324324
1008.953125,0.250519,2.169011,-2.393301,-6.147229
1008.957031,-9.107228,2.090258,-4.054455,-12.851787
1008.960938,-3.281759,-5.188335,-4.459256,-2.826155
1008.964844,-4.217682,-9.968569,-6.242708,-5.700123
1008.968750,-2.956498,-12.930190,-8.796981,-0.066430
1008.972656,-9.043970,-4.945029,-9.894043,-8.779073
1008.976562,-16.480556,-3.747239,-10.036513,-12.736706
1008.980469,-7.206757,-7.413318,-7.542202,-13.886869
1008.984375,-0.266972,-8.337377,-1.689862,-12.135025
1008.988281,-3.359300,-7.237295,-2.668344,-1.822892
1008.992188,-14.548027,4.221164,-7.763928,-9.022759
1008.996094,-12.217758,-4.788473,-9.189789,-0.121967
1009.000000,3.368616,-0.955026,1.018406,1.474322
1009.003906,1.115463,0.363192,0.427170,4.098753
1009.007812,9.361284,1.035427,4.919424,7.257373
1009.011719,3.686907,6.072223,5.856465,10.224898
1009.015625,3.616135,11.069752,10.654906,8.120659
1009.019531,10.876168,14.245138,11.966445,5.689594
1009.023438,11.814928,10.619428,13.399654,5.030159
1009.027344,16.550169,9.001338,8.953973,4.661602
1009.031250,10.567457,12.451388,4.063167,10.236045
1009.035156,12.132507,6.082193,7.265612,4.688656
1009.039062,5.897188,4.982394,9.936057,5.435731
1009.042969,5.525524,3.573666,3.184815,6.229201
1009.046875,2.024324,2.302923,6.011755,0.389052
1009.050781,2.206080,-0.525726,1.133246,3.447947
1009.054688,-9.655364,1.490894,-5.325260,-3.521991
1009.058594,-4.423427,0.918498,-4.935417,-2.386431
1009.062500,-4.356139,-9.605850,-2.364844,-5.292074
1009.066406,-1.837738,-13.338765,-9.744794,0.230106
1009.070312,-11.513387,-8.566870,-2.879800,-4.781692
1009.074219,-11.037875,-9.250932,-10.865767,-9.918775
1009.078125,-13.869060,-9.299726,-9.405152,-4.792088
1009.082031,-5.387452,-8.127361,-5.803216,-8.677369
1009.085938,-1.289052,-4.889715,-8.647446,-4.388070
1009.089844,-7.796085,-7.908777,-6.442352,-6.679060
1009.093750,-4.992212,-5.167037,-4.176417,-1.134884
1009.097656,-4.935513,-9.033654,-6.552361,-4.587012
1009.101562,5.152928,2.196705,2.890698,2.596217
1009.105469,8.091679,5.996347,1.620806,-1.507103
1009.109375,0.799938,8.736413,4.720313,4.431912
1009.113281,7.327359,7.304182,5.093620,15.075186
1009.117188,7.569808,7.274622,9.903071,9.097185
1009.121094,1.611246,10.282012,5.449733,10.436932
1009.125000,16.396993,17.291599,6.422474,7.844860
1009.128906,11.624147,9.976066,5.202517,9.949809
1009.132812,7.233535,19.124498,0.975548,5.332330
1009.136719,4.607016,6.353964,9.780987,3.154042
1009.140625,7.843204,7.787725,6.022519,3.155107
1009.144531,-0.715268,2.656371,4.312254,0.827678
1009.148438,-0.345767,3.273073,-2.658633,-2.640562
1009.152344,-10.511966,-0.574170,-2.197097,-4.487027
1009.156250,-10.834239,-1.313425,-7.404257,1.817285
1009.160156,-2.726258,-9.122688,-1.256021,-11.756364
1009.164062,-14.556331,-7.187356,-9.640478,-10.032319
1009.167969,-3.148596,-4.020130,-11.294528,-14.030574
1009.171875,-9.092506,-6.244959,-14.668930,-13.338789
1009.175781,-15.075983,-5.088049,-12.354936,-10.380915
1009.179688,-6.678231,-13.575551,-12.589057,-9.743895
1009.183594,-14.929692,-10.376832,-2.569114,-4.853082
