timestamp,TP9,AF7,AF8,TP10
1000.000000,-5.659055,-2.380310,-2.624464,0.985058
1000.003906,1.694543,1.517548,7.990555,3.301418
1000.007812,3.066204,5.632463,3.707670,10.979087
1000.011719,1.836640,7.301097,9.397698,5.043572
1000.015625,9.635892,5.783492,8.789687,3.773139
1000.019531,6.858967,7.142457,1.611117,9.567242
1000.023438,9.911074,5.514353,7.161915,6.322035
1000.027344,12.766573,3.232067,14.455975,11.535448
1000.031250,5.211253,5.468221,5.859120,5.420139
1000.035156,8.057012,10.178087,8.784697,7.915874
1000.039062,6.081765,3.662415,7.246257,3.860040
1000.042969,-3.608984,1.182208,-1.311670,6.847640
1000.046875,7.765440,3.584323,7.314333,3.364799
1000.050781,3.135840,1.746283,3.150777,0.376854
1000.054688,-1.846167,5.053009,-2.667384,2.638786
1000.058594,-0.872344,-7.317192,-6.310417,-6.318046
1000.062500,-12.830622,-6.084912,-8.687640,-5.158608
1000.066406,-3.100929,-5.964434,-5.519614,-9.012783
1000.070312,-13.867047,-19.681519,-14.537074,-9.635077
1000.074219,-10.477827,-12.022465,-2.889172,-6.404166
1000.078125,-9.502912,-11.813431,-13.413776,-8.423321
1000.082031,-8.954212,-10.528953,-13.171103,-6.645656
1000.085938,-5.956202,-10.967067,-13.198688,-10.284238
1000.089844,-3.974514,-8.843480,-2.491024,-7.427568
1000.093750,-2.738727,-5.380824,-2.310345,-6.158683
1000.097656,-3.689619,2.285354,0.415307,-1.361438
1000.101562,2.142557,1.187268,-2.178959,-3.634208
1000.105469,1.954760,5.709562,8.370345,-5.947922
1000.109375,0.930983,-0.223099,4.888654,-2.743515
1000.113281,2.539991,9.029688,2.571005,6.421612
1000.117188,6.021306,-0.991738,7.852101,2.759088
1000.121094,4.392408,9.449959,11.974456,8.205179
1000.125000,8.869984,13.930166,9.511040,10.421551
1000.128906,8.311183,11.349775,11.336127,16.878526
1000.132812,12.861335,14.189667,14.528280,1.542297
1000.136719,9.272334,8.487232,5.597271,2.780677
1000.140625,3.642668,10.558433,8.443293,6.475214
1000.144531,1.267247,8.774379,5.617803,2.196348
1000.148438,6.075358,4.758991,6.439649,5.597773
1000.152344,-7.375752,-3.890839,1.858466,-7.364008
1000.156250,-2.121946,-3.931357,-0.926189,-8.622898
1000.160156,3.209237,1.158072,-6.513960,-11.789345
1000.164062,-5.099430,-10.036969,-12.785429,-0.975231
1000.167969,-4.740916,-6.378903,-9.663144,-2.874451
1000.171875,-13.955058,-12.236891,-14.973342,-13.128412
1000.175781,-10.011683,-14.780471,-7.393802,-15.502301
1000.179688,-4.793066,-9.230715,-4.287948,-5.112353
1000.183594,-12.642800,-5.259384,-7.660285,-0.258373
1000.187500,-13.754374,-4.823951,1.128025,-8.100726
1000.191406,-12.185487,-5.803849,-2.433577,-9.972704
1000.195312,-0.151833,-5.844645,-7.637305,-6.162765
1000.199219,0.281742,1.774873,2.958551,1.289412
1000.203125,0.096714,-0.565885,8.074195,1.849532
1000.207031,-0.588813,5.538948,5.121750,5.455979
1000.210938,10.128931,3.513015,10.511396,6.683418
1000.214844,5.461322,8.446314,-1.872322,10.634776
1000.218750,11.856866,4.714580,8.053990,8.668129
1000.222656,9.893436,6.771493,4.065346,6.066386
1000.226562,8.339278,4.844816,10.120247,7.921718
1000.230469,7.993581,5.100421,4.745553,8.406526
1000.234375,12.847862,11.796744,5.167934,9.488215
1000.238281,12.378658,8.795104,6.965894,2.567238
1000.242188,17.976080,3.874337,9.188198,9.763910
1000.246094,5.504587,-3.326874,3.053163,1.148782
1000.250000,-4.154136,-5.585826,2.992332,-0.206719
1000.253906,-1.155706,-2.808498,-3.616300,-0.808798
1000.257812,-1.245383,-6.470962,-4.289083,-5.411598
1000.261719,-2.848826,-4.811482,-3.511310,-6.305175
1000.265625,-14.290232,-10.457317,2.574213,-7.116108
1000.269531,-9.097104,-13.895402,-2.612545,-0.492568
1000.273438,-7.537192,-8.025847,-4.750973,-7.982458
1000.277344,-14.178887,-8.010200,-6.440669,-16.553052
1000.281250,-16.124924,-5.279445,-9.874799,-13.449655
1000.285156,-10.975383,-7.985211,-8.042284,-6.414579
1000.289062,-6.264854,-6.110669,-8.874982,-3.978656
1000.292969,-2.715791,-6.112005,-2.063937,-0.518384
1000.296875,-1.309798,-0.132471,6.593299,-2.070858
1000.300781,-5.513111,-1.284521,2.452445,9.179807
1000.304688,-0.114491,-0.717055,4.746893,0.443057
1000.308594,10.077961,9.614598,7.783060,4.561556
1000.312500,9.703106,10.132728,7.113042,3.954678
1000.316406,22.667386,10.952544,5.001284,6.502084
1000.320312,12.050357,6.064059,5.559979,14.594585
1000.324219,17.582529,17.464804,5.282487,3.096741
1000.328125,9.058960,13.035083,9.038412,5.581470
1000.332031,10.709966,8.997065,14.341081,8.657201
1000.335938,10.681515,7.616976,12.799065,15.508234
1000.339844,3.162803,4.137901,1.594513,-2.093087
1000.343750,-2.181022,6.434184,-0.892728,3.120574
1000.347656,1.203733,-0.925631,1.772071,0.316290
1000.351562,-5.477187,1.573754,5.461690,-1.058101
1000.355469,-7.763038,-10.179875,-4.222972,-2.540031
1000.359375,-6.873499,-7.916077,-1.309070,-6.247822
1000.363281,-3.261952,-4.769644,-14.228824,-10.257639
1000.367188,-6.093329,-5.859429,-15.730086,-7.820858
1000.371094,-17.030027,-7.532052,-18.101692,-4.396409
1000.375000,-11.186796,-5.905637,-3.838426,-13.611298
1000.378906,-15.697238,-15.129750,-19.446833,-16.459504
1000.382812,-11.708243,-13.388856,-10.557870,-9.358431
1000.386719,-6.847338,-10.164604,-9.639577,-9.682824
1000.390625,-12.846974,-8.221478,-7.221724,-3.833381
1000.394531,-7.511890,-7.102879,-5.284959,3.218643
1000.398438,-1.857574,-0.442126,-0.521488,-1.824552
1000.402344,-1.685706,-7.570953,1.854098,-2.742788
1000.406250,1.415830,-1.217128,4.660782,-1.055237
1000.410156,6.786064,4.669287,5.597854,5.199955
1000.414062,6.914972,2.084465,15.353885,5.139466
1000.417969,4.569133,12.218016,11.650312,15.710353
1000.421875,14.068793,12.376604,13.509851,9.888064
1000.425781,12.470970,7.073129,9.954853,12.187811
1000.429688,16.310427,10.080896,9.368110,11.344562
1000.433594,15.250608,5.029876,2.976587,10.958810
1000.437500,4.759329,3.157455,14.041277,6.154921
1000.441406,13.614894,3.853140,9.104004,5.212639
1000.445312,2.487560,2.269229,6.760884,8.674851
1000.449219,1.510136,-4.069952,1.727104,4.791408
1000.453125,-3.447357,-2.703239,-3.871055,7.834233
1000.457031,-5.766539,-1.449433,4.083195,5.997650
1000.460938,-9.285898,-0.595206,-10.019241,-13.456939
1000.464844,-8.794117,-5.322132,-7.405453,-12.777232
1000.468750,-9.174814,-2.902127,-9.008293,-16.584201
1000.472656,-5.280767,-13.401397,-16.415041,-8.081269
1000.476562,-18.058250,-14.568046,-9.515045,-9.793160
1000.480469,-10.831524,-10.130502,-13.247937,-10.274375
1000.484375,-7.054169,-8.565203,-9.417633,-11.045270
1000.488281,-1.328950,-1.303530,-2.434712,-8.073301
1000.492188,-5.759714,-7.945428,-7.241275,-7.473955
1000.496094,5.165949,-5.382998,-0.628615,-5.709968
1000.500000,0.745735,-1.725236,4.777098,5.574983
1000.503906,9.812665,7.029803,0.931737,11.284484
1000.507812,-0.455716,7.743696,6.364730,7.003556
1000.511719,7.267815,10.612139,10.571306,12.465733
1000.515625,3.651973,13.287760,9.343279,13.144456
1000.519531,11.088298,16.049991,11.616766,11.815454
1000.523438,13.602662,12.916542,4.315722,11.335724
1000.527344,12.212676,7.291329,10.071108,5.445514
1000.531250,7.643248,1.351522,4.991020,3.811706
1000.535156,8.838217,14.700123,4.431418,10.308759
1000.539062,6.659003,5.113582,8.076454,2.967982
1000.542969,1.953390,6.729132,7.191997,6.947941
1000.546875,2.286194,5.074862,-1.688379,-2.028181
1000.550781,0.221059,9.026433,-5.374889,-3.563066
1000.554688,-0.034727,-5.130221,-3.664398,-9.577977
1000.558594,0.534395,-3.859211,-11.305147,-5.696814
1000.562500,-6.400050,-4.316728,-5.243997,-11.598180
1000.566406,-11.729409,-5.936189,-12.040078,-12.788352
1000.570312,-13.868629,-4.989495,-3.886713,-5.307262
1000.574219,-12.114748,-6.491739,-7.518128,-3.281182
1000.578125,-4.206393,-9.799079,-12.557055,-11.024990
1000.582031,-6.887659,-15.855219,-12.513974,-9.703700
1000.585938,-8.403709,-9.113980,-11.314311,-10.438137
1000.589844,-11.269221,-0.683231,-3.910449,5.995244
1000.593750,-6.233748,-6.479071,-8.292798,-3.166494
1000.597656,-3.676135,0.927720,5.498824,-6.249676
1000.601562,2.516066,-4.576185,5.014431,0.621311
1000.605469,4.093627,5.671154,3.181346,-4.136641
1000.609375,2.984174,6.464639,7.318132,0.637533
1000.613281,7.493057,1.242021,-0.312240,9.009633
1000.617188,7.715657,10.674447,9.832692,12.355382
1000.621094,7.376077,5.861524,11.746624,9.846214
1000.625000,12.647879,10.606491,10.988153,11.168210
1000.628906,10.860475,7.520950,15.951645,5.957187
1000.632812,9.829860,12.205425,5.059354,4.354892
1000.636719,9.678916,7.733135,11.577066,9.894646
1000.640625,2.997343,2.591754,4.871288,8.446892
1000.644531,4.577703,-1.122368,2.654773,-0.388593
1000.648438,4.861834,6.206394,2.693782,2.924332
1000.652344,-9.411810,-4.476375,-2.557180,1.811432
1000.656250,-11.156991,2.900347,-7.752961,2.554122
1000.660156,-4.091874,-5.881660,3.512472,-6.144057
1000.664062,-10.269838,-7.167355,0.922138,-12.557568
1000.667969,-2.109162,-9.602170,-7.933266,-0.436176
1000.671875,-9.254937,-11.123916,-3.461834,-8.143437
1000.675781,-7.400709,-6.541384,-16.954684,-6.224908
1000.679688,-8.229537,-6.614849,-7.486521,-6.231211
1000.683594,-8.909670,-15.513731,-10.305901,-9.396455
1000.687500,-15.631091,-4.026348,-2.617090,-2.934388
1000.691406,-8.531993,-8.097036,-12.678745,-7.173537
1000.695312,4.353818,-2.397220,6.706600,4.175749
1000.699219,-4.778602,1.274185,4.177189,-8.576339
1000.703125,-0.816097,2.313862,3.082484,5.546822
1000.707031,3.558710,0.761846,1.197972,11.594397
1000.710938,4.204360,0.443246,10.140327,2.504952
1000.714844,8.215212,0.557337,2.238400,5.185623
1000.718750,8.256984,6.026363,6.210725,2.460114
1000.722656,4.750559,6.422653,8.705981,7.494804
1000.726562,5.851003,15.347538,11.683907,6.142683
1000.730469,16.650982,3.540407,2.732285,7.145399
1000.734375,3.692820,9.824309,5.836888,6.960607
1000.738281,12.066767,7.806478,12.239024,0.478976
1000.742188,8.816864,6.496382,4.073311,-3.988213
1000.746094,2.334152,4.183985,3.758094,-0.102632
1000.750000,2.469792,-2.827823,-4.003296,-11.901571
1000.753906,-0.698909,1.344163,-2.598062,2.047856
1000.757812,-0.371449,-1.063391,-8.318747,-7.863850
1000.761719,-1.353136,-4.974983,-4.028645,-9.038359
1000.765625,-7.743389,-9.201268,-10.810906,-5.255645
1000.769531,-10.550025,-7.566009,-5.865201,-10.283922
1000.773438,-10.906004,-10.047076,-18.711284,-4.002232
1000.777344,-5.021444,-11.858488,-12.942996,-16.244707
1000.781250,-8.121496,-11.053687,-12.385880,-3.587734
1000.785156,-7.647569,-5.647197,-6.351167,-6.567806
1000.789062,-3.556472,-10.183486,-9.224030,-4.034337
1000.792969,-8.534866,2.300686,-5.339090,-8.445265
1000.796875,-6.795643,-4.096753,0.790972,-6.342134
1000.800781,-2.056432,4.816690,-3.007417,5.605279
1000.804688,4.634747,4.910038,8.349001,6.852069
1000.808594,3.972461,8.139404,0.584925,9.684549
1000.812500,5.125410,7.860986,1.070352,8.025743
1000.816406,10.609955,12.112815,10.320105,5.503450
1000.820312,7.120786,8.622763,9.430081,17.665617
1000.824219,9.912778,4.830098,4.812918,4.690843
1000.828125,10.074598,10.967358,5.774739,12.666671
1000.832031,5.715171,13.089293,7.145512,8.580368
1000.835938,5.490108,6.811369,11.466355,9.205295
1000.839844,8.087637,8.559667,3.062157,3.955180
1000.843750,2.387915,5.563318,4.153265,4.925986
1000.847656,4.935749,0.850460,-3.419589,2.661329
1000.851562,7.036220,0.190760,2.795709,-0.856090
1000.855469,-2.555181,-7.729121,-6.944755,-2.039043
1000.859375,-2.881382,-8.603346,0.049261,-4.577051
1000.863281,-10.427141,-4.262743,-9.064420,-16.282042
1000.867188,-8.025905,-9.489436,-8.273981,-2.844289
1000.871094,-11.317754,-9.210530,-5.128983,-13.625911
1000.875000,-12.542235,-13.561371,-11.638441,-3.286566
1000.878906,-7.386698,-3.191018,-9.799856,-0.279883
1000.882812,-7.697466,-14.004539,-10.731135,-8.431134
1000.886719,-7.275715,-12.410626,-5.594459,-11.353209
1000.890625,2.524767,-5.047028,1.805413,-16.155022
1000.894531,-1.441814,-5.486145,-0.851963,-2.942086
1000.898438,-7.618825,-0.066720,-3.150582,4.337840
1000.902344,2.421934,2.203144,8.347885,4.191763
1000.906250,7.763013,-0.141094,12.606882,5.110720
1000.910156,12.409424,5.646470,0.078741,8.191960
1000.914062,11.058379,7.323750,9.443390,4.040815
1000.917969,4.688512,10.615699,7.856467,8.482458
1000.921875,18.420431,12.384532,15.618017,16.639437
1000.925781,8.636633,10.492399,15.839124,15.842088
1000.929688,7.835488,5.307334,12.004902,7.732562
1000.933594,5.737159,11.110599,1.079616,10.472807
1000.937500,7.691869,-2.840206,6.721422,11.123618
1000.941406,5.371031,3.286046,3.484148,2.513694
1000.945312,-0.247798,9.463526,3.569097,1.584317
1000.949219,4.344574,2.602464,1.678826,4.561791
1000.953125,0.685656,-9.053454,-2.223684,-4.511253
1000.957031,0.290453,-4.186177,-1.928736,-6.732229
1000.960938,-8.255505,-4.601559,-11.018974,-3.619013
1000.964844,-10.317062,-1.162349,-3.546444,-5.273533
1000.968750,-8.706355,-13.203161,-9.743519,-10.400313
1000.972656,-11.491700,-9.768424,-10.492040,-11.486735
1000.976562,-15.715747,-8.650930,-6.955604,-9.361205
1000.980469,-16.862611,-8.245157,-13.356717,-5.677813
1000.984375,-8.779125,-4.751137,-9.069500,-2.413283
1000.988281,-5.548509,-6.885351,-9.445357,-6.241722
1000.992188,-5.804893,-7.072610,-6.730915,-6.338854
1000.996094,-6.230465,-0.235791,2.902692,-3.715184
1001.000000,0.715904,4.879733,0.647912,-4.085954
1001.003906,2.718971,-0.662164,10.938171,-1.875608
1001.007812,3.363475,-0.821304,9.063896,-0.515427
1001.011719,9.624930,6.301163,5.289289,8.606622
1001.015625,5.119449,3.926884,8.146610,11.981367
1001.019531,10.976420,11.152182,15.503841,4.438923
1001.023438,15.078202,9.252166,6.162324,14.011161
1001.027344,10.058961,13.369319,10.253572,12.941678
1001.031250,6.660030,11.604694,9.860839,5.427715
1001.035156,11.816452,13.705894,1.580275,7.645243
1001.039062,5.808486,7.632745,12.064551,2.722090
1001.042969,6.300482,-0.859575,5.949299,1.412812
1001.046875,1.643429,-1.018568,5.645349,0.110343
1001.050781,2.526722,-7.946316,-12.146259,-2.974287
1001.054688,-8.693908,0.321158,-0.907828,-0.035166
1001.058594,-6.389399,-10.106331,-3.036952,-4.409247
1001.062500,-8.276284,-4.661410,-1.145702,-3.692288
1001.066406,-5.536117,-4.853773,-3.263634,-11.944407
1001.070312,-11.635898,-8.828866,-16.971167,-9.611659
1001.074219,-14.630979,-4.161673,-10.540393,-3.668170
1001.078125,-15.413816,-7.749972,-15.270928,-15.394934
1001.082031,-3.596646,-7.986137,-7.038965,-2.055669
1001.085938,-10.002657,-9.692100,-7.187846,-7.362648
1001.089844,-3.407466,-11.015658,-9.135360,-9.978879
1001.093750,2.556132,-3.240603,-14.021599,-5.384580
1001.097656,-6.776245,2.830541,2.800821,7.011528
1001.101562,-1.307506,5.017898,5.851578,5.529638
1001.105469,3.530346,5.719577,-6.587044,3.588754
1001.109375,4.308861,3.198056,2.907302,13.229161
1001.113281,6.428248,14.548889,8.407868,9.788398
1001.117188,1.617024,11.948508,13.466229,10.023513
1001.121094,4.275600,11.069794,6.408757,9.550519
1001.125000,1.119420,1.238201,6.400341,16.200011
1001.128906,3.711099,9.669547,12.305311,10.209064
1001.132812,1.384167,9.162042,11.809376,13.773175
1001.136719,4.573629,8.390563,10.262561,6.034165
1001.140625,5.965892,5.429475,3.844309,8.849197
1001.144531,1.444117,10.854478,2.221336,5.660915
1001.148438,0.222310,2.302216,-1.991771,-2.556008
1001.152344,-4.070669,-2.171914,-4.329678,-2.383026
1001.156250,6.746606,-3.261542,-1.585103,-7.072703
1001.160156,2.775841,-10.614435,-7.582390,0.889811
1001.164062,-15.383534,-8.063080,-8.871748,-6.379026
1001.167969,-8.576571,-8.143565,-9.669250,-10.964004
1001.171875,-8.073397,-8.411201,-11.668601,-8.156303
1001.175781,-6.096208,-12.363862,-11.720375,-8.979569
1001.179688,-2.318050,-13.644467,-10.375448,-2.223810
1001.183594,-8.850816,0.663378,-8.063308,-15.491830
1001.187500,-7.884336,-9.459372,-7.502854,-2.930275
1001.191406,-0.053151,-6.572741,-12.048096,-2.754059
1001.195312,-10.535147,0.293507,-5.392340,-0.082961
1001.199219,3.442965,3.534706,0.555275,-1.472799
1001.203125,-0.151235,6.112453,-1.827210,-4.209503
1001.207031,3.276276,8.228810,4.727279,6.688669
1001.210938,7.320995,3.577268,2.925715,-0.224674
1001.214844,4.611078,9.313337,7.055292,13.074292
1001.218750,6.685147,5.032871,6.515722,15.149998
1001.222656,7.118168,9.821851,19.742631,9.056028
1001.226562,11.027048,13.026446,11.286370,9.396242
1001.230469,12.502586,9.706644,3.341869,9.750718
1001.234375,8.899114,7.783368,11.827388,11.598521
1001.238281,8.767962,7.242201,7.981119,2.730111
1001.242188,3.289919,-2.131985,9.749670,2.267310
1001.246094,2.550524,4.980358,2.875989,5.778951
1001.250000,0.040503,-1.783693,-1.016843,-3.213091
1001.253906,-8.129172,-3.375916,-1.295286,-3.746460
1001.257812,-3.160882,1.325517,-4.329905,-0.225797
1001.261719,-8.205322,-5.960608,-4.449412,-8.948885
1001.265625,-3.739610,-14.277650,-8.396105,-7.538488
1001.269531,-2.602754,-11.411137,-8.700437,-13.523878
1001.273438,-6.243355,-10.650259,-12.357765,-7.442865
1001.277344,-8.607298,-7.467521,-5.758706,-6.112927
1001.281250,-12.589552,-9.265294,-6.341438,-12.996955
1001.285156,-11.347086,-2.359267,-8.096285,-12.104370
1001.289062,-10.579615,-0.703088,-5.715273,-5.712271
1001.292969,-1.111388,-9.032612,-5.192036,-4.301232
1001.296875,-1.111606,-11.029914,-7.418262,6.034101
1001.300781,-3.189024,-2.288100,2.992140,2.873233
1001.304688,0.574351,8.172240,-1.976526,-0.147997
1001.308594,4.977541,1.975697,8.327694,1.381922
1001.312500,6.585498,1.482578,6.649574,10.044066
1001.316406,12.198134,12.087122,3.563018,4.916668
1001.320312,15.741022,12.413294,10.319681,5.201923
1001.324219,16.281368,14.226216,1.227770,12.978688
1001.328125,16.561136,9.165401,9.152186,3.838610
1001.332031,8.386922,5.319406,7.644712,9.707876
1001.335938,10.561947,5.523660,10.606411,13.999765
1001.339844,5.252897,2.868247,3.414452,5.196738
1001.343750,1.429137,5.971664,2.426194,1.148461
1001.347656,-1.650239,3.094148,3.531499,3.119109
1001.351562,2.203375,-2.784553,-4.291286,-2.092384
1001.355469,-2.016609,0.113663,-1.022453,0.587535
1001.359375,0.516408,-9.296708,-8.523522,-3.432248
1001.363281,-10.477995,-7.478781,-13.935686,-9.622347
1001.367188,-12.624442,-11.425932,-4.489746,-13.474153
1001.371094,-6.484939,-10.505946,-6.592850,-2.204148
1001.375000,-12.428292,-4.908654,-3.410754,-11.681635
1001.378906,-7.331022,-10.771929,-8.068702,-8.021435
1001.382812,-8.173660,-3.064672,-9.091017,-6.879365
1001.386719,-10.040281,-2.629328,-3.161768,-1.932816
1001.390625,-3.938083,-1.883494,-3.094193,-4.089617
1001.394531,2.719943,-1.862615,-0.625112,-0.481549
1001.398438,8.043214,2.798159,-2.520359,-6.442975
1001.402344,-2.965001,-3.247324,-2.095774,1.208956
1001.406250,10.847475,0.771967,-0.423332,8.110728
1001.410156,5.296396,10.004426,11.359152,6.210799
1001.414062,7.296919,8.103333,3.933921,11.354970
1001.417969,17.010885,9.474242,6.552019,5.393171
1001.421875,12.262307,12.659230,14.776264,8.022818
1001.425781,11.798117,10.324196,8.429483,17.069866
1001.429688,8.183459,10.263087,4.924567,11.051864
1001.433594,10.022407,6.431193,14.530353,10.052628
1001.437500,1.479232,8.572622,6.817985,3.918292
1001.441406,9.014992,3.735535,8.494068,4.103685
1001.445312,-0.031724,3.058557,-4.633603,5.633716
1001.449219,3.403222,6.217363,-4.021427,-2.271429
1001.453125,-0.311501,4.003516,-1.464250,0.255400
1001.457031,-0.716635,-1.848758,-6.799876,4.113341
1001.460938,-10.883336,-5.017959,-6.638263,-8.295976
1001.464844,-11.199382,-8.795699,-12.808518,-6.461513
1001.468750,-5.436773,-11.373415,-9.916468,-8.951838
1001.472656,-5.770207,-11.642195,-6.886942,-1.684962
1001.476562,-8.025582,-8.334932,-13.488430,-10.840942
1001.480469,-6.663837,-13.458464,-10.652142,-3.831031
1001.484375,-1.272210,-9.737398,-2.918000,-10.951299
1001.488281,-9.347106,-5.596205,-7.164924,-2.323687
1001.492188,-3.764315,1.026381,-5.201882,-3.386436
1001.496094,1.205236,-10.213962,-3.148281,-9.734669
1001.500000,-5.236820,2.846715,-3.058148,7.127145
1001.503906,-0.645234,5.648979,2.046502,11.908607
1001.507812,7.622418,1.881427,5.422322,7.606966
1001.511719,7.197700,6.384460,5.378114,4.702996
1001.515625,8.469441,9.995126,9.554099,9.542327
1001.519531,15.971862,9.591771,12.651301,11.129084
1001.523438,7.894457,9.072781,9.826054,1.484863
1001.527344,11.179763,10.085398,7.569002,8.239058
1001.531250,10.768261,15.986760,9.595315,18.625572
1001.535156,13.340566,10.380756,17.038316,3.444659
1001.539062,10.617249,6.138612,7.653179,7.166302
1001.542969,8.118740,3.463178,4.688720,0.355080
1001.546875,5.638183,-3.484302,4.920495,3.587686
1001.550781,4.641810,1.222806,4.148048,-2.665496
1001.554688,-1.732101,-2.280427,-1.380726,-2.875886
1001.558594,-7.910268,-4.563717,-3.422879,-7.621741
1001.562500,-10.200463,-4.813017,-5.569443,-7.990254
1001.566406,-10.308387,-7.269022,-8.849153,-13.198075
1001.570312,-16.376884,-11.940891,-7.837955,-8.240424
1001.574219,-11.962591,-14.389730,-20.955942,-15.228070
1001.578125,-10.582567,-5.698509,-8.071088,-16.113096
1001.582031,-13.492511,-11.543590,-7.608376,-3.963214
1001.585938,-8.909577,-6.665932,-5.351732,1.886741
1001.589844,-6.311262,-4.836125,-8.161265,-9.746377
1001.593750,-3.508568,-0.226625,-3.078991,-3.102984
1001.597656,-2.586398,0.594887,-1.224393,0.461781
1001.601562,-3.900517,6.316670,0.018465,-5.926751
1001.605469,2.508044,7.173067,0.776290,9.332410
1001.609375,7.584483,6.922322,-0.119861,9.030436
1001.613281,5.733744,-0.230415,7.333413,1.811512
1001.617188,9.515526,13.740597,6.785249,1.815226
1001.621094,8.939336,14.197478,6.826672,6.578966
1001.625000,13.553786,5.352661,4.839407,15.826986
1001.628906,14.979606,14.369025,11.563826,11.275801
1001.632812,8.234305,9.060320,5.355096,10.497757
1001.636719,12.121402,2.439843,8.971082,10.508044
1001.640625,2.184121,2.729100,3.614576,7.248708
1001.644531,7.303018,9.164781,7.633094,-3.083150
1001.648438,-1.794142,-1.101913,-6.234238,-4.053764
1001.652344,3.929953,-6.729332,-1.069476,2.147592
1001.656250,-2.781096,4.230571,-0.062671,-6.200920
1001.660156,-9.883727,1.094739,-2.419825,-3.966018
1001.664062,-5.998021,-10.986792,-10.783823,-8.395501
1001.667969,-5.535901,-4.555041,-15.107767,-10.213130
1001.671875,-15.098756,-7.809038,-9.287744,-7.461950
1001.675781,-12.821621,-9.044655,-5.846051,-15.481162
1001.679688,-10.766573,-12.500267,-6.655631,-16.881483
1001.683594,-7.845236,-3.011826,-7.217676,-4.627826
1001.687500,-2.387640,-11.357067,-4.033434,-6.512075
1001.691406,-9.150221,-0.549751,-4.280288,-13.589859
1001.695312,-0.225780,-4.951728,-5.329748,-3.271644
1001.699219,-1.352118,-4.634379,-7.444348,-2.437460
1001.703125,4.097866,1.975161,-2.490248,-3.062334
1001.707031,2.297471,1.917584,1.855682,10.952344
1001.710938,6.425515,5.232829,11.270992,5.578276
1001.714844,8.399506,8.092526,7.299709,3.238438
1001.718750,6.066388,9.033616,8.480073,12.701440
1001.722656,7.713504,10.062786,10.255958,12.181880
1001.726562,9.127762,12.883504,8.091897,4.564905
1001.730469,3.440274,11.263464,12.308335,14.866420
1001.734375,6.526543,1.605403,11.475668,11.173518
1001.738281,9.213295,17.941774,3.059786,12.431812
1001.742188,12.616706,5.019921,8.789279,6.737883
1001.746094,4.847097,3.257700,-3.099241,7.109832
1001.750000,0.037877,0.139025,-8.152573,5.897934
1001.753906,-8.733577,-4.026002,-2.125698,3.611766
1001.757812,1.726088,0.729548,-7.718503,-0.305226
1001.761719,-7.004672,-13.429594,-16.492483,-6.038049
1001.765625,-5.851067,-7.266020,-8.330099,-13.045542
1001.769531,-12.022216,-3.824374,-5.876084,-12.063259
1001.773438,-3.264010,-9.036462,-10.139027,-13.201764
1001.777344,-6.907299,-7.672527,-11.088341,-19.805928
1001.781250,-15.609912,-9.847548,-9.883945,-8.462197
1001.785156,-7.550811,-10.705627,-12.350433,-9.265755
1001.789062,-8.277941,-9.018074,-14.907269,-2.732312
1001.792969,2.178937,-3.354498,-2.740203,-5.224362
1001.796875,-6.213754,5.970958,-0.687566,-3.082981
1001.800781,3.423944,1.732975,0.786078,-0.957495
1001.804688,-1.317433,0.257067,-2.192168,1.372785
1001.808594,6.171108,11.354879,5.619273,11.148500
1001.812500,-1.284043,3.816781,5.734111,6.660907
1001.816406,8.939647,3.100070,13.025649,8.910665
1001.820312,6.738509,8.347374,12.966235,19.137488
1001.824219,15.570206,7.747899,8.211328,12.081191
1001.828125,7.221776,12.731421,4.994377,12.353731
1001.832031,6.607984,13.489485,12.950879,10.175051
1001.835938,5.311124,11.554585,3.467326,-2.046044
1001.839844,11.628511,9.366143,7.408994,4.160859
1001.843750,4.077703,-9.644814,1.988547,1.355622
1001.847656,-6.011055,2.095184,2.985596,0.461859
1001.851562,-1.988871,-1.213959,-1.993384,-1.522091
1001.855469,-1.686339,-3.898350,-6.651940,-9.480077
1001.859375,-5.745957,-1.746125,-8.738763,-6.800833
1001.863281,-5.797018,-3.186145,-14.244621,0.814160
1001.867188,-7.850411,-5.960719,-14.742308,-8.087418
1001.871094,-6.952738,-10.780813,-6.243550,-9.390679
1001.875000,-9.133256,-13.764670,-12.772751,-0.622057
1001.878906,-11.435763,-11.888916,-12.905920,-10.781575
1001.882812,-7.532126,-1.844411,-9.856326,-11.254426
1001.886719,-6.929006,-14.375183,-11.153732,-9.651506
1001.890625,-8.255806,-5.281529,-1.780741,-12.986075
1001.894531,-14.089065,-8.190095,2.676479,-5.197986
1001.898438,0.976476,2.037117,0.776983,-2.775068
1001.902344,6.361261,5.227875,3.084787,3.083287
1001.906250,6.552420,1.495161,4.363550,4.326948
1001.910156,-4.849049,10.569340,-2.844991,6.955872
1001.914062,13.676226,7.746275,2.626431,4.583076
1001.917969,8.408461,4.680031,11.633520,14.100852
1001.921875,7.870034,11.892119,3.782906,10.288559
1001.925781,7.693164,7.641346,13.568708,2.368557
1001.929688,12.962740,14.195673,8.023099,10.097496
1001.933594,10.012183,-0.657636,9.346828,9.974500
1001.937500,8.493174,9.884784,0.593585,4.825527
1001.941406,5.501174,11.366342,2.663101,-0.575409
1001.945312,-3.370467,5.790521,4.895009,-0.143893
1001.949219,-2.241467,3.022123,8.465833,0.038134
1001.953125,2.325531,-3.191671,-7.145497,-6.284042
1001.957031,-6.044521,-7.584292,-9.794509,-5.759840
1001.960938,-10.544664,-4.964393,-4.969769,-11.432147
1001.964844,-6.075884,-10.065719,-13.369981,-7.360498
1001.968750,-12.529768,-11.495764,-4.760922,-9.002236
1001.972656,-9.678105,-10.287705,-7.765965,-10.230311
1001.976562,-10.618445,-2.478468,-5.255931,-8.625194
1001.980469,-5.349571,-5.498630,-12.481444,-6.583817
1001.984375,1.983210,-7.066990,-15.168032,-8.675585
1001.988281,-3.466289,-6.166422,-6.941166,-6.120102
1001.992188,-9.172419,0.959083,-5.196356,-4.366993
1001.996094,-3.592254,-6.627653,-2.977933,-3.320450
1002.000000,3.074120,-1.396525,3.000446,-0.126261
1002.003906,0.975015,4.967333,3.458460,3.654167
1002.007812,3.835778,-0.305328,-2.398268,7.198651
1002.011719,4.706839,6.038253,6.638316,10.478311
1002.015625,3.133111,14.809908,11.663531,8.604632
1002.019531,5.550978,3.863430,8.936639,7.311480
1002.023438,11.464797,13.053026,20.995893,13.934187
1002.027344,2.668323,9.530276,11.557999,14.232154
1002.031250,5.548438,11.189398,4.583766,3.899576
1002.035156,1.400358,6.611936,0.490240,-3.500669
1002.039062,3.828469,5.495395,-0.093667,10.152529
1002.042969,4.032024,-3.218809,7.441654,1.058410
1002.046875,5.638516,2.437495,2.309829,-0.244442
1002.050781,2.535434,2.508504,-1.050380,-0.077052
1002.054688,-0.454565,-2.630499,-1.206215,-7.702876
1002.058594,-3.573476,3.675512,-5.952923,-6.323084
1002.062500,-4.891288,-1.168829,-15.254008,-7.566674
1002.066406,-6.319296,-10.419745,-8.420454,-12.899724
1002.070312,-16.641474,-8.253730,-6.133503,-9.656534
1002.074219,-18.094621,-2.983374,-2.477624,-14.977993
1002.078125,-22.151089,-2.597357,-8.342571,-8.819116
1002.082031,-13.512802,-13.578475,-7.914094,-10.301293
1002.085938,-7.420044,-15.691296,-2.581599,-11.282990
1002.089844,-12.153975,-7.986081,-9.550963,-4.278757
1002.093750,-1.918160,-2.910318,-3.960188,-4.674986
1002.097656,1.173307,-4.960336,-2.355806,-5.130837
1002.101562,-1.697249,-1.900171,2.116285,2.819832
1002.105469,4.305537,-5.616378,-3.636048,7.161219
1002.109375,9.253883,6.646214,9.053856,5.821599
1002.113281,13.685451,7.121502,6.432726,8.668642
1002.117188,11.883980,3.191428,7.046551,13.913346
1002.121094,2.169314,10.955060,9.035038,14.483277
1002.125000,13.721345,9.431805,10.592118,2.502806
1002.128906,11.077278,6.308354,9.934325,12.811057
1002.132812,5.942510,8.329297,9.351045,7.441769
1002.136719,10.144914,6.402361,9.936201,6.287955
1002.140625,-3.115310,5.359341,0.802317,5.010573
1002.144531,4.927129,-0.776470,6.233292,8.337604
1002.148438,-2.293745,-3.068945,0.566004,1.998739
1002.152344,-1.707085,0.557058,-3.644923,-1.676613
1002.156250,-1.508507,-5.476460,-0.806862,-1.624647
1002.160156,-10.644057,-9.305335,-6.024465,-13.819086
1002.164062,-14.126128,-13.346147,-11.442879,-9.186301
1002.167969,-8.241776,-6.106838,-12.983012,-10.857100
1002.171875,-10.070769,-8.127595,-11.305716,-8.238906
1002.175781,-7.988801,-8.947843,-15.930961,-8.450380
1002.179688,-12.004082,-12.131938,-5.679727,-14.604599
1002.183594,-4.017881,-6.084290,-9.932947,-2.108828
1002.187500,-14.306211,-11.263802,-11.804527,-2.756628
1002.191406,-6.127499,-8.609210,-9.319631,-4.918823
1002.195312,-11.491409,-8.332997,0.668967,-4.893094
1002.199219,-5.292187,2.331802,5.076662,-0.349125
1002.203125,-2.373207,15.552072,-1.328437,-4.362036
1002.207031,-1.838384,6.304848,10.195946,2.979628
1002.210938,7.375895,1.632264,9.556745,5.004331
1002.214844,12.086667,6.347678,9.811271,8.652483
1002.218750,9.408355,8.893664,12.214216,11.731733
1002.222656,9.060945,9.440040,7.828682,10.021547
1002.226562,7.991230,16.870942,7.879416,10.771522
1002.230469,4.268834,6.703069,13.431275,5.420710
1002.234375,11.079361,3.284171,8.209037,3.336207
1002.238281,9.295357,9.710617,5.299317,5.726866
1002.242188,5.655671,3.162786,7.637198,7.640713
1002.246094,4.025735,-0.928144,-1.331317,7.944849
1002.250000,-0.810984,3.137795,-4.387721,-6.983122
1002.253906,1.002937,-8.350022,-1.386275,-2.111696
1002.257812,-3.182538,-6.983506,-1.647774,-10.469544
1002.261719,-3.118637,-4.710447,-9.559939,-10.776272
1002.265625,-5.968581,-8.594187,-10.732646,-14.358389
1002.269531,-10.591556,-2.391973,-5.604495,-10.072827
1002.273438,-3.669577,-15.745314,-5.395986,-11.381361
1002.277344,-6.452994,-7.891746,-8.782252,-6.966023
1002.281250,-6.815195,-11.856801,-8.876437,-9.210621
1002.285156,-11.780575,-4.904360,-11.398426,-2.051170
1002.289062,-0.843938,-7.907448,-3.781021,-14.154281
1002.292969,-4.392336,-5.275027,-1.686893,-5.236983
1002.296875,-2.812619,-2.100648,-5.373246,1.187284
1002.300781,-0.030969,2.977045,0.315777,-0.341165
1002.304688,9.333306,2.849544,11.951114,4.122577
1002.308594,12.548015,11.094407,4.745530,-0.126034
1002.312500,5.186794,6.509810,11.030246,8.712772
1002.316406,11.139778,3.402793,8.031785,5.585000
1002.320312,12.579627,5.759693,2.253796,13.623055
1002.324219,2.722021,9.191264,8.849842,8.252829
1002.328125,10.192970,11.283269,8.921748,15.252957
1002.332031,11.172893,3.130848,7.897421,9.384818
1002.335938,3.789414,10.197037,6.485617,10.389142
1002.339844,11.102757,0.881268,5.712959,3.591029
1002.343750,0.282072,6.566366,6.223426,1.641965
1002.347656,4.259843,3.021867,-4.087134,-3.253648
1002.351562,-3.223117,-2.602535,0.689004,0.545897
1002.355469,-2.768937,-5.235400,-1.382923,-0.375152
1002.359375,-6.056010,-3.653989,3.329818,-12.687850
1002.363281,-4.877856,-7.908570,-3.021632,-9.227086
1002.367188,-11.657604,-11.335620,-11.454700,-2.339694
1002.371094,-9.556011,-12.420625,-9.859675,-12.488697
1002.375000,-9.681678,-7.444647,-8.911220,-13.343432
1002.378906,-3.904039,-6.986847,-11.308672,-8.471566
1002.382812,-12.220599,-2.726558,-9.641573,-6.783230
1002.386719,-7.834632,-8.342925,-6.111657,-6.655728
1002.390625,-12.521523,-3.972055,1.016781,-1.994586
1002.394531,-7.601721,-7.442767,-3.073501,-4.272033
1002.398438,1.649552,2.954321,-1.477930,-8.104196
1002.402344,-0.120499,0.303954,7.188133,2.972491
1002.406250,1.966803,2.161068,-0.782980,6.706929
1002.410156,7.692336,10.447353,3.249242,8.410407
1002.414062,2.662530,13.707904,14.890285,6.420917
1002.417969,10.854088,3.603583,16.637328,3.628554
1002.421875,10.784601,6.783551,17.422834,12.335731
1002.425781,0.612474,12.618465,2.789877,8.787339
1002.429688,12.674165,5.648968,15.518788,11.815116
1002.433594,11.077502,13.520703,6.627168,8.722811
1002.437500,10.579192,8.851822,5.774045,5.710761
1002.441406,4.376586,11.960655,5.613785,1.548529
1002.445312,5.646641,-6.451296,10.892472,1.524249
1002.449219,6.863117,0.326754,3.700286,2.906449
1002.453125,1.349289,-7.613109,-5.180931,1.091794
1002.457031,-3.914059,3.609032,-8.458206,2.567933
1002.460938,-4.683247,-1.857074,-7.535706,-5.537942
1002.464844,-5.135128,-7.002313,-1.072640,-3.544911
1002.468750,-7.780091,-9.226489,-10.568698,-6.577983
1002.472656,-5.972970,-17.353519,-15.643177,-9.119958
1002.476562,-12.793644,-10.844879,-3.063726,-4.932297
1002.480469,-8.058618,-7.791139,-0.225910,-4.526657
1002.484375,-7.843120,-8.756426,-16.809319,-12.882414
1002.488281,-4.481028,0.540460,-9.241410,-5.247680
1002.492188,-3.073692,-1.987396,-5.796127,-0.941848
1002.496094,2.491130,5.615737,2.232794,-5.683283
1002.500000,-3.326837,4.234170,-3.318686,-1.841775
1002.503906,0.009308,3.848008,-4.531056,6.710072
1002.507812,1.407978,2.348297,5.002035,9.283082
1002.511719,5.983441,3.083385,4.678820,0.429221
1002.515625,9.973412,3.038984,6.402329,7.059453
1002.519531,4.526004,15.633508,13.269641,13.816813
1002.523438,12.584905,13.823850,6.893197,12.117993
1002.527344,4.123150,4.254863,9.079094,11.105662
1002.531250,2.337390,9.618856,3.275442,7.235131
1002.535156,6.660505,14.042247,10.682152,5.866552
1002.539062,12.350695,2.403118,5.858739,4.681312
1002.542969,-2.379315,1.248649,1.885917,5.240521
1002.546875,0.477804,-1.142175,-1.688778,-1.672793
1002.550781,-1.385777,0.790337,-0.275823,-0.249277
1002.554688,-8.749469,-4.362277,-4.935260,0.355141
1002.558594,-4.271763,-8.961095,-0.962428,-8.191286
1002.562500,-10.701127,-6.672970,-10.099990,-0.357162
1002.566406,-4.736071,-8.968058,-9.190598,-7.503239
1002.570312,-6.678219,-4.893216,-9.208986,-10.284164
1002.574219,-4.723875,-4.819445,-8.093343,-21.833785
1002.578125,-6.854234,-2.848673,-18.211870,-9.084074
1002.582031,-12.610146,-5.157504,-5.416570,-11.630277
1002.585938,-2.020835,-9.394372,-4.605190,-9.762513
1002.589844,-3.441084,-9.366081,-9.956927,-12.763317
1002.593750,-0.820985,-0.860031,-6.158977,0.499217
1002.597656,0.070055,-3.216705,-2.466758,4.353457
1002.601562,-0.331233,-2.553815,-4.043976,7.374225
1002.605469,5.600833,1.681368,8.252201,1.365337
1002.609375,7.642205,3.761917,9.263541,4.587356
1002.613281,10.467074,1.945444,6.713592,5.810362
1002.617188,1.659355,12.061162,3.905578,9.235378
1002.621094,5.047885,9.164881,16.756238,14.062923
1002.625000,4.068514,12.985338,12.794850,8.980617
1002.628906,3.993544,6.931034,10.953203,12.293862
1002.632812,14.504591,13.594362,12.376799,10.826961
1002.636719,13.506449,19.762030,7.984849,5.777253
1002.640625,8.929894,10.217914,6.872222,11.056125
1002.644531,3.367933,4.113353,5.880419,-7.131354
1002.648438,4.436173,0.237254,11.477303,5.426636
1002.652344,-4.512307,-2.957088,-6.168571,-3.546452
1002.656250,0.169719,-0.803233,-7.830664,-0.659412
1002.660156,-10.932766,-13.416163,0.055663,-2.940666
1002.664062,-10.266266,-8.734360,-4.099524,-9.141124
1002.667969,-0.934832,-5.917674,-6.018255,-10.988339
1002.671875,-14.516514,-8.116359,-11.521436,-10.272363
1002.675781,-7.585118,-7.901137,-15.182830,-3.943964
1002.679688,-2.310607,-6.796458,-10.919141,-2.957274
1002.683594,-7.398694,-2.954149,-11.065855,-10.067992
1002.687500,1.382348,-0.320079,-9.513768,-13.951703
1002.691406,-10.205502,-6.504881,2.205672,-2.899236
1002.695312,2.200043,-5.687725,2.989655,0.886932
1002.699219,-5.535560,-9.553977,-9.593831,-0.844346
1002.703125,1.797134,0.744881,5.165390,1.708353
1002.707031,4.647145,7.700360,10.027723,3.955332
1002.710938,3.008445,10.235824,9.095552,4.395675
1002.714844,6.145658,8.221115,3.071999,17.874723
1002.718750,12.047654,11.100206,12.114308,8.871535
1002.722656,6.767535,5.880492,15.745765,11.617488
1002.726562,9.084048,11.265340,10.459916,7.569185
1002.730469,11.151899,8.062928,9.432313,9.534349
1002.734375,9.188415,14.472574,13.389747,10.931835
1002.738281,6.753612,10.631450,2.391786,8.677087
1002.742188,5.424277,7.791617,-4.546879,1.139447
1002.746094,2.719308,0.915848,0.806738,5.033013
1002.750000,-2.927446,-5.284073,-5.255832,-1.466780
1002.753906,-8.824241,-0.891043,-3.800425,-0.985509
1002.757812,-3.893290,-8.231388,-1.966823,-5.064381
1002.761719,-9.715552,-7.200764,-7.780174,-10.901433
1002.765625,-8.977533,-8.432897,-17.398852,-13.256886
1002.769531,-6.755362,-5.233271,-6.602802,-11.679587
1002.773438,-9.310760,-9.141565,-12.753066,-9.535458
1002.777344,-4.796384,-9.573829,-11.160646,-12.994999
1002.781250,-10.404059,-5.421278,-8.865301,-5.324645
1002.785156,-5.374030,-4.327507,-14.509857,-0.258031
1002.789062,-1.226209,-3.353277,-11.472823,-5.681158
1002.792969,-1.467139,-8.917809,-0.817696,-8.624050
1002.796875,-5.312533,-6.361171,2.358865,-6.480622
1002.800781,1.975346,-1.105605,-8.461303,4.786078
1002.804688,2.991584,-2.282318,-0.814455,-5.107879
1002.808594,5.768628,5.293431,3.464618,5.315559
1002.812500,3.841984,2.649311,2.277433,6.728219
1002.816406,4.924817,10.183094,0.588509,7.299498
1002.820312,8.193079,7.921436,12.211881,12.930807
1002.824219,3.713762,12.144493,8.415778,13.127863
1002.828125,6.506546,11.235194,7.723747,11.166624
1002.832031,16.028747,11.530874,12.565245,7.439656
1002.835938,6.821458,8.446330,8.199615,6.211000
1002.839844,4.925877,2.675516,-1.995972,8.686321
1002.843750,1.658741,3.206184,1.831834,6.136746
1002.847656,-0.696081,0.108087,-1.168997,-0.027630
1002.851562,-0.588885,2.070462,1.999700,9.247519
1002.855469,-0.265560,1.245900,-4.309658,-3.138114
1002.859375,4.619774,-6.953294,-8.691389,-2.295689
1002.863281,-10.929850,-4.460294,5.059667,-12.816031
1002.867188,-2.619338,-9.560677,-12.498191,-6.076962
1002.871094,-13.782079,-10.415823,-11.218766,-12.299602
1002.875000,-5.830742,-10.410180,-5.197087,-14.589797
1002.878906,-6.305466,-15.193338,-19.460069,-16.440384
1002.882812,-11.390862,-13.822960,-13.465722,-2.542117
1002.886719,-17.314680,-6.211878,-6.356488,-4.939133
1002.890625,-7.287415,-7.170360,-2.162184,-5.670087
1002.894531,-6.853888,-3.155388,-3.038827,-1.793735
1002.898438,-2.330508,-8.099238,4.484851,6.327164
1002.902344,-6.847888,5.259760,-1.709614,1.784435
1002.906250,0.738125,2.887125,-1.923336,9.671662
1002.910156,0.364384,-0.952858,4.772757,8.561586
1002.914062,7.458838,8.500415,12.324338,5.397651
1002.917969,8.387121,8.426645,17.873327,7.818064
1002.921875,7.232326,15.001826,8.513546,10.806697
1002.925781,11.981115,9.729178,8.475029,7.541241
1002.929688,14.367036,4.545977,11.111958,5.719291
1002.933594,5.344697,9.622210,8.341265,2.846952
1002.937500,10.553139,3.153228,5.362654,9.172870
1002.941406,7.671313,1.477327,6.623747,11.156961
1002.945312,2.937929,8.768398,-1.766248,0.142502
1002.949219,3.853230,3.305469,3.636765,-3.482645
1002.953125,-2.098185,-1.389191,-8.881594,5.274089
1002.957031,-5.731794,-1.417809,-3.651440,4.002708
1002.960938,-1.628660,-12.594778,-0.507445,-6.774604
1002.964844,-12.728221,-9.877035,-8.017816,-6.778558
1002.968750,-13.567074,-8.802336,-9.762865,-12.370410
1002.972656,-12.162172,-13.419124,-12.521492,-15.202791
1002.976562,-9.985818,-5.792083,-5.711969,-11.136049
1002.980469,-9.742923,-13.789765,-7.145845,-6.656666
1002.984375,-6.498799,-3.739377,-8.238110,-2.022589
1002.988281,-3.018906,-1.999389,-6.531412,-8.180347
1002.992188,0.054784,-3.941131,-0.060365,-7.716304
1002.996094,2.823429,1.085610,2.077311,-2.705511
1003.000000,-5.835461,0.586887,-3.176904,0.473457
1003.003906,3.168343,-3.180638,3.961770,-4.183313
1003.007812,8.866398,3.628269,3.649249,0.535791
1003.011719,6.135887,9.268942,8.044267,7.905144
1003.015625,12.969154,7.307807,8.169851,5.343882
1003.019531,3.330450,9.164285,14.842169,13.205941
1003.023438,17.212085,2.238874,10.159817,7.084346
1003.027344,14.433983,2.658951,5.496015,15.740540
1003.031250,5.310995,11.033914,11.111458,16.680165
1003.035156,8.530950,1.100989,11.736808,6.349540
1003.039062,6.917869,3.405940,7.665078,1.925724
1003.042969,9.205170,7.500452,7.164764,-2.582144
1003.046875,4.183573,1.749941,-1.397653,-0.733553
1003.050781,2.798585,-0.426760,0.456871,-1.497123
1003.054688,4.019026,-13.233236,4.572909,-1.377274
1003.058594,-7.574351,-8.333644,-4.911818,-0.223066
1003.062500,-4.880696,-9.471037,-10.859466,-8.885393
1003.066406,-4.579408,-13.260469,-3.302907,-7.543339
1003.070312,-7.742008,-12.240497,-16.236762,-6.703447
1003.074219,-12.621717,-16.056957,-11.088895,-14.615531
1003.078125,-4.485915,-8.321229,-11.200786,-9.715791
1003.082031,-6.246286,-16.602491,-6.907202,-9.708300
1003.085938,-11.680841,-10.955666,-2.655941,-13.463537
1003.089844,-8.284916,-0.038409,-14.773273,-7.952594
1003.093750,-5.330477,2.443916,0.020522,0.482664
1003.097656,-0.302453,-4.963677,-3.698984,-2.976695
1003.101562,3.967714,-4.979331,-3.009673,3.928113
1003.105469,-1.931230,7.255380,9.591448,10.666062
1003.109375,9.239634,11.419153,6.561804,4.535397
1003.113281,9.729443,10.712413,7.265990,9.231863
1003.117188,4.779225,14.804565,7.639715,7.168351
1003.121094,3.457138,5.356078,5.378346,6.536322
1003.125000,12.057174,5.351638,10.230170,7.603821
1003.128906,9.182119,4.090956,7.730805,11.340087
1003.132812,5.230981,5.537374,7.687229,9.749944
1003.136719,9.082363,3.029590,12.779061,4.624289
1003.140625,3.528165,1.667897,9.941863,2.471677
1003.144531,1.222350,2.993399,5.381846,10.244546
1003.148438,-2.271898,7.472913,1.583630,0.224243
1003.152344,-4.356800,0.719181,-3.928742,-0.085848
1003.156250,-7.815310,-5.547848,-2.757715,-3.830146
1003.160156,-15.764924,-14.002566,-1.871170,1.272349
1003.164062,-10.687413,-10.788858,-11.419594,-10.804326
1003.167969,-12.032278,-6.380767,-13.515337,-10.491903
1003.171875,-17.330607,-9.951921,-9.059404,-9.521510
1003.175781,-4.370799,-15.354109,-13.809494,-15.172121
1003.179688,-8.385199,-5.280326,-10.530638,-8.980294
1003.183594,-8.250478,-17.525473,-9.743972,-3.333507
1003.187500,-6.566445,-4.964159,-3.733789,-3.450050
1003.191406,4.081361,-2.815319,-8.903338,-5.194536
1003.195312,-2.811192,-6.185532,-5.962214,-3.300722
1003.199219,0.878490,-2.987669,-5.649159,2.187438
1003.203125,4.990614,-1.127350,2.598544,0.132049
1003.207031,4.794760,5.746605,-1.569323,7.453377
1003.210938,5.786310,8.927181,-2.136607,4.620061
1003.214844,16.288990,4.322498,6.253449,9.191537
1003.218750,6.614476,8.466485,1.382069,14.776256
1003.222656,13.463231,8.735845,1.830931,8.437572
1003.226562,9.948958,3.639344,7.547549,11.591681
1003.230469,13.298754,6.819755,5.562611,7.750314
1003.234375,15.368388,13.912700,13.909181,15.202321
1003.238281,13.727110,14.217539,5.690609,12.239305
1003.242188,1.046985,-1.714430,-0.137555,6.850929
1003.246094,8.005895,2.348174,7.502775,10.388072
1003.250000,4.128798,-0.632346,2.203308,1.452343
1003.253906,0.018201,-4.639860,5.085929,-5.903511
1003.257812,-2.184653,-6.221584,-8.574602,-0.388068
1003.261719,-14.245662,-11.926404,-7.218857,-2.879181
1003.265625,-7.561680,-10.402324,-17.057990,-10.163986
1003.269531,-13.444152,-10.787361,-18.600069,-6.034938
1003.273438,-15.897351,-11.545732,-10.166073,-10.344218
1003.277344,-4.682206,-6.002165,-7.753799,-9.769062
1003.281250,-5.143627,-12.509909,-13.264282,-5.714381
1003.285156,-10.166906,-9.609234,-9.150856,-6.371473
1003.289062,-2.278758,-4.898382,-8.168945,0.698075
1003.292969,-0.111305,-7.198861,-1.409335,-9.121473
1003.296875,-0.510020,-0.876481,-0.931061,-6.639034
1003.300781,1.060502,-1.192318,-0.838009,0.821359
1003.304688,4.806801,8.752329,4.210436,10.723487
1003.308594,8.007808,8.435870,2.684019,10.940730
1003.312500,12.966653,3.503819,5.026239,4.606284
1003.316406,14.498571,7.157359,4.649934,9.690543
1003.320312,12.408753,12.330971,11.109030,16.191612
1003.324219,8.861532,15.804739,13.504090,9.371977
1003.328125,9.767576,6.431577,10.841870,9.509890
1003.332031,13.914237,1.565981,2.133851,5.848886
1003.335938,12.836865,8.396179,6.621514,-0.166026
1003.339844,7.137888,13.760859,4.342076,17.693395
1003.343750,1.192731,0.452702,4.723837,-0.152055
1003.347656,1.629309,-5.447916,1.531994,-4.144682
1003.351562,-4.687799,1.247941,-8.643060,2.978490
1003.355469,-5.987272,-6.497923,-5.261186,0.953027
1003.359375,-3.285331,-5.507441,-9.281766,-11.057745
1003.363281,-9.017451,-5.963678,-4.726425,-5.842034
1003.367188,-6.891906,-11.042132,-4.750319,-12.691939
1003.371094,-9.772013,-5.817595,-3.068296,-14.471912
1003.375000,-7.834507,-14.720966,-13.089243,-6.369996
1003.378906,-5.245163,-11.552108,-8.543522,-1.743756
1003.382812,-8.159180,-1.675760,-4.949101,-11.360298
1003.386719,-8.104082,-8.007479,-5.535167,-7.664071
1003.390625,-9.316034,-6.457615,-6.294853,-0.427647
1003.394531,-1.626085,2.940750,3.569551,-4.940614
1003.398438,3.866009,0.565956,1.489847,-2.140686
1003.402344,-2.418884,-1.611072,10.283048,8.004912
1003.406250,1.086295,11.014183,1.104752,8.633625
1003.410156,4.062113,6.874061,1.335725,8.563079
1003.414062,1.390694,9.895819,10.868456,10.065285
1003.417969,12.063619,9.000651,12.591234,6.665392
1003.421875,3.706448,12.015926,12.331973,12.493406
1003.425781,9.859977,5.079375,9.528316,17.485341
1003.429688,20.293736,4.034533,11.989490,7.145839
1003.433594,12.229586,12.174280,14.763836,14.397792
1003.437500,12.783476,10.567926,9.988546,11.559767
1003.441406,-5.327590,0.800452,4.294103,5.245006
1003.445312,4.283087,-0.805343,3.785950,-4.379476
1003.449219,-5.124354,1.878823,1.613693,1.817922
1003.453125,-0.194010,4.197572,-3.496290,4.907361
1003.457031,3.958114,-2.671749,5.812398,-1.353996
1003.460938,-9.259532,-4.862367,-4.557437,-8.688441
1003.464844,-4.815483,-3.850587,-3.546343,-9.227545
1003.468750,-19.019112,-8.721526,-10.012533,-1.978055
1003.472656,-5.765103,-4.438058,-15.509690,-12.115821
1003.476562,-8.634839,-11.709831,-14.557212,-18.810726
1003.480469,-15.315208,-4.265171,-11.610051,-16.899111
1003.484375,-10.072258,-4.134189,-9.732990,-8.914115
1003.488281,-4.396221,-6.569422,-7.242870,-12.416069
1003.492188,-1.709272,-8.016019,-5.163325,-4.189346
1003.496094,-4.943082,-3.178630,0.869295,4.378970
1003.500000,1.146715,6.925653,4.142373,3.391157
1003.503906,-4.236732,-0.479179,2.208668,3.659487
1003.507812,3.885977,11.444854,4.968886,0.834339
1003.511719,3.526909,10.815744,5.952054,4.561415
1003.515625,4.028948,6.398031,11.079483,10.984554
1003.519531,12.227142,6.505555,12.399566,10.275766
1003.523438,6.552283,7.887919,7.219855,9.424134
1003.527344,9.733709,8.826817,10.055436,0.977069
1003.531250,14.596033,15.612765,6.316601,6.843566
1003.535156,4.645266,11.947557,15.339953,8.267516
1003.539062,13.419360,9.058911,5.021210,10.370263
1003.542969,4.280656,6.023354,5.498278,8.099409
1003.546875,3.495329,4.565208,2.926003,8.968432
1003.550781,-4.086390,7.828107,3.414385,5.774115
1003.554688,-0.249594,-1.359389,-5.773956,-5.979888
1003.558594,-1.135377,-6.075072,-3.274644,3.391214
1003.562500,-3.951385,-8.562111,-8.728857,-9.514360
1003.566406,-9.485168,-15.204204,-7.417876,-9.961867
1003.570312,-8.514567,-13.202892,-5.629364,-8.749121
1003.574219,-8.611898,-13.855688,-14.929183,-4.571320
1003.578125,-10.523164,-7.463344,-7.989150,-11.541596
1003.582031,-13.140082,-8.581227,-9.993585,-11.750617
1003.585938,-6.389423,-2.516252,-0.339264,-12.459329
1003.589844,-7.443302,-10.669178,-3.209255,-3.081749
1003.593750,-4.555422,4.990776,-5.582649,-6.186183
1003.597656,-2.329659,1.697775,1.880833,-2.827508
1003.601562,-0.911457,1.095487,7.522631,-2.053104
1003.605469,5.080961,5.397850,-1.179945,-0.328232
1003.609375,4.298371,12.358562,6.742361,5.231366
1003.613281,9.030770,5.547084,3.633763,11.809071
1003.617188,11.854270,6.185699,13.171171,8.742515
1003.621094,8.947601,12.900481,12.717410,10.020719
1003.625000,8.471856,14.248967,9.434268,12.838681
1003.628906,16.477352,11.481360,7.763841,6.012428
1003.632812,4.228886,6.137352,11.419658,11.282786
1003.636719,7.254169,9.522701,10.536001,7.291504
1003.640625,1.879819,0.870614,7.029091,8.440786
1003.644531,6.324223,5.257726,3.021029,5.663928
1003.648438,-1.327337,3.172802,3.000402,-2.601446
1003.652344,-6.405400,-1.771979,-5.605510,0.128966
1003.656250,-0.676008,0.263020,-6.829144,-1.941526
1003.660156,-9.696022,-6.699032,-6.696694,-5.067878
1003.664062,-7.614335,-13.427336,-13.552500,-7.490763
1003.667969,-6.176735,-15.521395,-4.141627,-7.487953
1003.671875,-4.939302,-11.786855,-11.520455,-5.784811
1003.675781,-8.079370,-8.185187,-1.592358,-14.512825
1003.679688,-8.273415,-7.985174,-13.303158,-7.652130
1003.683594,-17.511326,-9.617191,-12.807903,-9.757294
1003.687500,-7.940258,-7.045072,-7.858334,-10.392325
1003.691406,-9.667364,-3.992447,-18.656461,-4.822637
1003.695312,-2.414555,-5.708782,-5.974484,-2.540018
1003.699219,-2.648915,-2.039213,-2.463422,2.459737
1003.703125,4.946447,9.133193,-2.350404,-0.769734
1003.707031,4.303606,-2.092379,8.826755,6.864780
1003.710938,10.042659,13.608925,3.615303,2.830326
1003.714844,7.796377,7.511394,3.787290,7.655110
1003.718750,12.327036,12.739869,10.607971,5.009008
1003.722656,8.653712,15.095674,6.202734,13.405028
1003.726562,16.006208,3.130421,15.078175,10.004025
1003.730469,8.246438,12.537135,14.222151,-1.142592
1003.734375,13.376693,9.700204,8.585702,5.451968
1003.738281,6.220868,3.855756,2.818162,1.415375
1003.742188,2.374155,0.704751,5.203096,5.155806
1003.746094,9.018560,6.859657,10.470442,4.636666
1003.750000,-1.541309,0.499554,0.368423,-8.130650
1003.753906,-2.228888,-6.873752,1.562706,3.876966
1003.757812,-4.123818,0.079826,3.527129,-6.149915
1003.761719,-8.364124,-7.900459,-10.027644,-5.562790
1003.765625,-9.638671,-6.907888,-8.400179,-6.925562
1003.769531,-3.267559,-15.578806,-10.484003,-11.997566
1003.773438,-11.673766,-8.298607,-8.223285,-12.372718
1003.777344,-2.543970,-10.630604,-12.913864,-9.669264
1003.781250,-9.236864,-2.752209,-9.935259,-11.338927
1003.785156,-4.095522,-10.523584,-10.578055,-10.728092
1003.789062,-3.337570,-0.703018,-2.649507,-3.578287
1003.792969,-2.709165,-4.800335,-10.250559,-5.888309
1003.796875,-1.865713,-8.421112,-7.965189,-3.936253
1003.800781,2.454406,3.381809,1.611426,-2.770309
1003.804688,11.324208,1.694720,0.145410,-2.739705
1003.808594,-1.765977,6.954761,-0.206007,2.521916
1003.812500,8.463867,9.235292,2.168883,5.713122
1003.816406,6.991399,19.230430,12.721570,8.334919
1003.820312,9.418493,8.505100,16.941475,10.588102
1003.824219,5.340912,7.803684,4.615676,15.299065
1003.828125,15.050228,11.203785,12.896331,9.508596
1003.832031,10.754560,11.040320,7.836476,8.524195
1003.835938,6.778679,15.373730,8.903593,9.456451
1003.839844,9.305594,8.417699,9.653889,0.785047
1003.843750,0.442852,4.197679,0.721346,-0.598770
1003.847656,7.425821,6.765250,-5.174856,-1.469855
1003.851562,0.590193,-3.637573,2.993695,-1.306336
1003.855469,-2.141176,-10.926916,-6.216666,-6.759691
1003.859375,-1.687975,-7.725065,-3.196772,-5.651026
1003.863281,-9.457207,-3.476904,-10.022824,-9.565933
1003.867188,-2.734481,-13.216108,-5.339635,-3.573681
1003.871094,-6.244277,-4.817351,-12.656390,-6.650054
1003.875000,-8.623174,-7.042051,-7.573839,-7.185259
1003.878906,-7.035890,-6.720057,-9.688276,-14.189071
1003.882812,-12.852007,-12.205770,-10.341961,-6.422550
1003.886719,-16.033519,-3.288678,-7.032669,-4.247129
1003.890625,-2.589185,-9.181890,1.430984,1.006909
1003.894531,-5.649412,-6.249899,-6.385934,-6.684912
1003.898438,3.987029,-1.689923,-0.558510,-9.611518
1003.902344,1.484756,-2.246166,5.660855,1.948818
1003.906250,0.737005,7.715836,3.790915,3.976479
1003.910156,13.111214,8.035170,9.137373,-5.993254
1003.914062,8.194395,11.097349,4.244137,14.507798
1003.917969,16.409013,12.631493,17.258010,8.941365
1003.921875,12.193362,3.200927,3.771453,9.658917
1003.925781,3.124702,7.278000,10.741109,12.967544
1003.929688,13.022740,5.234192,10.924384,9.271706
1003.933594,6.580507,7.993812,7.154708,7.253775
1003.937500,14.228425,15.241977,13.153727,8.148222
1003.941406,4.857909,6.534093,4.440405,3.002281
1003.945312,6.665259,-1.601427,5.600394,-2.323539
1003.949219,-5.784882,5.530271,6.483934,3.540888
1003.953125,-8.133482,2.244375,-2.591928,-6.228609
1003.957031,-7.431685,-7.792405,-5.532889,2.206101
1003.960938,-7.076130,-13.363108,-5.595007,-7.429405
1003.964844,-7.700801,-4.866169,-3.716555,-4.301424
1003.968750,-6.186327,-4.455528,-9.659447,-12.798705
1003.972656,-15.061085,-8.557670,-7.199311,-10.007948
1003.976562,-4.767400,-6.798818,-8.204553,-5.856539
1003.980469,-10.833252,-14.632192,-9.153381,-15.130432
1003.984375,-0.329157,-6.682301,-9.185212,-3.923159
1003.988281,-10.914290,-3.710914,-7.965312,-1.109420
1003.992188,-9.668721,-11.128308,-0.655830,-1.939151
1003.996094,2.677554,-1.437752,-0.749965,0.638683
1004.000000,-2.564440,0.238612,-4.510299,7.101903
1004.003906,10.202297,-0.752704,0.943695,-0.277253
1004.007812,5.692847,5.070978,2.481778,7.408059
1004.011719,6.792724,3.950157,6.397644,1.626070
1004.015625,6.202943,6.778809,4.806576,6.689819
1004.019531,4.635465,8.291310,15.855919,3.658843
1004.023438,9.001649,6.987529,2.439376,10.945138
1004.027344,11.714900,6.582489,2.557489,14.203222
1004.031250,7.313088,12.641175,5.079995,6.759605
1004.035156,13.384905,9.648525,13.473855,8.100650
1004.039062,13.453036,3.801090,2.458009,-5.213968
1004.042969,0.496751,10.517937,10.368813,8.205266
1004.046875,7.398549,7.719588,6.878376,0.553824
1004.050781,0.990413,4.798094,-4.035878,0.534517
1004.054688,-1.209815,-11.387562,-4.789536,-4.873112
1004.058594,-3.806181,4.468802,-13.373561,-13.048994
1004.062500,-7.230731,-11.643065,-1.784326,-5.196653
1004.066406,-1.750172,-10.507392,-17.856957,-1.793931
1004.070312,-12.696678,-9.790002,-8.700452,-5.739314
1004.074219,-5.609527,-10.381077,-6.841060,-1.001130
1004.078125,-8.843632,-6.376055,-13.178318,-14.161811
1004.082031,-8.255486,-3.168939,-3.356666,-9.287701
1004.085938,-10.670758,-11.560964,-10.839639,-8.579138
1004.089844,6.166573,-4.932290,-9.673981,-3.203904
1004.093750,-2.459665,-5.305109,-5.176437,-1.857272
1004.097656,-2.961052,-6.171239,-0.562922,-2.219564
1004.101562,2.498685,-0.364408,1.990611,3.971138
1004.105469,3.291698,7.130845,8.027151,-0.088642
1004.109375,5.278889,-3.111430,1.698335,4.695063
1004.113281,10.605276,5.708268,9.335304,0.252960
1004.117188,14.502823,3.212291,11.416440,3.308795
1004.121094,4.186945,11.844522,15.085010,12.216943
1004.125000,11.694413,9.166252,11.230535,2.479649
1004.128906,11.058611,11.126236,12.237511,7.535503
1004.132812,12.209982,12.588899,7.269670,9.603715
1004.136719,12.286155,-0.373440,10.454841,7.560984
1004.140625,7.956764,-0.320892,0.359327,3.812905
1004.144531,5.563880,9.905434,-2.024541,4.628652
1004.148438,3.574344,3.014621,5.276993,-2.777670
1004.152344,-3.136961,-2.632190,-3.257959,-5.590498
1004.156250,0.781153,-3.608857,-6.190277,2.594901
1004.160156,-6.438057,-1.813232,-6.923123,-8.534212
1004.164062,-16.862463,-13.262751,-6.199870,-11.170916
1004.167969,-12.514354,-9.913325,-8.470096,-2.005267
1004.171875,-7.352938,-8.136297,-3.743259,-9.032009
1004.175781,-9.720320,-9.743124,-12.230724,-6.314898
1004.179688,-2.880168,-6.817559,-15.321688,-15.198301
1004.183594,-4.671870,-8.782536,-0.759195,-5.088697
1004.187500,-11.786532,2.004899,-1.423194,-0.960021
1004.191406,-3.496724,-2.655970,-10.096325,-8.458489
1004.195312,-6.783179,-8.157007,-0.706104,-3.888313
1004.199219,-0.209233,-0.391292,4.670207,-2.013986
1004.203125,-4.862498,-1.673693,1.820609,4.419388
1004.207031,10.215777,0.716836,2.735827,5.774602
1004.210938,6.422537,3.681515,10.692699,2.545776
1004.214844,16.756295,9.821203,-1.913305,1.184663
1004.218750,8.426779,8.585699,8.733428,8.483886
1004.222656,5.684735,11.838436,12.377880,9.046939
1004.226562,11.323298,16.628117,17.947054,11.272109
1004.230469,8.048385,2.164213,5.019169,7.737879
1004.234375,12.004440,15.108622,6.352303,2.865359
1004.238281,3.800293,-1.848149,5.485515,1.596399
1004.242188,5.227315,3.165425,4.953189,1.330507
1004.246094,2.456409,4.846288,-4.477008,-1.312923
1004.250000,1.347073,3.433388,3.140972,0.740240
1004.253906,2.559518,-3.750301,-3.566491,-1.929313
1004.257812,0.052975,-7.236214,-6.860939,-4.345917
1004.261719,-2.493850,-5.690171,-4.778488,-2.031385
1004.265625,-4.498696,-6.891783,-0.256438,-7.959478
1004.269531,-7.991117,-4.057527,-8.158177,-11.275801
1004.273438,-16.190420,-9.675658,-11.878267,-4.923806
1004.277344,-7.321866,-6.205265,-5.480367,-11.662422
1004.281250,-9.753123,-5.531430,-9.875869,-5.370743
1004.285156,-5.312099,-18.253925,-12.081047,-12.530597
1004.289062,-2.741349,-2.798083,-4.276684,1.911452
1004.292969,-3.678236,-5.328298,-3.143627,-11.516910
1004.296875,1.767676,1.228091,-5.184793,1.398724
1004.300781,-1.996747,-0.564426,0.442695,2.241447
1004.304688,2.088527,-2.965682,4.907421,6.416076
1004.308594,12.281792,-0.082218,9.711599,6.923132
1004.312500,9.814080,14.139907,10.938358,-0.586268
1004.316406,11.982852,11.205470,3.413585,7.861534
1004.320312,10.397400,14.845381,14.468070,4.755149
1004.324219,7.917420,5.490080,8.274466,8.030720
1004.328125,13.741083,12.777080,8.386882,10.291452
1004.332031,10.212858,17.379321,7.227156,9.007077
1004.335938,17.273752,5.511852,8.383080,6.219093
1004.339844,13.803895,10.476631,0.082742,4.787314
1004.343750,10.997737,-0.017584,3.512350,3.059913
1004.347656,2.181547,-3.097243,-5.667428,-2.068620
1004.351562,-0.558706,-1.819781,-3.702353,-8.350890
1004.355469,-4.601413,-0.277194,3.017569,-2.982928
1004.359375,-11.912427,-7.579849,-5.346934,-7.649829
1004.363281,-12.702675,-7.902212,-11.806571,-7.994745
1004.367188,-14.008003,-8.510379,-5.406681,-9.120096
1004.371094,-8.449543,-7.836954,-4.682716,-13.920813
1004.375000,-10.827963,-14.036553,-9.962921,-9.412378
1004.378906,-14.491478,-6.160660,-9.644670,-15.531554
1004.382812,-8.531004,-14.883064,-7.061438,-7.703741
1004.386719,-12.280537,-13.127705,-9.328819,-7.422121
1004.390625,-6.798711,-8.268498,-1.092341,-1.520824
1004.394531,-6.250222,-3.341110,4.599227,-2.704333
1004.398438,-5.746717,-5.942723,-2.533276,2.290625
1004.402344,-0.659138,-4.718296,6.490032,-1.901504
1004.406250,1.747559,6.086507,2.333853,-4.134162
1004.410156,3.414976,9.880032,0.736166,8.071226
1004.414062,1.906287,7.754984,2.128554,3.065175
1004.417969,6.235386,13.010729,7.676784,10.620822
1004.421875,15.437984,14.198841,11.465640,6.410364
1004.425781,7.808733,7.385329,13.949352,17.525057
1004.429688,9.366593,4.082460,12.247979,8.604972
1004.433594,11.088378,11.204053,6.643010,0.747838
1004.437500,15.252922,-3.151571,6.338452,7.238668
1004.441406,9.330169,7.726084,0.647341,4.192223
1004.445312,2.088739,7.926232,3.628319,9.222404
1004.449219,0.903122,-4.890486,-3.022106,3.222851
1004.453125,0.056840,-9.335885,4.900863,7.600446
1004.457031,-5.269305,-0.844587,1.098824,-2.735816
1004.460938,-0.398873,-7.275198,-9.795512,-5.335469
1004.464844,-7.980647,-3.872980,-2.587959,-7.049329
1004.468750,-11.506105,-12.031394,-9.712813,-7.707365
1004.472656,-4.729112,-12.394369,-9.783790,-13.827711
1004.476562,-16.805054,-4.378829,-14.165337,-14.085407
1004.480469,-9.138785,-11.568203,-5.880435,-11.244832
1004.484375,-8.096844,-15.699001,-9.624043,-7.112216
1004.488281,-13.207362,-1.892703,-3.326059,-1.636271
1004.492188,-5.123733,-5.915590,-7.242521,1.783244
1004.496094,1.342536,-2.192380,-10.616595,-5.203869
1004.500000,-4.578330,6.119350,1.933644,0.345513
1004.503906,-0.538586,5.204631,5.417672,-4.274316
1004.507812,13.930228,14.297092,-1.284852,4.885670
1004.511719,7.219203,6.669510,8.760596,8.633848
1004.515625,4.774067,0.908586,9.074809,6.849026
1004.519531,6.008858,15.027168,9.716082,-0.464960
1004.523438,7.701461,6.079954,10.730463,13.821822
1004.527344,5.398636,9.790523,9.774551,16.254483
1004.531250,3.859870,11.905448,6.246235,10.885929
1004.535156,7.083311,3.310854,10.591552,1.239933
1004.539062,9.935517,11.663660,2.370032,8.287974
1004.542969,5.143011,2.807535,2.924328,4.253743
1004.546875,5.283045,2.088916,-0.426655,5.791877
1004.550781,-0.403850,1.871768,-3.448436,-3.432108
1004.554688,-8.446888,-0.505444,1.804007,3.231668
1004.558594,-5.671740,-3.564629,-6.055278,-7.889132
1004.562500,-2.614502,-3.606294,-6.271826,-3.529165
1004.566406,-12.395299,-13.346570,-7.374464,-2.130102
1004.570312,-14.713739,-12.159138,-9.763558,0.539193
1004.574219,-10.428199,-12.906549,-13.212621,-11.402191
1004.578125,-6.641776,-11.949001,-9.204472,-12.566993
1004.582031,-8.404583,-3.314376,-6.682468,-9.929188
1004.585938,-9.559644,-1.832834,-11.260634,-10.644673
1004.589844,-1.096720,-7.212407,-3.448891,-5.492674
1004.593750,-5.623980,-7.715634,-3.410450,6.746891
1004.597656,5.186567,3.438441,1.281077,5.122807
1004.601562,6.169075,4.300074,1.379966,5.394110
1004.605469,5.177447,6.827969,4.671669,2.686000
1004.609375,10.967874,9.930277,4.333670,5.910450
1004.613281,5.856750,2.209126,9.417303,11.017091
1004.617188,10.073847,5.810075,13.151019,8.208629
1004.621094,12.425068,10.062188,9.301585,9.749858
1004.625000,10.779170,14.093285,8.283829,5.652176
1004.628906,17.522181,9.681463,5.675417,15.543394
1004.632812,8.741577,6.655046,9.130283,6.104658
1004.636719,3.384550,6.295870,8.083002,15.065338
1004.640625,6.898658,13.788789,4.766943,3.730716
1004.644531,-1.167590,-6.368178,0.118091,2.208394
1004.648438,-3.655357,-3.555966,2.967812,-1.380077
1004.652344,-3.422879,1.028631,-5.936250,2.566333
1004.656250,-6.462976,-10.733050,-4.414657,-3.135128
1004.660156,-2.041772,-3.400677,-2.989090,-7.834760
1004.664062,-10.362744,-16.505823,-7.165701,-8.022300
1004.667969,-0.559286,-6.075029,-14.418842,-11.692867
1004.671875,-6.756474,-4.053344,-11.328693,-13.528849
1004.675781,-13.156350,-5.751062,-11.453310,-7.263795
1004.679688,-9.788190,-7.609691,-4.379470,-6.291343
1004.683594,-12.924641,-12.516869,-16.987098,-6.178675
1004.687500,-7.511471,-2.932477,-4.909894,-3.311634
1004.691406,-7.947619,-4.397396,-4.054917,-3.827109
1004.695312,-3.683842,-6.981427,-2.983275,-7.197270
1004.699219,7.801375,-0.726728,-6.681712,-2.190543
1004.703125,-0.119258,0.708134,-0.059209,1.280444
1004.707031,7.463387,1.926394,1.376691,4.274417
1004.710938,11.941499,15.659035,7.979805,3.744879
1004.714844,7.127140,1.059576,7.089510,12.994324
1004.718750,13.896089,4.508463,7.198728,5.316156
1004.722656,8.830204,2.350592,9.319005,13.017524
1004.726562,10.790622,3.595806,8.472258,9.750371
1004.730469,13.363280,2.994247,15.254938,6.602882
1004.734375,7.387374,6.962280,7.976537,4.290457
1004.738281,0.384147,9.921688,4.687135,6.369335
1004.742188,6.690795,2.149338,4.978001,7.137759
1004.746094,-3.214180,12.977079,7.168377,-4.665758
1004.750000,-0.554932,-1.699162,9.796408,1.089336
1004.753906,1.387763,0.067374,0.102641,-12.819243
1004.757812,1.566082,-2.610140,-2.984518,-5.534053
1004.761719,-9.852300,-3.115073,-6.022646,-8.676813
1004.765625,-5.476511,-11.148162,-2.225805,-14.790412
1004.769531,-6.234454,-17.535492,-11.071799,-12.149626
1004.773438,-8.699486,-11.085106,-9.855243,-5.115702
1004.777344,-9.488720,-12.733504,-7.813612,-11.523201
1004.781250,-6.741911,-12.307920,-19.532329,-5.022777
1004.785156,-10.441258,-10.408134,-6.609833,-11.477465
1004.789062,-7.170276,-5.666778,-7.921254,-6.011740
1004.792969,-4.617827,-6.068922,-5.267016,-2.750380
1004.796875,-3.191611,0.132597,-0.377048,-3.959264
1004.800781,5.390064,2.697737,-1.558922,-7.796244
1004.804688,0.866001,8.000614,2.784501,1.358630
1004.808594,6.336115,7.127192,1.781811,6.205480
1004.812500,3.687204,5.007316,4.717609,5.969765
1004.816406,5.769287,7.903200,9.168241,14.730516
1004.820312,4.883474,12.325391,4.355128,8.601087
1004.824219,12.963767,12.561100,9.144942,12.553527
1004.828125,7.312847,9.861115,5.592511,9.202234
1004.832031,10.153109,4.981004,6.087050,7.862680
1004.835938,6.286081,10.281492,7.517313,4.112971
1004.839844,4.929988,3.524780,9.431170,13.520695
1004.843750,6.023128,1.642189,5.279300,-3.499557
1004.847656,-1.843698,-4.390937,-3.272264,3.940272
1004.851562,0.172965,-5.449479,4.610476,2.429949
1004.855469,-7.294244,-4.227177,2.533321,-0.568762
1004.859375,-0.557902,-7.035364,-6.678089,-12.025566
1004.863281,-1.879251,-15.280334,-4.157157,-8.503077
1004.867188,-11.908824,-14.023658,-7.758660,-10.141523
1004.871094,-3.165129,-12.315896,-7.797152,-6.061060
1004.875000,-1.600798,-12.730549,-15.578046,-17.951664
1004.878906,-11.391980,-3.760834,-5.396903,-3.913269
1004.882812,-12.346655,-11.406217,-11.681341,-11.164929
1004.886719,-9.448633,-6.055013,-10.799663,-7.109964
1004.890625,-12.577189,-7.195141,-1.973209,-4.514405
1004.894531,-13.393956,-9.718201,-11.747624,-11.584874
1004.898438,-1.538949,-2.384949,9.626070,-8.753730
1004.902344,-2.550747,5.498732,5.763072,1.671488
1004.906250,1.043900,3.851169,-0.726817,5.219135
1004.910156,5.909179,10.890648,3.952460,7.433312
1004.914062,4.772802,7.234138,6.517036,10.026516
1004.917969,4.706827,13.887839,8.595283,13.993064
1004.921875,7.166437,7.782273,10.170797,14.008245
1004.925781,3.506972,14.640283,14.888458,13.564978
1004.929688,17.102444,5.071000,6.374434,2.145917
1004.933594,15.956183,5.166601,10.895635,10.572712
1004.937500,0.502427,3.593763,6.585310,7.960414
1004.941406,2.192086,5.506012,10.813973,5.368690
1004.945312,7.175577,4.401908,2.553020,3.964353
1004.949219,-4.808536,-1.027517,6.195494,-0.267055
1004.953125,1.061364,-4.254117,1.841238,-0.066537
1004.957031,-5.885096,-6.308017,-7.651960,-5.215310
1004.960938,-2.116295,-12.088638,-10.304973,-9.146402
1004.964844,-4.012897,-7.057535,-7.702361,-12.431833
1004.968750,-17.914497,-6.838225,-15.861494,0.740805
1004.972656,-4.545758,-6.813465,-9.986540,-4.225970
1004.976562,-9.823940,-9.065436,-5.385543,-11.332860
1004.980469,-16.874832,-10.638897,-9.238052,-12.347455
1004.984375,-2.692529,-11.666593,-12.640987,-8.593307
1004.988281,-4.017667,-13.343448,-9.638064,-8.752265
1004.992188,-2.486879,-9.021702,-3.515953,-1.733156
1004.996094,-1.654714,-4.223576,-1.654867,-7.632148
1005.000000,0.411992,-3.533795,-0.769478,2.402946
1005.003906,-1.923082,0.667951,7.113465,-2.631688
1005.007812,8.111017,3.598711,-3.190225,8.413690
1005.011719,5.253376,6.912757,6.188654,10.952915
1005.015625,12.169301,8.367443,4.582301,9.276234
1005.019531,12.737801,7.360869,6.710035,5.663135
1005.023438,13.076763,11.079607,4.801484,2.796421
1005.027344,5.120138,12.786180,12.562178,7.647721
1005.031250,10.731829,11.233943,3.103794,9.556095
1005.035156,9.167366,7.367233,18.420950,7.034772
1005.039062,5.674790,8.024550,0.995053,12.753337
1005.042969,4.816815,2.880561,1.260972,9.390081
1005.046875,-0.404455,-2.246592,-1.643463,1.535960
1005.050781,-3.512191,-6.461217,-1.681623,-2.940572
1005.054688,-6.536422,-6.051805,-7.122938,-7.505672
1005.058594,3.223375,-4.657111,-11.326068,-5.207496
1005.062500,-10.723290,-7.612521,-12.712367,-14.503778
1005.066406,-2.972489,-12.170357,-7.638113,-5.202744
1005.070312,-10.690658,-10.192562,-5.846472,-12.078334
1005.074219,-9.381946,-6.880420,-4.392529,0.472498
1005.078125,-5.911289,-10.872510,-9.814503,-12.037279
1005.082031,-9.076562,-4.214144,-13.013036,-4.298035
1005.085938,-17.967012,-11.443864,0.893833,-1.047831
1005.089844,-2.605516,-7.493770,-6.213879,-5.750515
1005.093750,-2.022739,-5.797655,1.722654,0.071158
1005.097656,-5.357650,0.293847,-3.207690,1.518548
1005.101562,1.287121,-0.480210,-0.338091,5.542438
1005.105469,7.275395,-5.100224,4.880268,4.880336
1005.109375,4.975035,0.895304,-1.097800,1.730736
1005.113281,7.431487,8.350569,17.525586,3.808463
1005.117188,15.825485,12.200876,8.980907,6.327009
1005.121094,9.436556,10.911436,5.350849,17.020296
1005.125000,8.710430,8.493074,5.049973,6.636451
1005.128906,10.170621,13.958503,10.055058,12.802393
1005.132812,8.156335,7.331970,7.935742,7.723285
1005.136719,8.683582,1.345087,2.084974,6.610259
1005.140625,1.488214,0.755247,10.404947,0.344212
1005.144531,-2.052404,8.769448,2.049673,-3.173640
1005.148438,0.367883,7.434816,-5.948858,2.288211
1005.152344,-2.801115,2.741522,-4.332921,-5.528200
1005.156250,-7.448496,-1.581050,-1.051669,-4.314426
1005.160156,-4.682387,-15.114568,-9.038018,-6.651843
1005.164062,-0.912816,-11.897241,-7.144886,-4.870188
1005.167969,-6.316123,-4.827657,-11.961951,-7.732123
1005.171875,-11.868775,-10.010370,-10.610552,-9.703727
1005.175781,-9.778802,-11.925077,-11.591758,-14.325653
1005.179688,-6.673628,-16.938951,-13.025760,-2.088637
1005.183594,-5.780522,-8.596688,-2.910272,-18.036621
1005.187500,-10.961544,-5.710796,-5.445530,-7.782701
1005.191406,-0.902723,-2.922664,-6.885267,-6.397066
1005.195312,1.534276,-2.039523,-4.795767,-1.150964
1005.199219,-6.963095,1.013223,0.434812,4.336193
1005.203125,-0.246287,5.438935,4.228890,-0.952750
1005.207031,1.485652,1.718937,1.054401,2.705398
1005.210938,7.984416,2.056653,7.040131,10.306802
1005.214844,-1.946119,9.395839,14.369871,1.762680
1005.218750,5.204861,6.925080,9.433929,9.024526
1005.222656,5.530284,16.258821,3.204791,9.941203
1005.226562,8.532955,15.221960,10.256645,8.073847
1005.230469,6.368132,10.705982,8.701522,16.106222
1005.234375,15.252986,6.093402,13.108877,14.519252
1005.238281,11.044387,9.018118,-2.943457,7.672578
1005.242188,-0.761423,7.957200,-4.589441,5.626146
1005.246094,-3.223957,9.863776,-0.437795,1.563262
1005.250000,0.937117,7.396615,2.126636,-3.214540
1005.253906,1.802832,-1.007373,-4.500446,-2.306930
1005.257812,1.908003,-9.666413,-3.604370,-2.558362
1005.261719,-6.089845,-4.903206,-6.704108,-5.548113
1005.265625,-5.906112,-9.529487,-9.532307,-7.368078
1005.269531,-3.611242,-6.456323,-4.929119,-9.319089
1005.273438,-14.648778,-6.892400,-6.735662,-0.320855
1005.277344,-3.509837,-7.569960,-10.708386,-11.916600
1005.281250,-7.024369,-16.554543,-9.809813,-11.742727
1005.285156,-1.968833,-13.141161,-10.729312,-9.569336
1005.289062,-4.601568,-7.274893,-3.639915,-9.063920
1005.292969,-1.713746,-9.487273,-2.941446,-3.615602
1005.296875,2.348740,-0.833442,-2.982262,-3.688274
1005.300781,0.819589,11.770937,5.622405,2.210640
1005.304688,0.549682,7.237891,-2.164968,3.143436
1005.308594,4.817076,4.131652,15.417413,8.044807
1005.312500,1.261977,5.380458,10.268461,10.221424
1005.316406,8.889033,12.726358,5.439041,9.856256
1005.320312,12.911811,10.407056,11.155869,11.800003
1005.324219,14.188178,11.862652,8.641285,9.472144
1005.328125,9.289712,8.595070,6.659438,11.585444
1005.332031,8.840857,8.611690,5.189045,11.647590
1005.335938,4.710895,12.168779,8.904244,6.702977
1005.339844,7.683594,2.796305,13.776025,3.655753
1005.343750,9.319969,3.174244,8.457265,1.337512
1005.347656,0.286829,0.757388,6.554189,1.318249
1005.351562,-8.733761,4.956712,-5.059818,3.337674
1005.355469,4.506029,-1.474498,-2.850223,-0.517876
1005.359375,-9.365868,-12.263810,-14.778826,-7.338362
1005.363281,-11.040659,-0.835084,-1.722118,-1.780837
1005.367188,-9.594300,-15.851728,-10.976100,-7.476274
1005.371094,-6.970060,-10.728156,-9.425989,-15.068946
1005.375000,-11.713727,-5.477686,-12.150005,-11.258609
1005.378906,-10.700244,-7.664183,-15.804834,-8.397905
1005.382812,-11.546249,-10.529274,-13.877131,-11.597930
1005.386719,-10.409223,-7.053990,-10.141004,-12.487726
1005.390625,-13.265846,-8.919420,-5.667802,-3.809298
1005.394531,-5.688673,0.679215,-6.704755,-9.618006
1005.398438,-0.173145,-7.561734,7.240712,4.941173
1005.402344,2.819666,-1.750011,0.246668,2.654311
1005.406250,6.973484,-0.045194,1.588094,1.039336
1005.410156,10.335168,4.620621,0.586476,7.103269
1005.414062,6.236041,1.060276,4.164227,11.847551
1005.417969,6.942378,12.072112,8.964267,5.082396
1005.421875,12.862411,12.493730,8.924585,15.120259
1005.425781,15.287461,5.002724,7.333541,13.649684
1005.429688,5.568441,6.701574,13.411859,13.555585
1005.433594,10.048682,6.281133,10.857984,5.160964
1005.437500,5.279757,8.160259,15.628356,2.036420
1005.441406,10.101918,3.384643,1.787508,6.843029
1005.445312,8.223679,-3.497277,-2.361116,6.055618
1005.449219,6.644026,2.956952,-3.180617,-3.994156
1005.453125,-1.829584,-5.760479,3.810850,-1.697910
1005.457031,-3.905436,-9.376401,-3.217328,-5.400411
1005.460938,-4.143776,-8.104113,-5.340406,-4.183102
1005.464844,-5.045015,-4.677239,-14.325181,-12.587967
1005.468750,-9.321335,-11.000947,-7.182855,-12.120040
1005.472656,-8.580368,-10.306876,-7.113686,-10.287029
1005.476562,-6.003463,-9.142537,-6.825087,-9.539766
1005.480469,-7.749793,-6.772284,-11.792277,-21.394561
1005.484375,-7.402261,-10.827163,-0.023112,-11.076712
1005.488281,-10.135563,-7.950311,-6.241824,-16.462502
1005.492188,-5.606832,-10.011948,-4.271429,-0.117761
1005.496094,-0.268663,-5.885429,-5.065789,-7.134932
1005.500000,-0.286990,-5.735584,-0.044240,1.549306
1005.503906,1.022017,5.885252,3.215606,0.571298
1005.507812,0.618178,-0.098445,12.241803,1.847480
1005.511719,12.535357,8.889623,-0.238587,5.758788
1005.515625,18.592754,12.029864,3.990958,0.779085
1005.519531,2.723837,13.330342,11.741188,14.276284
1005.523438,11.722688,5.492200,11.210993,10.776822
1005.527344,11.743376,4.575275,11.012970,4.668234
1005.531250,12.667295,16.312459,6.893030,16.338956
1005.535156,16.119028,10.204951,8.451708,13.454216
1005.539062,8.817174,6.024321,7.257557,5.194269
1005.542969,-0.909348,14.396344,2.518529,3.004030
1005.546875,4.313429,-6.232160,-0.441026,3.170061
1005.550781,-5.171681,4.183457,5.060180,2.373719
1005.554688,2.559073,-1.185921,-1.144722,3.676031
1005.558594,-7.347654,-7.399990,-3.789956,-6.708334
1005.562500,-7.741577,-11.897942,-4.431130,-11.961704
1005.566406,-4.754914,-5.332326,-5.706210,-2.692737
1005.570312,-7.968728,-11.992558,-14.879652,-9.828775
1005.574219,-11.407616,-9.406794,-13.584665,-3.658120
1005.578125,-14.612030,-8.237786,-2.496313,-6.188087
1005.582031,-4.636897,-14.094144,-8.532787,-8.745521
1005.585938,-15.613551,-10.611684,-10.728150,-3.987100
1005.589844,-6.235333,-3.291076,-4.294283,-4.535809
1005.593750,-10.124087,-1.491152,-8.177387,-0.450638
1005.597656,-4.468871,-7.576750,3.486275,5.458677
1005.601562,-2.572146,-4.539466,-8.076662,4.672128
1005.605469,5.871736,3.938799,2.318343,3.984937
1005.609375,8.912671,11.807329,6.558972,1.226139
1005.613281,3.862533,14.434652,11.398808,9.160236
1005.617188,15.475206,6.116569,11.771001,2.969296
1005.621094,7.108223,7.026205,6.970638,14.328760
1005.625000,1.347873,13.716870,8.496941,10.966563
1005.628906,9.783122,11.489001,12.083480,1.616667
1005.632812,12.418033,0.238912,7.460102,14.156018
1005.636719,7.254649,12.799499,7.478943,1.819569
1005.640625,6.902787,6.307141,1.139012,-4.157381
1005.644531,6.536914,-3.242429,4.010230,7.617826
1005.648438,4.662685,-3.197816,3.264053,5.036782
1005.652344,-1.024491,-12.098790,-6.106721,-6.036775
1005.656250,0.625017,-4.988841,3.994709,-0.013562
1005.660156,-5.224072,-6.610820,-4.886112,-4.017651
1005.664062,-6.777837,-3.904338,-3.628254,-4.001323
1005.667969,-18.107347,-5.248303,-9.871537,-13.259136
1005.671875,-5.553820,-10.944461,-10.950367,-10.005835
1005.675781,-11.345504,-11.942649,-19.862496,-3.754256
1005.679688,-1.186214,-9.483209,-10.677801,-2.032774
1005.683594,-6.424481,-7.124168,-4.912970,-16.269666
1005.687500,-7.257414,-9.564899,-11.023893,-3.452806
1005.691406,-9.133462,-5.420920,0.834583,-4.502775
1005.695312,-2.888521,4.468922,-4.706459,2.639413
1005.699219,0.010320,4.252498,-0.822477,-2.231423
1005.703125,3.888096,-0.106373,3.902940,4.229002
1005.707031,-0.573210,6.516531,7.422140,7.144731
1005.710938,14.376960,6.015986,6.915144,9.965120
1005.714844,10.502034,6.816554,4.892417,9.529770
1005.718750,3.680173,17.970265,9.413326,16.089461
1005.722656,13.430767,9.969260,8.140500,4.368845
1005.726562,13.691549,14.175356,15.124534,4.006072
1005.730469,13.380016,14.316693,5.509322,12.312074
1005.734375,11.478813,5.716691,10.405239,5.912821
1005.738281,10.987257,9.375515,3.988498,8.850739
1005.742188,4.913118,5.402305,-0.202976,2.297450
1005.746094,13.013103,-1.709837,-0.338526,-5.961918
1005.750000,-0.330672,2.858620,6.830867,-4.952794
1005.753906,-2.237387,1.821065,-7.212563,-0.538754
1005.757812,-10.577296,1.319451,-4.767128,-7.690605
1005.761719,-11.370445,-0.638425,-9.041890,-5.038740
1005.765625,-4.755551,-16.494272,-5.769365,-4.624760
1005.769531,-5.487150,-5.302212,-8.985431,-4.811274
1005.773438,-11.231960,-19.181971,-6.490943,-16.088172
1005.777344,-9.985822,-7.469656,-9.643600,-8.419504
1005.781250,-3.032377,-10.614936,-7.178794,-9.232129
1005.785156,-15.472568,-4.795941,-7.738075,-8.293882
1005.789062,-9.878061,-11.422882,-2.806807,-2.843802
1005.792969,-2.849830,1.989900,0.348399,-7.218541
1005.796875,0.876272,-0.760745,-2.137039,-8.973432
1005.800781,-2.222870,-4.171569,6.455781,1.373955
1005.804688,3.597994,5.897124,-2.125092,2.045870
1005.808594,4.719955,-0.593057,2.672825,10.778805
1005.812500,11.236072,7.935791,4.123395,8.840826
1005.816406,4.137381,8.858413,7.993651,7.040391
1005.820312,2.827150,11.124685,13.886293,9.854034
1005.824219,7.227914,14.224900,4.023666,11.422794
1005.828125,9.234115,11.465687,8.371531,11.426020
1005.832031,12.289274,11.301325,7.905140,7.592075
1005.835938,4.564966,7.758162,4.292067,6.654688
1005.839844,10.709540,5.129024,4.573311,8.976232
1005.843750,-0.038929,1.990627,5.112543,7.513344
1005.847656,0.715831,-0.795563,5.023457,2.045118
1005.851562,2.845798,1.729793,7.326419,5.270237
1005.855469,-6.263126,-4.590944,-2.945798,-6.045284
1005.859375,-7.633551,-5.447669,-5.461378,-7.153872
1005.863281,-6.582990,-6.790342,-2.439905,-8.788303
1005.867188,-7.592500,-8.542607,-14.383536,-16.486568
1005.871094,-4.084374,-7.664955,-4.247183,-16.078973
1005.875000,-9.352466,-7.411255,-12.136727,-6.745724
1005.878906,-9.585284,-7.526418,-4.008852,-13.384634
1005.882812,-12.056513,-10.567783,-5.386589,-9.839937
1005.886719,-11.634857,-11.464173,-4.065664,-5.887807
1005.890625,-7.745518,-4.030046,-5.988575,-5.591758
1005.894531,-1.070811,-2.880746,-2.593993,-1.049590
1005.898438,-2.846590,-1.163073,0.275931,6.846626
1005.902344,-1.526385,1.413367,2.660932,-5.182957
1005.906250,1.751691,2.109918,1.079487,2.689386
1005.910156,2.288243,5.128298,2.636435,5.149200
1005.914062,9.064371,8.728014,3.189494,4.794205
1005.917969,7.254536,15.667233,7.536740,4.565397
1005.921875,11.093064,15.341752,8.049085,6.868917
1005.925781,4.046204,4.160924,5.645108,8.127568
1005.929688,8.293583,12.078365,10.397428,11.488421
1005.933594,9.044480,12.455804,8.987824,3.466872
1005.937500,1.534034,1.751125,4.048870,6.623373
1005.941406,3.529651,10.076198,9.535007,0.511731
1005.945312,0.343266,1.359706,2.536881,9.257297
1005.949219,1.524103,-2.460170,-1.623296,0.305372
1005.953125,4.378733,0.305685,-4.215060,2.849673
1005.957031,-5.911763,-7.387942,-3.239803,-4.568489
1005.960938,-12.652346,-7.790946,-10.851124,-10.719317
1005.964844,-4.291280,-7.793294,-9.765574,-3.840899
1005.968750,-9.878349,-10.726104,-6.157207,-10.075487
1005.972656,-12.544218,-10.493353,-14.317094,-10.474908
1005.976562,-11.522252,-5.977915,-8.490125,-6.063717
1005.980469,-16.649838,-12.891690,-13.669163,-8.763138
1005.984375,-10.577358,-10.281565,-2.922188,-9.324158
1005.988281,-13.696321,-8.982658,-10.500924,-11.038463
1005.992188,-4.149775,-5.662622,0.219898,-4.765951
1005.996094,-4.099222,-1.379673,4.448106,-14.259476
1006.000000,-2.943539,-9.279007,-2.273875,4.490339
1006.003906,-1.746057,5.041057,-6.731355,3.102053
1006.007812,8.248488,3.450761,6.321110,0.370337
1006.011719,3.584467,11.442365,9.387443,9.467754
1006.015625,8.835317,7.755390,8.285402,6.341918
1006.019531,11.687169,5.530216,7.518473,15.899676
1006.023438,5.672581,9.496530,13.004916,13.521543
1006.027344,4.364025,8.501580,13.306081,5.738563
1006.031250,1.179559,11.768145,8.452938,13.955823
1006.035156,9.982642,11.175337,3.168772,15.895724
1006.039062,10.355315,7.507297,-0.858890,4.879831
1006.042969,1.124651,6.136232,5.087208,3.854051
1006.046875,3.445540,0.888095,3.728853,6.726061
1006.050781,-5.239154,0.438598,0.610093,-0.786182
1006.054688,2.234554,-7.680410,-2.954375,3.587954
1006.058594,-4.957157,-9.341595,-0.800430,0.025227
1006.062500,-7.593827,-9.085922,-7.188229,-4.737207
1006.066406,-9.895940,-12.174065,0.486413,-9.254086
1006.070312,-4.555053,-9.585797,-10.878832,-15.323905
1006.074219,-8.827124,-2.705007,-8.559299,-5.707306
1006.078125,-7.091304,-11.457252,-3.454451,-8.257577
1006.082031,-16.144988,-11.285633,-6.564899,-6.700777
1006.085938,-9.631063,-12.571654,-12.909709,-8.666364
1006.089844,-6.016162,-4.059927,-6.627973,-2.078686
1006.093750,-0.056989,-1.468937,-5.978874,-3.788269
1006.097656,-0.460403,3.253772,-0.716163,-1.186380
1006.101562,-3.473796,2.529423,3.233066,2.192644
1006.105469,8.279591,0.777601,2.644803,0.859445
1006.109375,5.053069,3.823451,1.850968,-0.526065
1006.113281,2.211002,3.983374,0.450201,11.220224
1006.117188,10.787692,7.371945,12.969633,4.463971
1006.121094,12.833566,15.516395,15.132525,7.325599
1006.125000,12.253844,13.777933,7.486248,11.419993
1006.128906,9.402646,8.702932,13.328045,14.806406
1006.132812,8.924784,8.968366,13.069252,11.083940
1006.136719,3.012473,7.674920,8.780365,13.525540
1006.140625,3.551252,3.932284,8.696131,1.910000
1006.144531,4.301644,0.613147,3.051710,0.089680
1006.148438,4.678137,-1.774997,0.547636,0.319990
1006.152344,1.887584,5.620065,-6.070589,-5.773427
1006.156250,-0.574964,-12.604163,-0.837778,-7.404595
1006.160156,-8.773163,-8.042926,-1.952651,-4.021189
1006.164062,-1.904610,-8.346146,-9.695160,-6.524751
1006.167969,-4.112136,-6.013969,-13.390044,-7.186444
1006.171875,-9.053438,-9.116240,-14.649316,-6.805375
1006.175781,-0.129482,-10.923438,-4.675697,-10.302911
1006.179688,-10.100049,-6.947431,-12.331314,-13.524425
1006.183594,-10.169963,-3.186923,-12.637678,-14.393497
1006.187500,-6.694751,-7.990495,-5.095585,-8.974614
1006.191406,1.228761,3.793341,-4.004086,-8.114862
1006.195312,-3.995455,-2.884546,-2.222795,-3.791078
1006.199219,0.817298,-2.863583,-6.775375,-1.740212
1006.203125,-0.444037,5.718001,0.143984,6.808068
1006.207031,5.966770,3.498828,13.178142,3.450723
1006.210938,6.528607,9.312390,5.420410,0.985153
1006.214844,-1.974152,6.151572,5.907577,10.575696
1006.218750,9.489054,3.711422,6.333150,18.523090
1006.222656,4.506762,10.539534,11.685461,9.591801
1006.226562,0.768155,18.386785,7.126261,5.982318
1006.230469,9.532387,15.262681,12.372157,10.788876
1006.234375,6.544721,2.162594,8.035906,3.354508
1006.238281,5.229674,6.266552,5.191463,11.627400
1006.242188,5.339562,7.970420,-4.211408,2.314621
1006.246094,4.854034,9.060102,2.087642,4.095146
1006.250000,-1.734745,0.658579,-4.473654,-2.874786
1006.253906,1.453843,-8.331381,4.890192,0.316306
1006.257812,-3.691362,-1.260935,-5.298189,-2.335269
1006.261719,-9.508494,-11.731554,-7.418336,-8.471084
1006.265625,-10.306504,-9.992645,-5.070941,-1.246469
1006.269531,-7.782420,-5.146963,-10.751902,-8.516570
1006.273438,-8.576019,-17.836384,-7.718276,-17.309710
1006.277344,-8.866783,-9.386415,-13.602046,-8.755188
1006.281250,-10.175789,-8.504325,-3.962863,-7.501663
1006.285156,-4.731285,-7.071693,-11.908136,-3.056130
1006.289062,-8.005874,-6.032249,-4.843275,-6.321907
1006.292969,-11.650366,4.362470,-2.814508,-1.069581
1006.296875,-4.817494,3.680554,-2.237683,0.818992
1006.300781,4.620158,6.936885,-2.872340,2.090170
1006.304688,8.312044,-1.066039,4.654532,4.752944
1006.308594,8.994601,3.219691,12.982932,6.477319
1006.312500,5.775802,11.042019,5.374806,8.256428
1006.316406,11.045712,5.541028,8.362258,1.515082
1006.320312,11.225530,4.937293,11.602620,7.513514
1006.324219,13.510800,7.262269,3.504156,2.553020
1006.328125,12.312338,16.169814,2.174891,13.545818
1006.332031,9.190904,11.063527,7.036320,5.149331
1006.335938,18.562463,10.210054,4.900971,10.259869
1006.339844,5.535272,6.856707,12.665848,1.909786
1006.343750,6.766749,6.639338,1.025629,1.838776
1006.347656,4.805229,0.083047,2.947156,0.592207
1006.351562,-0.154656,7.746889,-1.064092,-2.632360
1006.355469,-5.663924,-3.570928,3.442801,-2.632345
1006.359375,-10.893812,-2.606745,2.118316,-8.902190
1006.363281,-5.819136,-11.231602,-10.800231,-4.640359
1006.367188,-15.538126,-5.998038,-8.093153,-9.709593
1006.371094,-11.016565,-5.061415,-17.012335,-11.729856
1006.375000,-17.074407,-10.486647,-9.487099,-5.930823
1006.378906,-6.825091,-13.848878,-9.287941,-6.911683
1006.382812,-14.990177,-6.569796,-1.350630,-8.566605
1006.386719,-4.329731,-3.064640,-11.283987,-7.473250
1006.390625,-4.514792,0.295125,-2.572574,-10.119298
1006.394531,-1.036444,-7.815612,-7.143700,-6.868384
1006.398438,0.600773,-7.796908,-5.374486,5.321486
1006.402344,5.772317,-6.355403,3.948245,4.954979
1006.406250,9.497951,5.192342,3.159453,10.722181
1006.410156,9.739562,9.276576,5.580841,10.183051
1006.414062,7.118666,4.246138,4.610494,-2.357652
1006.417969,12.682606,5.805922,8.472666,7.839381
1006.421875,5.129201,20.333224,6.818831,17.268347
1006.425781,6.665794,13.983246,10.855822,13.566485
1006.429688,13.829674,7.002684,10.039034,10.317481
1006.433594,7.789593,10.361885,9.483341,12.866249
1006.437500,4.985073,3.507366,8.733493,13.249332
1006.441406,5.038549,3.080590,2.118902,13.390628
1006.445312,1.105909,0.745499,8.209661,4.749867
1006.449219,-6.744048,4.673990,4.683049,4.856363
1006.453125,1.732856,-5.547149,-5.456188,-3.424324
1006.457031,0.585900,-10.746827,1.010590,-2.746725
1006.460938,-14.550975,-8.314194,-8.602519,-0.038919
1006.464844,-9.116923,-10.361782,-2.266871,-3.003310
1006.468750,-8.712442,-15.664059,-14.900280,-12.724708
1006.472656,-7.318923,-5.395034,-6.732753,-14.612681
1006.476562,-8.890071,-5.458402,-11.853287,-7.920806
1006.480469,-11.513432,-5.985441,-12.548017,-1.848732
1006.484375,-6.283463,-4.034307,-6.221014,-7.938335
1006.488281,-6.954795,-8.533700,0.876112,-8.679505
1006.492188,0.584672,-6.189530,-9.768076,3.370731
1006.496094,-2.609400,-2.814570,-10.068188,2.127953
1006.500000,-1.633597,-0.877646,3.985753,3.139374
1006.503906,-0.204947,2.106137,0.825618,0.450014
1006.507812,0.158533,2.246700,7.819209,-0.076208
1006.511719,8.322954,9.012472,13.385647,3.582823
1006.515625,4.428181,12.752934,10.266562,2.178261
1006.519531,6.569125,8.092378,6.950480,9.648310
1006.523438,10.457726,7.738738,10.241173,12.498849
1006.527344,3.599778,11.944603,5.249295,7.804754
1006.531250,8.410201,14.373875,15.994804,5.262312
1006.535156,8.754522,9.367597,5.450976,3.715191
1006.539062,2.070536,7.711330,10.891918,3.587012
1006.542969,3.862801,1.384803,7.420568,0.263203
1006.546875,2.988806,0.161722,6.547852,-0.311206
1006.550781,-2.110405,-5.223128,-8.369101,-0.454882
1006.554688,-0.593678,-1.455951,-5.214945,-6.019118
1006.558594,-6.256809,-6.656429,-0.517782,-9.478843
1006.562500,-5.145719,-5.298465,-4.992025,-9.696509
1006.566406,-5.953632,-3.949450,-3.226476,-10.736177
1006.570312,-13.620978,-13.948685,-10.904140,-10.831937
1006.574219,-14.098827,-5.732848,-10.330534,-10.222585
1006.578125,-13.933772,-11.282275,-8.674249,-11.249790
1006.582031,-5.151821,-5.069435,-5.832026,-4.081094
1006.585938,0.036786,-6.840754,-14.785642,-4.595096
1006.589844,-8.724737,-13.236693,-3.746070,-6.247486
1006.593750,-0.882776,-6.334180,-0.866295,-8.460814
1006.597656,3.238680,3.988628,1.299336,-3.863230
1006.601562,-0.642195,8.266996,3.541778,-4.573689
1006.605469,8.394295,0.195837,5.853428,-2.579929
1006.609375,0.039056,9.199936,3.378696,4.077190
1006.613281,5.349858,11.853661,6.729047,5.083603
1006.617188,12.806789,5.053745,2.298039,8.141921
1006.621094,4.758637,10.665894,7.022663,12.710132
1006.625000,14.410090,10.675816,15.446110,4.942016
1006.628906,14.162053,15.255261,14.785007,9.852318
1006.632812,14.261119,8.721158,1.567229,11.852887
1006.636719,4.266161,9.433568,11.179555,8.960532
1006.640625,-1.668460,6.828131,7.745769,3.682078
1006.644531,6.342007,0.243840,5.514035,5.416523
1006.648438,1.549437,1.712628,4.918758,4.465784
1006.652344,-2.075902,-0.099877,-3.992059,1.408609
1006.656250,-0.990934,-8.590860,-4.895279,-5.638570
1006.660156,-9.217523,-0.629984,-8.978756,-9.047024
1006.664062,-7.003541,-9.221587,-11.872100,-8.761306
1006.667969,-10.587583,-11.645570,-4.846819,-8.675640
1006.671875,-8.601322,-6.301402,-8.964229,-9.125840
1006.675781,-12.508095,-2.573350,-3.939098,-8.757060
1006.679688,-6.236710,-11.038357,-10.780095,-14.385614
1006.683594,-12.414214,-10.076785,-6.296567,-10.340601
1006.687500,-3.855625,-8.020330,-6.316950,-10.554228
1006.691406,-4.290369,-8.270903,-0.239258,-4.158633
1006.695312,0.709632,3.443350,0.865883,-2.190732
1006.699219,-0.742334,1.143546,-7.495898,-5.690037
1006.703125,3.432662,-2.212424,5.821663,1.380523
1006.707031,5.286800,8.525425,-2.291844,6.784519
1006.710938,-0.595466,10.706843,1.678636,-1.319841
1006.714844,1.954160,9.021296,11.316458,14.142632
1006.718750,8.064813,10.106129,5.234009,8.444968
1006.722656,12.700421,9.286665,6.052434,12.944931
1006.726562,8.289423,13.105226,2.397815,12.092107
1006.730469,8.134962,13.953100,12.602572,7.947856
1006.734375,13.034734,10.533156,5.834889,12.908540
1006.738281,12.089235,8.687884,8.227442,7.541435
1006.742188,5.284193,7.367022,0.753508,8.766072
1006.746094,5.529217,-0.609178,6.287627,2.435258
1006.750000,-1.619028,1.863249,-1.521107,-5.513482
1006.753906,-6.883123,-3.178028,-5.261378,-1.668416
1006.757812,0.545446,2.232428,-1.897677,-6.030478
1006.761719,-6.194212,3.214305,-6.585480,-4.908737
1006.765625,-4.634109,-7.856903,-4.268737,-11.150697
1006.769531,-10.273315,-3.562590,-10.975816,-14.402040
1006.773438,-5.639425,-6.254375,-6.221152,-12.030183
1006.777344,-10.151299,-10.463139,-10.202861,-6.519869
1006.781250,-11.252432,-1.077976,-8.678870,-7.571225
1006.785156,-4.981082,-4.682552,-5.581381,-4.937563
1006.789062,-1.499503,-15.151784,-3.470551,-11.371510
1006.792969,-0.469401,-2.407265,-3.198995,1.449635
1006.796875,0.771650,-5.497712,3.551629,-3.628619
1006.800781,5.823621,-9.477220,2.865108,-0.822439
1006.804688,-1.105481,1.074413,3.848568,4.691480
1006.808594,6.839214,13.623851,7.755918,11.019767
1006.812500,8.339678,-0.944094,7.514178,5.136429
1006.816406,10.820611,13.935837,5.374419,2.992641
1006.820312,6.877686,-0.116477,7.965139,10.429160
1006.824219,16.978174,6.005864,8.567658,15.357722
1006.828125,5.235638,9.012292,5.053827,5.744654
1006.832031,0.820131,13.982353,14.998023,9.599387
1006.835938,11.283126,5.878954,12.271403,9.143443
1006.839844,-0.127932,7.504858,5.436648,5.677284
1006.843750,2.532187,5.306910,7.918396,11.509273
1006.847656,-2.292607,5.843203,7.513322,-3.721644
1006.851562,0.265599,5.915211,-0.498671,-4.651688
1006.855469,-1.270107,0.613246,-3.874248,-0.072598
1006.859375,-4.798459,-6.469431,-9.469684,-14.317030
1006.863281,-4.009046,-9.335062,-5.578124,2.994016
1006.867188,-5.880522,-12.304135,-3.307353,-5.870634
1006.871094,-7.158340,-13.018237,-4.788477,-8.604547
1006.875000,-6.821885,-6.895824,-5.938567,-5.712530
1006.878906,-4.480515,-4.951908,-11.043091,-8.385993
1006.882812,-15.145091,-11.426349,-4.145200,-7.809691
1006.886719,-9.597828,-9.251574,-14.624172,-16.046606
1006.890625,-5.831188,-6.820727,-6.779041,-5.666704
1006.894531,2.168166,0.686195,-7.802408,1.306159
1006.898438,-6.198536,0.275758,7.820307,-0.592950
1006.902344,4.812223,-0.461510,-2.094351,-1.025962
1006.906250,-2.629938,-9.440431,5.660826,0.712121
1006.910156,6.302435,5.616357,10.823513,6.846785
1006.914062,9.527847,11.666840,3.920116,1.594982
1006.917969,12.676568,4.820387,12.610409,11.337772
1006.921875,15.302214,4.328956,9.579595,10.646037
1006.925781,6.731103,7.803510,11.914348,14.575353
1006.929688,12.026752,16.488068,10.214974,4.701125
1006.933594,10.890250,-0.399082,8.695727,10.705445
1006.937500,10.797979,13.665034,6.281091,5.609151
1006.941406,2.447813,4.871047,4.804775,-3.003610
1006.945312,2.134501,-0.763723,9.994977,-2.940691
1006.949219,3.259672,-2.992284,-1.103808,1.389201
1006.953125,-2.006066,-2.050776,-0.906233,1.435318
1006.957031,1.494530,2.323509,0.024485,-3.832124
1006.960938,-5.246125,-6.032136,-1.803153,-9.126387
1006.964844,3.725830,-10.703831,-3.886213,-11.600959
1006.968750,-4.445639,-8.188870,-4.730789,-7.214847
1006.972656,-11.591362,-6.690224,-13.360126,-6.876869
1006.976562,-9.113431,-19.093563,-12.577139,-2.789404
1006.980469,-12.161347,-10.895167,-5.983230,-9.454188
1006.984375,-14.006262,-4.888544,-15.813739,-10.572958
1006.988281,-9.579452,1.954472,-10.180143,-6.884338
1006.992188,-10.882992,-3.626217,1.697754,-5.411750
1006.996094,1.559314,-5.097706,-0.533642,-8.172008
1007.000000,-8.811443,-4.128632,-7.230898,0.671463
1007.003906,-0.577673,2.881289,-1.376455,9.564168
1007.007812,8.885864,6.261543,5.802593,-1.296915
1007.011719,6.594927,6.555588,5.997797,0.106863
1007.015625,4.798905,10.518200,-3.504577,7.966517
1007.019531,13.214954,14.123155,10.249347,11.147501
1007.023438,8.396659,11.685661,5.047482,11.421326
1007.027344,8.074657,6.115837,1.439952,8.308004
1007.031250,7.543718,5.441877,11.165440,14.125136
1007.035156,5.988758,7.456832,0.628581,8.438064
1007.039062,11.806754,0.682384,4.545963,8.998978
1007.042969,1.474933,4.922705,2.507300,3.902995
1007.046875,-0.158533,-0.140427,2.070823,0.192142
1007.050781,3.660088,1.757522,3.953508,-3.912651
1007.054688,-4.874390,-5.521308,-6.145183,-10.880365
1007.058594,-2.489250,-3.895002,-3.327065,-3.299145
1007.062500,3.565925,-11.653302,-3.118930,-4.479635
1007.066406,-10.448532,-6.258285,-5.160466,-11.246126
1007.070312,-9.635712,-11.547669,-16.516488,-11.109088
1007.074219,-10.495270,-14.972470,-9.048917,-7.693502
1007.078125,-6.816896,-7.286200,-0.361944,-10.510584
1007.082031,-7.252755,-6.130563,-18.916279,-6.220335
1007.085938,-5.486901,-12.808888,-8.390440,-2.148406
1007.089844,-9.970573,-7.635586,-15.171872,-4.538590
1007.093750,-7.795012,-5.450843,-5.029740,-10.762651
1007.097656,-5.242784,3.271103,-6.509652,-3.313050
1007.101562,6.480352,8.266068,1.390506,-0.369726
1007.105469,4.503671,5.277144,6.991476,8.456083
1007.109375,2.300359,6.839032,11.365234,9.946548
1007.113281,4.086703,8.178725,10.949292,8.875115
1007.117188,6.635224,-1.698452,11.537688,11.894629
1007.121094,1.812723,4.361437,15.159066,13.025509
1007.125000,12.154869,11.237532,7.094211,11.917859
1007.128906,4.340693,14.323293,10.097417,12.429594
1007.132812,12.050191,11.996557,6.434767,8.218783
1007.136719,8.261878,0.985574,4.575201,6.591568
1007.140625,4.427473,0.325783,9.466198,1.000134
1007.144531,-1.044678,9.110323,9.202033,0.068373
1007.148438,3.861973,-0.014351,1.559984,-4.429397
1007.152344,4.015901,4.990942,4.451482,1.603960
1007.156250,-2.928769,0.481719,-3.310849,-5.181814
1007.160156,-9.419594,-6.493818,-6.769803,-1.030488
1007.164062,-5.859610,-4.029668,-9.623031,-4.866415
1007.167969,-6.488680,-6.796425,-16.621213,-10.156822
1007.171875,-12.215484,-16.770981,-8.330041,-5.999543
1007.175781,-11.299547,-9.696902,-13.147040,-7.369086
1007.179688,-10.476345,-8.296743,-13.365185,-2.505503
1007.183594,-6.432533,-4.733130,-9.610826,-12.926105
1007.187500,-7.079263,-8.225408,-1.983479,-7.627979
1007.191406,-4.495498,-7.133106,-10.861644,-3.562336
1007.195312,-9.463937,-3.504697,-4.605183,-0.983209
1007.199219,-5.088141,-4.334699,6.267746,-0.596734
1007.203125,3.481166,2.537085,-2.367155,2.283771
1007.207031,-0.773253,7.926173,4.835316,1.779419
1007.210938,4.181965,13.248560,11.814266,1.839255
1007.214844,10.216848,7.104599,7.248391,7.604640
1007.218750,5.637628,14.292569,2.201879,12.972156
1007.222656,9.456135,17.897046,2.339217,10.887823
1007.226562,12.293008,13.689175,9.827506,5.338358
1007.230469,15.790166,6.598404,7.437309,6.895008
1007.234375,2.493158,6.029514,13.540336,6.136325
1007.238281,10.160458,11.445088,10.110591,11.436178
1007.242188,1.259798,1.770255,10.155413,8.914663
1007.246094,0.449044,0.242715,-2.128555,2.895481
1007.250000,-2.657906,-6.073621,0.692298,5.438740
1007.253906,-6.113082,2.058181,-4.631905,1.107242
1007.257812,-2.698527,-15.104608,3.548007,-9.158954
1007.261719,-12.013093,-6.400020,-7.552041,-4.852222
1007.265625,-12.530912,-8.755230,-5.734153,-3.336346
1007.269531,-6.634510,-10.857050,-8.401720,-4.526743
1007.273438,-2.294843,-8.783959,-11.517400,-6.701626
1007.277344,-9.500701,-9.349532,-6.451960,-12.196323
1007.281250,-10.245828,-8.783692,-6.166768,-14.421530
1007.285156,-15.044486,-11.190481,-11.394189,-11.146196
1007.289062,-0.771405,0.691543,-16.220176,-4.912887
1007.292969,-3.181202,-0.360071,-10.357562,-8.445574
1007.296875,-4.062780,6.653703,-7.199884,1.306757
1007.300781,-3.224640,-4.003581,-5.747718,-2.456403
1007.304688,-0.902543,4.586629,3.508910,-0.691631
1007.308594,4.266972,1.083346,4.614928,10.756257
1007.312500,2.994274,9.560560,3.963961,4.437399
1007.316406,14.427411,6.996436,7.667428,7.727647
1007.320312,12.896400,12.215955,15.422325,15.371918
1007.324219,16.521117,10.078903,13.768430,12.859499
1007.328125,19.252015,12.667035,7.348445,7.159912
1007.332031,5.537257,5.548937,8.642229,8.512604
1007.335938,9.903530,4.572582,-1.860829,7.591140
1007.339844,8.243655,7.304210,0.758331,8.624352
1007.343750,-0.881506,6.470031,7.953767,6.656023
1007.347656,2.110698,2.494261,1.445807,-11.632656
1007.351562,-0.861179,-2.788550,10.546401,-8.962130
1007.355469,-3.944959,-3.897849,-4.518967,-7.643426
1007.359375,-6.255049,-5.676770,-9.513909,-2.634831
1007.363281,-3.723763,-15.455530,-6.743520,-7.307889
1007.367188,-8.029805,-7.901581,-6.916276,-13.646868
1007.371094,-9.158393,-17.105695,-5.478344,-10.475919
1007.375000,-7.690434,-7.590858,-4.330128,-11.280243
1007.378906,-8.561195,-7.905100,-4.402607,-8.482274
1007.382812,-8.070856,-14.449605,-6.614385,-15.362508
1007.386719,-4.100972,-5.165674,-6.564232,-2.063072
1007.390625,-2.231121,-7.427880,-5.973579,-11.625953
1007.394531,-4.480860,-0.668796,0.893674,-7.552660
1007.398438,2.582776,-7.174935,-3.155694,2.810056
1007.402344,3.237655,4.110436,2.656917,1.626965
1007.406250,7.997436,3.752913,2.303624,11.659672
1007.410156,6.745541,14.898688,3.439139,10.855554
1007.414062,7.612157,9.996886,7.376657,12.913785
1007.417969,7.017011,13.164374,16.386973,9.142851
1007.421875,12.281542,10.347704,13.381351,10.623925
1007.425781,12.344488,9.942584,11.310157,14.021073
1007.429688,9.341607,16.492377,22.182263,11.410726
1007.433594,6.712456,10.917125,15.840702,9.387571
1007.437500,10.117467,8.705459,3.564376,-2.803098
1007.441406,5.755792,6.079828,7.784246,10.145722
1007.445312,4.074171,3.774550,3.055798,3.793836
1007.449219,-6.809053,1.629144,0.919619,-7.319354
1007.453125,-3.733595,-0.461535,-1.428825,-4.805496
1007.457031,-5.162727,5.315255,-3.574496,-12.838921
1007.460938,-7.736362,1.853884,-12.731247,-3.322780
1007.464844,-11.298642,-10.755436,-4.433518,-11.726773
1007.468750,-6.520212,-3.544186,-10.848754,-15.453564
1007.472656,-5.566297,-8.360294,-12.441575,-12.226135
1007.476562,-14.208240,-12.301549,-7.942874,-9.755741
1007.480469,-16.627354,-15.596996,-10.836175,-5.633571
1007.484375,-10.146460,-6.106057,-11.829822,-10.296935
1007.488281,-9.368471,-12.467272,-10.389665,-11.307423
1007.492188,-6.655399,-7.382270,2.193622,-3.823888
1007.496094,-4.293374,-5.895132,-5.689765,2.095339
1007.500000,4.844782,-1.762734,3.488440,-1.569642
1007.503906,2.800342,-0.159153,5.943025,11.175811
1007.507812,2.055654,2.591088,1.221001,2.104806
1007.511719,6.382516,13.724544,9.015586,9.120383
1007.515625,15.747587,12.103202,12.777738,7.461112
1007.519531,6.851657,12.114466,6.881089,5.732419
1007.523438,4.830098,2.067799,13.746507,3.127867
1007.527344,0.192201,10.349393,13.368153,12.601495
1007.531250,17.120295,10.219403,-0.176899,-2.529707
1007.535156,-0.717834,9.293912,11.559229,1.215147
1007.539062,9.151321,2.013557,2.987872,0.302808
1007.542969,2.837664,2.796207,11.193714,6.460966
1007.546875,-3.182484,4.228705,1.691987,4.197407
1007.550781,-0.411152,-3.168803,-1.615516,-2.471017
1007.554688,-13.800686,-3.902341,-4.665397,-5.969466
1007.558594,-2.724083,-8.516815,-10.313799,-4.644044
1007.562500,-7.729690,-7.629403,-5.063457,-8.887055
1007.566406,-6.744732,-10.292456,-14.857401,-3.295911
1007.570312,-11.984272,-9.188107,-3.514503,-8.887757
1007.574219,-16.315406,-13.192344,-12.610100,-7.697936
1007.578125,-18.097015,-7.062602,-14.868577,-10.194987
1007.582031,-7.334932,-4.824868,-8.779222,-6.937209
1007.585938,0.365583,-7.417818,-6.693954,-11.093838
1007.589844,-12.268525,-14.494100,-3.331345,-7.341714
1007.593750,0.838522,-5.853275,1.244607,-7.124006
1007.597656,-0.165436,-0.071225,-0.561686,-0.205321
1007.601562,-0.190249,-1.203319,1.725293,5.639444
1007.605469,0.363952,4.899243,7.019814,-2.285559
1007.609375,5.016445,-4.324063,1.100040,4.549130
1007.613281,2.111871,4.484280,15.280876,12.280260
1007.617188,0.512018,5.886174,8.080979,8.061038
1007.621094,9.008362,17.649378,7.675201,13.964775
1007.625000,6.306936,15.066692,11.145344,15.496696
1007.628906,0.720831,4.593200,10.388572,5.291723
1007.632812,6.316571,10.075449,8.219170,17.105794
1007.636719,5.353066,9.784016,12.160141,7.161863
1007.640625,7.541862,2.607605,3.484020,-2.633004
1007.644531,0.640820,2.628328,3.632762,2.295594
1007.648438,2.694277,1.730617,3.168088,1.902420
1007.652344,-0.993748,-6.371665,-9.074491,3.268711
1007.656250,2.227409,1.022904,-1.077572,-1.160382
1007.660156,0.539933,0.512052,-3.967585,-9.436428
1007.664062,-8.301547,-5.718574,-11.610765,-4.184034
1007.667969,-12.890469,-0.794096,-8.383394,-11.882121
1007.671875,-11.589244,-14.438900,-11.296524,-4.631496
1007.675781,-9.748824,-9.601023,-5.880628,-19.969918
1007.679688,-10.640738,-10.231524,-5.178317,-9.652166
1007.683594,-0.386593,-4.870584,-7.049485,-6.386305
1007.687500,-10.676904,-3.092095,-13.050632,-8.933276
1007.691406,-1.429441,-1.225169,-6.332803,-7.331209
1007.695312,-1.687727,3.413719,-5.831365,1.176943
1007.699219,-0.165758,-2.858293,-2.902898,-0.350159
1007.703125,-0.512856,0.865895,3.582316,3.357197
1007.707031,-5.447994,2.684869,2.594345,4.240439
1007.710938,5.318198,7.252104,2.768089,10.234761
1007.714844,7.498810,8.967473,7.488305,3.832066
1007.718750,5.945548,15.645223,4.009226,2.153724
1007.722656,18.682640,9.146000,15.500818,10.532809
1007.726562,15.575544,7.422728,14.716956,11.599090
1007.730469,14.554773,14.533765,8.092805,10.162144
1007.734375,7.114482,8.980257,5.759354,5.550959
1007.738281,4.124553,14.510607,7.883052,0.602989
1007.742188,0.839435,-2.605696,8.976298,5.490236
1007.746094,4.385662,4.821256,5.421453,0.369806
1007.750000,2.292045,-3.565776,1.310429,-0.377658
1007.753906,-10.508436,-4.681455,2.406760,-1.005028
1007.757812,-6.244401,-4.781962,-1.959451,0.617139
1007.761719,-2.781481,-3.940235,-8.447658,-7.276599
1007.765625,-3.453560,-14.641675,-8.931447,-8.347478
1007.769531,-9.403289,-15.093513,-25.483203,-6.117049
1007.773438,-9.644971,-9.757081,-8.184252,-8.667637
1007.777344,-6.829604,-7.876946,-9.236038,-8.544753
1007.781250,-6.783064,-3.087286,-12.605049,-7.575631
1007.785156,-8.866331,-2.865243,-3.375046,-10.038214
1007.789062,-3.718956,-5.378019,-3.768190,-3.518096
1007.792969,0.461676,-5.218642,-4.975427,-5.239335
1007.796875,2.645616,3.158493,5.664904,-4.658308
1007.800781,-0.126880,-0.086982,-0.129456,6.575529
1007.804688,2.869709,3.165817,6.235596,6.546174
1007.808594,1.679392,1.322024,6.351064,2.158399
1007.812500,3.037197,2.413181,5.866637,3.119037
1007.816406,4.891718,9.872713,6.565456,18.960127
1007.820312,9.406629,9.034564,9.020309,6.196352
1007.824219,8.006917,9.169507,7.445670,7.961711
1007.828125,8.805893,11.726972,7.111181,10.793022
1007.832031,3.835939,3.929039,8.220060,9.669022
1007.835938,8.920968,7.027570,10.656582,13.480343
1007.839844,-2.998339,6.756497,2.985968,12.516863
1007.843750,-1.317424,2.280405,2.926643,1.842403
1007.847656,2.932710,2.029271,3.514369,4.907834
1007.851562,0.066312,7.755625,-0.533321,2.654635
1007.855469,-8.818995,-2.142992,1.935418,-6.658697
1007.859375,-6.585521,-6.264210,-8.060583,-4.977065
1007.863281,-19.022218,-5.876277,-6.869413,-4.929462
1007.867188,-11.014124,-6.200355,2.215173,-11.550423
1007.871094,-13.692344,-8.267659,-9.067284,-7.956549
1007.875000,-13.841859,-2.364705,-5.959565,-12.116090
1007.878906,-14.023850,-7.119647,-8.957639,-10.248256
1007.882812,-8.382559,-11.469024,-9.678887,-8.671736
1007.886719,0.817928,-13.600989,-11.223521,-11.845744
1007.890625,-12.098748,-8.616623,-8.684007,-7.243664
1007.894531,-3.268955,-3.824280,-2.541086,-2.049375
1007.898438,-0.155337,-8.082593,0.995216,-2.314925
1007.902344,-2.585106,-2.249547,-1.746980,-7.544947
1007.906250,4.785888,6.249131,6.073128,-5.475619
1007.910156,7.350251,-0.868518,11.792615,4.416601
1007.914062,11.063514,7.255069,8.212922,6.017711
1007.917969,12.110823,6.255497,11.294108,13.084599
1007.921875,13.690883,8.864410,7.306290,9.732731
1007.925781,15.220401,6.005550,12.851105,5.755476
1007.929688,3.748781,2.116388,3.362514,11.473236
1007.933594,11.060635,10.507905,10.361989,15.804415
1007.937500,10.815919,13.254167,10.631084,5.540453
1007.941406,5.546008,8.552000,3.797712,6.837561
1007.945312,6.291621,0.236764,4.908406,7.373103
1007.949219,4.187568,-4.871334,2.154288,2.173230
1007.953125,1.220562,-6.363120,1.009592,0.729016
1007.957031,8.174123,0.714232,-4.114314,-3.830718
1007.960938,-5.631237,-6.456828,-2.102074,-12.398811
1007.964844,-9.756027,-3.696717,-15.100859,-6.804210
1007.968750,-10.394251,-5.453267,-8.262053,-4.134242
1007.972656,-5.338709,-5.752958,-10.204879,-5.350522
1007.976562,-10.247665,-11.409182,-10.061334,-13.372763
1007.980469,-7.353863,-5.609804,-10.184790,-11.023387
1007.984375,-3.977850,-5.503066,-8.455038,-1.580724
1007.988281,3.173239,-5.926773,-9.651425,-6.368248
1007.992188,-2.537847,-8.566577,-1.278438,0.636488
1007.996094,-7.010317,-0.335580,-0.805217,-1.812051
1008.000000,-3.987396,-1.605638,-6.712842,-0.108627
1008.003906,0.993407,6.733492,1.961106,3.845104
1008.007812,3.795724,2.052739,5.905328,10.614906
1008.011719,9.489573,10.765293,9.242824,15.418609
1008.015625,6.784121,8.831993,3.561948,6.936529
1008.019531,12.276694,14.882729,8.556268,13.531186
1008.023438,12.093711,12.243024,14.821276,13.029875
1008.027344,18.763010,9.356403,8.295103,12.845956
1008.031250,12.242051,14.017111,6.717140,11.332957
1008.035156,11.238330,11.062993,16.227810,7.432429
1008.039062,11.105069,6.587494,6.734930,6.348723
1008.042969,2.859057,2.244899,7.090278,4.874193
1008.046875,4.926999,3.517077,4.007685,0.134027
1008.050781,7.230586,-1.299590,0.630022,0.511554
1008.054688,4.019682,-8.266809,-0.149772,1.301306
1008.058594,-7.618125,-12.204223,-4.588129,-0.824917
1008.062500,-6.620798,-4.833589,-9.312009,-6.367888
1008.066406,-9.924884,-12.404584,-11.221141,-14.129753
1008.070312,-13.578353,-9.841798,-14.202650,-5.182000
1008.074219,-14.896156,-12.356768,-15.033740,-13.515128
1008.078125,-18.319135,-11.354174,-10.406779,-14.409380
1008.082031,-0.327590,-15.883873,-11.267302,-9.222540
1008.085938,-13.960129,-9.905715,-10.650596,-12.343342
1008.089844,-4.832529,0.615015,-5.130073,-9.373175
1008.093750,-11.753275,-1.442439,-3.096502,0.748779
1008.097656,0.365234,0.478582,-1.232603,-11.034625
1008.101562,4.196312,-2.825922,10.142521,5.876835
1008.105469,-1.638607,6.101473,9.662022,4.442512
1008.109375,5.286713,9.633705,6.798505,6.503739
1008.113281,4.063470,2.003559,4.218673,9.751315
1008.117188,7.218271,3.172706,6.666705,14.317848
1008.121094,17.825870,8.647096,11.090167,12.271811
1008.125000,8.894877,2.925526,2.443348,14.051648
1008.128906,5.526909,9.153214,20.067435,6.602944
1008.132812,8.866649,12.382639,7.271038,11.324298
1008.136719,8.615313,9.700833,6.560977,11.405534
1008.140625,16.509572,3.467793,2.309892,2.455775
1008.144531,0.708396,-5.602292,4.286606,7.766253
1008.148438,3.980336,1.815775,-2.378192,-3.344638
1008.152344,2.076157,1.281983,-0.231360,-2.793873
1008.156250,-8.904196,-3.680174,-8.054087,-1.273241
1008.160156,-9.346767,-9.604646,-4.656111,-2.821742
1008.164062,-11.954139,-13.196108,-12.079882,-6.230001
1008.167969,-5.871366,-9.263810,-9.393449,-17.309429
1008.171875,-16.508604,-11.572420,-8.775984,-10.835393
1008.175781,-7.612585,-10.229427,-4.140914,-13.910126
1008.179688,-8.574911,-10.135931,-10.619850,-11.301912
1008.183594,-10.419522,-7.407833,-6.696702,-12.028475
1008.187500,-1.022246,-2.835865,-11.776074,-7.882923
1008.191406,-1.417092,-7.918974,-8.070961,-1.323851
1008.195312,-0.544370,-4.588237,-4.456571,-6.139554
1008.199219,0.294508,6.154346,-4.960127,-5.998436
1008.203125,1.049204,4.947050,1.017063,-8.981410
1008.207031,2.397560,11.795188,6.123381,2.213676
1008.210938,9.718370,9.203848,10.263936,7.468147
1008.214844,9.313771,12.011032,8.341407,7.597173
1008.218750,9.401311,9.880505,10.819699,8.621680
1008.222656,11.923725,11.943360,8.074251,8.928637
1008.226562,4.045782,8.489242,9.186632,10.225491
1008.230469,9.879759,4.315056,9.660915,3.998505
1008.234375,5.234425,8.427270,5.519872,4.713537
1008.238281,6.337248,12.665188,5.125637,7.753282
1008.242188,-0.383114,-1.754043,3.296149,6.195419
1008.246094,4.049981,-2.744193,1.103741,0.275345
1008.250000,6.841022,-5.808221,0.723195,5.176446
1008.253906,-9.553825,-10.274805,-8.803872,-9.082656
1008.257812,-11.674024,-5.600097,-2.938331,-3.128759
1008.261719,-13.474274,-1.066620,0.774886,-1.770577
1008.265625,-9.488985,-7.547655,-0.729617,-5.454775
1008.269531,-6.653093,-15.667417,-6.014461,-9.704900
1008.273438,-14.661546,-8.408259,-9.825757,-9.000424
1008.277344,-13.166537,-4.883109,-14.796655,-3.068024
1008.281250,-12.645427,-5.583835,-7.098810,-11.580055
1008.285156,-2.157136,-3.720112,-14.817582,-9.213895
1008.289062,-11.029481,-6.274410,-10.628910,-2.243219
1008.292969,-2.172703,-1.874147,-4.743840,2.868175
1008.296875,-0.833477,-3.717456,1.861349,0.915365
1008.300781,-4.771455,1.960586,-8.244660,-0.566586
1008.304688,3.399774,3.079489,9.640191,3.004097
1008.308594,11.797434,1.904612,5.929888,0.786528
1008.312500,6.428657,12.349843,6.226145,3.697518
1008.316406,10.662076,8.231020,10.060176,12.611925
1008.320312,4.402437,11.208205,7.046305,8.759818
1008.324219,7.578514,14.370515,11.169135,14.666867
1008.328125,10.944489,11.391627,11.703409,2.338306
1008.332031,9.811123,0.556399,13.576919,6.254200
1008.335938,9.514566,4.303250,9.006163,5.740310
1008.339844,1.476106,7.438857,4.847522,12.990431
1008.343750,-1.783983,4.129349,1.111458,-5.034950
1008.347656,2.362126,0.895160,-5.363098,-0.957906
1008.351562,-5.033284,0.433163,1.230634,-8.273977
1008.355469,-5.811584,0.032496,-7.887096,-9.255781
1008.359375,-4.978450,-7.879158,-7.820991,-2.707582
1008.363281,-4.940632,-5.944785,0.561071,-9.021177
1008.367188,-7.645556,-11.935944,-9.118040,-2.049137
1008.371094,-14.835796,-8.493337,-0.852398,-13.635630
1008.375000,-7.576056,-11.274695,-8.669217,-8.417867
1008.378906,-8.089159,-9.882107,-4.704809,-9.375937
1008.382812,-13.504199,-11.599627,-6.768016,6.952873
1008.386719,-17.383359,-6.905434,-2.896707,-5.993219
1008.390625,-7.279124,-6.367319,-2.944872,-6.541580
1008.394531,-6.030177,-6.251589,-8.043544,-8.794543
1008.398438,-10.262839,1.790609,-4.759622,-3.588997
1008.402344,-1.116371,2.960747,5.521707,8.988082
1008.406250,11.519577,2.559707,0.449014,2.725592
1008.410156,5.768186,9.191787,7.120636,0.675813
1008.414062,13.185270,2.258844,10.671138,7.542881
1008.417969,3.007612,13.890600,12.565761,8.655373
1008.421875,9.301562,8.482148,1.743592,12.420884
1008.425781,9.836930,8.592044,9.750654,15.505762
1008.429688,10.398872,10.878678,8.892458,5.284364
1008.433594,6.603187,10.394400,4.552531,4.589049
1008.437500,3.650594,6.291850,7.819951,7.833797
1008.441406,1.598366,10.324466,2.282451,10.368978
1008.445312,3.930512,0.834277,2.549054,-2.898389
1008.449219,-1.840894,-6.783071,-2.380295,-7.355691
1008.453125,-3.022677,-4.429812,-3.710204,1.602410
1008.457031,-8.960236,3.319925,-4.891113,-4.253962
1008.460938,-1.783503,-8.358291,-8.343658,-4.949473
1008.464844,-10.069038,-9.903725,-15.062260,-6.877454
1008.468750,-15.145313,-7.535130,-6.513357,-5.696309
1008.472656,-9.224995,-7.675415,-4.189464,-13.431884
1008.476562,-1.585675,-13.199465,-5.987400,-15.025322
1008.480469,-9.425873,-10.064796,-12.189134,-10.240663
1008.484375,-11.798082,-4.213235,-5.442700,-12.086416
1008.488281,-8.105667,0.050483,-5.738913,-2.738655
1008.492188,-12.088066,-7.335941,3.091072,-2.348991
1008.496094,-5.580081,7.142981,-1.018608,-15.703617
1008.500000,-3.337821,-1.756570,-0.375038,-2.706786
1008.503906,-2.964942,0.862153,4.367542,3.427603
1008.507812,7.772222,-0.050844,6.425699,5.644697
1008.511719,6.755371,7.755002,1.868571,10.957493
1008.515625,5.010663,8.751322,7.956148,10.379412
1008.519531,5.267286,13.310176,21.248058,7.059615
1008.523438,9.846250,6.982749,7.599588,8.407917
1008.527344,15.018693,11.602141,12.252786,6.565741
1008.531250,8.656578,16.617545,7.020022,5.499128
1008.535156,7.489237,6.989401,7.096123,5.211432
1008.539062,-3.474355,9.616271,6.580389,7.732244
1008.542969,4.194940,-0.296582,2.404169,0.753094
1008.546875,-4.202617,9.845248,5.367676,-5.822392
1008.550781,4.724305,-3.166152,6.379676,4.733442
1008.554688,-8.852169,1.670635,-4.359125,3.689086
1008.558594,-2.065239,-4.372227,-5.151563,-7.947489
1008.562500,-12.207852,-3.080397,-10.958666,-6.001309
1008.566406,-10.740230,-9.687744,-2.948563,-13.595433
1008.570312,-4.860402,-11.414430,-10.001858,-18.573113
1008.574219,-15.124803,-17.517544,-5.823509,-14.636386
1008.578125,0.084825,-12.804891,-13.719089,-12.714115
1008.582031,-13.142919,-9.545170,-19.140880,-5.833481
1008.585938,-7.349756,-10.500777,-11.339416,-3.323117
1008.589844,-2.633125,-3.657324,-2.615852,-4.446304
1008.593750,-10.225563,-0.466540,-5.906961,1.398598
1008.597656,-1.347255,4.675809,-4.844565,-5.552279
1008.601562,-2.089363,0.175148,-2.732810,5.375256
1008.605469,4.730445,0.629354,9.149277,2.477973
1008.609375,5.105717,11.991438,-1.613894,4.379183
1008.613281,0.692368,5.571043,7.437503,8.830698
1008.617188,-0.248580,2.548731,7.203622,4.785434
1008.621094,11.190086,8.906107,9.437389,17.026426
1008.625000,9.957575,15.700963,15.678249,13.613691
1008.628906,4.743428,7.921950,8.903890,16.133152
1008.632812,15.113239,7.909908,10.251122,1.625473
1008.636719,5.480466,13.742065,8.395489,8.811691
1008.640625,5.234946,8.586290,9.755036,2.248221
1008.644531,-1.220263,2.064002,1.194691,-2.642082
1008.648438,0.954618,-3.593689,5.599943,-0.227007
1008.652344,0.051795,-3.834282,-2.419754,-2.558856
1008.656250,2.863376,-3.711784,-3.466589,-4.343951
1008.660156,-3.154896,-4.891359,-3.763652,3.592256
1008.664062,-3.306975,-8.409990,-10.926815,-14.381470
1008.667969,-5.149805,-9.642390,-11.389590,-5.063239
1008.671875,-17.338284,-8.864333,-4.836869,-13.651512
1008.675781,-8.044239,-10.154594,-12.186422,-6.563538
1008.679688,-10.537252,-7.042555,-7.101082,-4.661933
1008.683594,-6.711436,-13.942609,-11.260193,-9.179422
1008.687500,-2.478241,-22.438072,-8.505707,-7.487333
1008.691406,-10.496353,-5.081730,-6.663331,-3.874604
1008.695312,-3.250040,-4.861663,-3.413081,-4.342070
1008.699219,-1.542089,0.965123,7.380763,-7.004024
1008.703125,1.069772,-0.967460,-4.030856,-4.009099
1008.707031,2.386243,5.701892,1.175632,2.130320
1008.710938,6.901434,10.214337,2.362630,8.989388
1008.714844,10.181383,4.863415,11.391388,6.939690
1008.718750,12.951317,9.441135,4.642449,14.800738
1008.722656,13.557334,6.389004,6.688382,13.915387
1008.726562,11.594192,8.530983,13.102964,13.370357
1008.730469,14.238941,8.500906,14.487928,16.450831
1008.734375,1.026346,4.187997,10.470002,6.428041
1008.738281,3.449457,7.493096,9.273023,6.937893
1008.742188,4.891154,-6.833586,7.546435,4.378994
1008.746094,6.282436,6.565738,-3.106258,2.227752
1008.750000,-1.497053,-4.291258,-2.428798,7.423030
1008.753906,0.948143,5.551533,0.460673,1.764790
1008.757812,-4.367310,1.398589,-7.315820,-4.141245
1008.761719,-6.833790,-11.478743,-7.761712,-2.019802
1008.765625,-14.297864,-15.428210,-4.600720,-4.357283
1008.769531,-17.621374,-14.979141,-10.870381,-12.247920
1008.773438,-12.840459,-15.366880,-4.024065,-8.050806
1008.777344,-11.452551,-13.450819,-9.623196,-15.109909
1008.781250,-16.028634,-8.673713,-4.903529,-18.195580
1008.785156,-12.191802,-7.229600,-3.108060,-12.879634
1008.789062,-1.726461,-8.950945,-11.982688,-6.650098
1008.792969,-2.738649,-0.952117,0.247761,-1.893121
1008.796875,5.103196,-5.205341,-5.708337,-4.848778
1008.800781,-2.268435,0.913090,-2.250645,0.186935
1008.804688,-1.302998,1.049460,2.692212,2.939720
1008.808594,1.326851,2.607365,0.524533,7.224004
1008.812500,8.504300,7.468562,4.366396,5.625178
1008.816406,3.900565,1.395222,13.193624,8.934413
1008.820312,6.217635,13.948377,10.580208,9.695003
1008.824219,9.152655,2.512939,12.653817,2.657733
1008.828125,8.859315,13.338448,5.947418,8.806079
1008.832031,16.819803,7.785470,2.945148,13.318514
1008.835938,12.827047,9.715679,6.637298,9.311028
1008.839844,11.704642,-1.727818,5.786386,8.884586
1008.843750,8.842012,1.476001,2.853333,6.865365
1008.847656,7.130674,-4.657785,7.200573,8.399893
1008.851562,-2.016246,6.511877,-2.479875,-3.206167
1008.855469,-4.238581,-1.668263,-5.073352,1.136071
1008.859375,1.252327,-2.555125,-5.439359,-9.104638
1008.863281,-7.295893,3.574176,-7.195466,-2.382893
1008.867188,-10.545668,-8.404509,0.070596,-8.610971
1008.871094,0.182259,-10.145744,-4.919577,-11.095258
1008.875000,-13.519198,-10.263319,-12.898993,-9.359629
1008.878906,-11.226361,-6.998988,-16.469753,-8.759724
1008.882812,-10.155581,-9.755495,-14.181004,-8.990522
1008.886719,0.359793,-11.686110,-2.329155,-7.614465
1008.890625,-11.034082,-10.954840,-7.738956,-6.420378
1008.894531,-5.735471,-1.585103,-13.377245,-7.089984
1008.898438,-1.397793,0.475388,6.808701,2.435033
1008.902344,2.285344,6.035714,5.058914,4.834530
1008.906250,3.226819,8.892817,-1.599817,6.433692
1008.910156,5.796022,2.626655,7.755381,8.110270
1008.914062,8.049446,6.732190,15.245903,11.284726
1008.917969,13.232061,6.597218,10.021775,12.432091
1008.921875,5.423312,14.323460,11.186928,11.463833
1008.925781,6.919762,10.400220,10.238174,8.594344
1008.929688,3.784105,13.102067,11.037580,8.906452
1008.933594,6.838891,7.898426,7.888200,3.276699
1008.937500,4.810330,-1.216026,13.044083,8.897678
1008.941406,8.501148,6.982153,11.600753,7.202086
1008.945312,-6.198573,2.993052,1.036183,7.382882
1008.949219,-9.010795,0.694654,2.421662,8.338675
1008.953125,-7.003963,-2.451217,0.337112,-3.932891
1008.957031,-1.437606,-5.227847,-5.548686,-9.086716
1008.960938,-0.720219,-11.851281,-6.829701,-8.186095
1008.964844,-8.289734,-6.343116,-8.915909,-12.279433
1008.968750,-5.643731,-4.435409,-12.081780,-10.094923
1008.972656,-8.815041,-16.979281,-1.093030,-3.494439
1008.976562,-10.994168,-13.323030,-5.578589,-10.197024
1008.980469,-9.747744,-8.575865,-7.512583,-4.452392
1008.984375,-7.571524,-8.595708,-7.976975,-16.399079
1008.988281,-14.445170,-1.120105,-11.997484,-7.232916
1008.992188,-3.682595,2.082766,-2.470885,-13.105730
1008.996094,-5.198420,-5.962489,-3.763649,-0.834815
1009.000000,8.193265,0.422688,0.622427,0.255623
1009.003906,4.150376,2.628391,-3.516481,2.242901
1009.007812,3.693582,2.806950,9.344121,6.569153
1009.011719,17.989675,4.489411,11.239188,9.641673
1009.015625,7.881966,5.605847,1.845635,5.059614
1009.019531,11.350435,8.934344,15.787670,1.806008
1009.023438,5.047643,8.091083,12.673677,7.717351
1009.027344,8.428444,3.688887,10.889898,10.208955
1009.031250,15.732691,6.511548,7.209202,7.801881
1009.035156,8.614003,5.045580,4.516858,13.516722
1009.039062,-0.513980,3.662861,8.840920,6.768117
1009.042969,5.551578,2.008713,8.676511,8.903918
1009.046875,0.376309,0.054093,-5.328861,11.677461
1009.050781,-1.775404,-2.519997,0.007290,-3.320383
1009.054688,-0.935608,-1.287709,-2.965038,0.452400
1009.058594,-3.745763,-2.463396,-5.330393,-2.256872
1009.062500,4.168455,-5.778583,-7.633084,-4.608942
1009.066406,-8.647025,-5.730033,-6.515190,-6.151532
1009.070312,-9.170083,-8.277192,-6.196112,-13.648414
1009.074219,-11.899368,-4.901750,-11.662970,-10.572480
1009.078125,-9.472099,-12.786657,-16.985808,-5.514740
1009.082031,-13.389481,-9.347809,-11.139357,-6.670676
1009.085938,-17.358124,-5.372409,-4.573278,-14.026503
1009.089844,-7.897718,-4.730831,-6.679017,-6.110818
1009.093750,-2.493542,-6.165552,-2.469907,-6.762877
1009.097656,0.379956,-2.335810,0.770204,-2.205547
1009.101562,-2.148313,1.260118,4.169355,2.878945
1009.105469,1.849257,5.631419,-3.280186,3.324661
1009.109375,12.009235,-2.668730,4.570090,6.386546
1009.113281,8.022568,4.810742,5.409944,5.510960
1009.117188,8.367465,7.378397,5.375205,8.592413
1009.121094,7.940569,13.208565,7.610337,4.437036
1009.125000,5.301162,14.400230,11.684546,4.298374
1009.128906,8.482559,13.525572,18.123876,16.348338
1009.132812,3.905281,3.913905,8.533450,15.444140
1009.136719,8.659120,13.658838,8.454841,7.302112
1009.140625,5.055278,5.985855,7.697606,3.338621
1009.144531,0.445331,-3.774089,0.583828,10.617513
1009.148438,13.912855,3.505721,-0.465482,7.479946
1009.152344,-0.164503,-3.272291,0.237654,-1.959138
1009.156250,-5.489534,-8.980410,4.503648,-10.181950
1009.160156,-7.501286,-2.356716,-6.807340,-9.458009
1009.164062,-6.045665,-8.177586,-8.834096,-4.518354
1009.167969,-6.952064,-10.127444,-7.197247,-3.913333
1009.171875,-6.028151,-7.172252,-13.527470,-2.862105
1009.175781,-7.852416,-9.128307,-13.904235,-15.562508
1009.179688,-3.016938,-8.707190,-7.752502,-10.937382
1009.183594,-8.078868,-6.760312,-5.571604,-15.304419
1009.187500,-17.110320,-6.448554,-3.913890,-8.011977
1009.191406,-6.057488,-1.035570,-1.380005,-3.811149
