timestamp,TP9,AF7,AF8,TP10
1000.000000,-7.571853,0.030808,-0.382243,5.563627
1000.003906,9.016609,3.821746,6.169754,5.631990
1000.007812,2.565099,-0.516839,7.319066,7.696637
1000.011719,13.251715,9.202995,7.272097,9.073837
1000.015625,2.799624,15.399824,12.913159,6.619362
1000.019531,10.743776,7.978055,6.243590,4.914668
1000.023438,5.874170,18.378561,12.424994,8.317792
1000.027344,13.438938,12.113882,13.952908,11.221810
1000.031250,13.613990,10.636432,11.968456,14.118693
1000.035156,8.738167,11.538985,9.711035,1.731828
1000.039062,3.065110,5.538651,11.338094,2.353076
1000.042969,6.468305,4.193544,9.365261,6.967343
1000.046875,2.595221,-0.466308,-0.992421,6.954930
1000.050781,0.042783,-3.764876,2.628902,4.053246
1000.054688,-4.861464,-6.818325,1.940821,0.734663
1000.058594,-4.778831,-12.780359,-5.929217,-7.787977
1000.062500,-2.564755,-8.830499,-3.892325,-10.266460
1000.066406,-12.161579,-14.028368,-9.573541,-7.013998
1000.070312,-8.822227,-8.907351,-6.633338,-6.726409
1000.074219,-5.617597,-10.432762,-7.006973,-11.488895
1000.078125,-7.691126,-8.836068,-5.665075,-15.633699
1000.082031,-6.346189,-8.382498,-13.645330,-10.391317
1000.085938,-10.445537,1.085920,-8.132971,-5.869611
1000.089844,-5.193204,-5.205017,-8.566542,-5.255598
1000.093750,0.073628,-6.523913,-5.277591,-7.653947
1000.097656,-2.518078,-0.580215,0.518154,0.668286
1000.101562,1.932333,-0.512452,0.279000,0.934064
1000.105469,-0.911188,8.294283,10.891347,5.460604
1000.109375,10.044890,3.486905,14.120957,7.815756
1000.113281,7.181023,4.964849,7.426658,6.648127
1000.117188,14.149008,10.678890,9.706012,9.931581
1000.121094,10.458745,10.002357,6.715382,9.196544
1000.125000,9.699157,11.021399,1.501723,9.118840
1000.128906,4.344890,0.054324,7.486110,6.311790
1000.132812,6.560358,11.585064,14.510517,7.328256
1000.136719,8.766223,11.924165,4.547165,4.698644
1000.140625,6.539375,12.632227,6.535909,12.238092
1000.144531,9.049764,2.249920,4.094391,5.585176
1000.148438,5.792977,9.366177,3.665254,-1.241341
1000.152344,5.239133,1.413189,0.982421,0.913291
1000.156250,-4.234835,-0.857468,-1.118648,0.998682
1000.160156,-7.885154,-6.596221,-3.037800,-14.078358
1000.164062,-12.444055,-9.716121,-8.342780,-7.737371
1000.167969,-7.241322,-14.215574,-7.652827,-13.377091
1000.171875,-14.625918,-1.681449,-14.001608,-12.425590
1000.175781,-14.432778,-3.137471,-10.001870,-7.830733
1000.179688,-10.680710,-5.597183,-8.569218,-9.558997
1000.183594,-11.599953,-2.538363,-10.042589,-12.654921
1000.187500,-6.120112,-3.116030,-12.478112,-7.255961
1000.191406,0.595555,-6.321680,-4.351776,-1.978626
1000.195312,-0.578527,-5.356467,-1.099751,0.227975
1000.199219,-7.876756,3.120806,-3.592192,1.487637
1000.203125,3.118769,-0.765850,0.219362,10.268595
1000.207031,6.147298,1.714921,0.381935,0.189205
1000.210938,4.835283,10.029760,3.936573,7.216023
1000.214844,7.940786,12.424379,13.830344,7.327862
1000.218750,12.554064,0.976947,8.658429,12.471970
1000.222656,13.287363,11.350705,9.219397,14.802431
1000.226562,14.219075,4.926160,9.413532,9.692603
1000.230469,9.879200,7.220081,6.637781,6.950084
1000.234375,9.043496,7.702122,7.120376,7.128874
1000.238281,11.842066,5.743289,9.325247,7.145874
1000.242188,5.702604,13.538638,6.575974,3.770667
1000.246094,2.659987,11.838517,1.516318,-5.621094
1000.250000,-1.251904,-1.224480,4.594985,-1.423620
1000.253906,-0.272935,-5.890345,-4.476921,1.039978
1000.257812,-2.393275,-10.597177,-1.338386,-6.788831
1000.261719,-6.643483,-8.287697,-9.344345,-3.441058
1000.265625,-8.629463,1.921918,-10.670848,-8.095024
1000.269531,-10.158885,-4.485655,-6.385798,-8.020333
1000.273438,-12.549479,-15.267311,-14.221690,-10.902825
1000.277344,-9.560627,-16.516452,-17.723365,-11.811046
1000.281250,-7.516215,-7.708676,-9.051717,-2.468891
1000.285156,-7.882714,-1.318678,-11.832626,-12.142077
1000.289062,-6.296604,-13.178275,-2.334583,-1.268117
1000.292969,-3.928283,-0.618631,-1.990267,-7.698379
1000.296875,-4.780649,1.862431,-3.506770,-6.712997
1000.300781,-9.372925,-0.490559,3.144471,-0.598028
1000.304688,2.842622,6.722297,9.449912,5.065235
1000.308594,7.178570,2.520254,10.537191,3.093189
1000.312500,6.412272,6.788452,9.706924,11.277274
1000.316406,12.134603,11.720000,5.562120,7.074711
1000.320312,7.452849,8.984335,4.788275,8.049641
1000.324219,16.716064,9.633726,9.742606,8.437494
1000.328125,8.423592,5.734002,7.701618,14.507675
1000.332031,13.182869,8.991887,8.640315,3.387378
1000.335938,1.177272,10.294864,5.427754,8.854860
1000.339844,9.916811,5.612349,1.207715,6.880580
1000.343750,5.467081,-1.832291,-0.019210,4.537425
1000.347656,-0.615721,1.652406,3.969408,-5.541006
1000.351562,0.650073,-0.808570,-1.953141,-7.654169
1000.355469,1.471282,-6.736582,-0.389945,-3.840710
1000.359375,0.394691,-8.744127,-4.074777,-7.788509
1000.363281,-6.795168,-7.695522,-10.052640,-9.545185
1000.367188,-4.209425,-5.383519,-9.216574,-11.537730
1000.371094,-15.248607,-15.542494,-5.292439,-15.688295
1000.375000,-12.845145,-9.397325,-15.162951,-1.412649
1000.378906,-2.866989,-12.582771,-8.406620,-11.860919
1000.382812,-7.060927,-4.863843,-14.409336,-12.339070
1000.386719,-5.912509,-7.426951,-3.368369,-11.054513
1000.390625,-9.132980,-9.845915,1.551188,-9.036405
1000.394531,-3.955961,-9.602173,-4.279984,-5.658332
1000.398438,1.444741,-3.418022,-4.972880,2.117587
1000.402344,1.291565,2.627684,1.532662,1.961936
1000.406250,2.790542,6.992226,2.377046,5.958775
1000.410156,5.066320,2.202324,1.555952,10.273414
1000.414062,10.958451,7.560402,7.067627,6.243904
1000.417969,10.297178,8.081702,15.325382,7.452525
1000.421875,10.702995,14.006982,3.989086,16.087440
1000.425781,12.192877,8.007660,-0.593345,13.676686
1000.429688,7.216119,16.611275,12.674276,8.487558
1000.433594,8.975941,3.704248,-3.418327,9.187154
1000.437500,7.183520,5.799066,13.255966,-2.202399
1000.441406,5.660161,5.076136,5.882513,6.801979
1000.445312,4.270168,4.674748,1.624140,8.390378
1000.449219,0.623817,-0.552236,-1.770524,-9.600459
1000.453125,-1.127252,-9.593834,-0.158399,-3.354832
1000.457031,-9.732944,-0.175330,-2.856018,-2.358373
1000.460938,-9.019738,0.678909,-3.624812,-12.778431
1000.464844,-1.439785,-1.615963,-7.310656,-5.551439
1000.468750,-13.480402,-9.687447,-5.539905,-3.537321
1000.472656,-17.959649,-10.114416,-9.671069,-9.078040
1000.476562,-16.973122,-12.391194,-1.798254,-8.479492
1000.480469,-10.112479,-16.287565,-8.165663,-9.000710
1000.484375,-10.196968,-6.685449,-9.524046,-5.311700
1000.488281,-6.206362,-7.769339,-9.247494,-12.448431
1000.492188,-11.818865,-4.198816,-9.062083,-8.739747
1000.496094,-0.053691,-7.837756,-5.865671,-4.550335
1000.500000,0.425951,12.995504,-7.452863,3.267489
1000.503906,-1.781919,6.491972,-3.865773,-7.219961
1000.507812,7.032621,1.673581,8.151209,5.238914
1000.511719,7.969078,1.252467,7.469439,7.712616
1000.515625,8.915267,4.539849,6.063092,3.797690
1000.519531,14.754647,3.342729,3.799694,11.093175
1000.523438,9.778767,4.716677,8.576493,10.252810
1000.527344,9.345561,13.101790,10.993257,8.536734
1000.531250,8.061231,9.502180,4.876418,13.162854
1000.535156,12.627933,3.523725,7.961077,14.958141
1000.539062,6.614748,8.735805,8.219752,2.142455
1000.542969,8.823327,4.416569,6.273179,8.514612
1000.546875,-2.739290,1.227429,5.926114,6.214732
1000.550781,-0.310675,2.707373,9.565662,-2.815215
1000.554688,-2.979755,0.597804,-12.243330,-4.204245
1000.558594,-4.386579,-8.901423,-8.101171,-7.094497
1000.562500,-4.887583,-13.099449,-3.275476,-10.009206
1000.566406,-13.138849,-7.243149,-14.776417,-14.631110
1000.570312,-12.134996,-5.376203,-14.899681,-12.313850
1000.574219,-23.633884,-12.640683,-13.510336,-7.051135
1000.578125,-17.543884,-14.594942,-12.818187,-7.803549
1000.582031,-8.275913,-2.197463,-7.607269,-4.049321
1000.585938,-9.818936,-11.287882,-8.287230,-4.818754
1000.589844,-7.543332,-4.892046,-1.921829,-5.776374
1000.593750,-7.146759,-2.667061,-3.310798,-8.280455
1000.597656,-1.810210,1.513523,-7.427901,0.878136
1000.601562,-1.363529,1.543694,-5.989738,-1.668302
1000.605469,1.615894,8.947994,2.564724,6.848117
1000.609375,4.183861,9.234124,4.512784,7.588023
1000.613281,7.690479,8.862389,11.905573,13.361936
1000.617188,11.484473,13.883338,12.232622,4.194696
1000.621094,11.228826,5.420701,7.544549,1.738133
1000.625000,8.924662,11.947227,5.903031,10.439933
1000.628906,13.014862,12.094088,8.638531,8.503664
1000.632812,12.783525,6.821102,8.569751,-3.392627
1000.636719,8.124525,0.595068,4.974198,6.335715
1000.640625,3.881426,1.440321,0.960347,1.751344
1000.644531,-0.404484,-4.253461,3.781935,7.663877
1000.648438,-2.447294,-2.620769,1.401529,-2.544015
1000.652344,3.941062,-2.648959,0.619326,1.457488
1000.656250,1.225509,-8.281778,-4.015421,0.549327
1000.660156,-3.819781,-10.364233,0.895276,-6.104479
1000.664062,-8.445292,-4.212119,-5.156483,-8.621140
1000.667969,-6.940271,-6.192677,-4.399419,-20.248207
1000.671875,-10.400607,-17.828310,-11.486558,-12.923310
1000.675781,-10.997125,-7.973843,-1.710931,-16.310453
1000.679688,-10.390380,-7.519806,-4.634477,-3.631777
1000.683594,-11.955128,-3.385047,-7.071136,-16.130581
1000.687500,-8.858804,-6.273963,-7.202551,-7.082772
1000.691406,-5.058132,-8.120302,0.230520,-3.957767
1000.695312,-12.342743,-3.653981,-8.149829,-10.335599
1000.699219,-5.989295,-2.555521,-1.995308,1.588217
1000.703125,4.488041,-3.418329,-0.867459,0.161238
1000.707031,0.959555,3.552389,7.332001,-0.920715
1000.710938,10.700768,8.523764,1.003730,4.165502
1000.714844,4.466320,13.820601,5.673456,3.040642
1000.718750,4.177465,11.468617,6.921645,10.984045
1000.722656,11.510762,10.334537,6.962649,7.783871
1000.726562,3.905089,1.612027,12.038712,2.218926
1000.730469,5.814388,6.421747,10.061219,8.264163
1000.734375,9.844675,3.554356,6.567455,13.188575
1000.738281,-1.075311,15.967987,2.448286,10.057239
1000.742188,1.448617,-3.407444,5.133915,4.600341
1000.746094,7.624475,5.147409,8.253588,8.519877
1000.750000,-1.172547,0.090804,2.125305,1.551766
1000.753906,-1.005284,2.978235,-3.701847,-2.876957
1000.757812,-8.950153,-8.818120,3.708245,2.780967
1000.761719,-7.002506,-3.255419,-0.454121,-7.856124
1000.765625,-13.917706,-10.535657,-15.442179,-9.797524
1000.769531,-8.618209,-9.771549,-11.969060,-14.335343
1000.773438,-13.235350,-14.572710,-5.061283,-8.282243
1000.777344,-5.085594,-8.301530,-7.013733,-15.777641
1000.781250,-15.983776,-10.062870,-9.935958,-7.065796
1000.785156,-9.945905,-3.502430,-10.338210,-15.715093
1000.789062,-0.757309,-18.326933,-5.926326,-9.365312
1000.792969,-1.585187,-7.373345,-5.429297,-2.163823
1000.796875,-1.901704,0.568126,-7.361305,-4.552012
1000.800781,-2.928864,-5.818504,2.215453,6.438729
1000.804688,0.119336,5.282106,5.056291,3.540901
1000.808594,-4.868208,7.357662,12.096101,10.328898
1000.812500,10.333091,12.679612,10.256101,11.341600
1000.816406,6.707447,11.325261,4.838275,5.539551
1000.820312,7.093442,2.275229,5.564516,9.150702
1000.824219,14.926118,13.266912,10.291981,11.581448
1000.828125,5.542428,10.090508,6.895882,9.733570
1000.832031,7.625144,11.310789,3.059516,5.770623
1000.835938,10.868768,4.269182,12.873082,8.146017
1000.839844,1.680678,11.505474,-0.101391,7.163693
1000.843750,3.172455,11.875222,2.785410,12.722225
1000.847656,-1.444606,1.135029,-4.718236,-5.287681
1000.851562,-0.399147,-3.731749,-3.116977,7.328822
1000.855469,-3.526937,5.123260,-4.078139,-5.263882
1000.859375,-3.772190,-11.177879,-9.083344,-11.093795
1000.863281,-6.373753,-2.969793,-1.526073,-3.063396
1000.867188,-7.810953,-6.812849,-9.039575,-8.642358
1000.871094,-8.705401,-10.600322,-14.289202,-11.114324
1000.875000,-6.546241,-16.179832,-10.963638,-11.628912
1000.878906,-13.180285,-12.918005,-0.505733,-12.971927
1000.882812,-13.286386,-6.239330,-14.651545,-2.021025
1000.886719,-9.875026,-9.546987,-3.214686,-9.513919
1000.890625,-8.106836,-2.887727,-1.039793,-9.560971
1000.894531,-9.340138,-8.196570,-2.761990,-2.936123
1000.898438,-3.560926,3.495566,-5.774285,-1.962264
1000.902344,2.299028,-4.343300,5.227459,-5.866953
1000.906250,12.085218,8.363415,7.547137,5.969716
1000.910156,8.418743,9.970285,6.752322,5.108327
1000.914062,7.710459,10.281237,4.139454,8.641718
1000.917969,10.996835,8.482683,10.058954,10.473374
1000.921875,1.222466,13.510363,18.151261,4.362488
1000.925781,12.373612,7.688812,16.693836,18.774485
1000.929688,13.709975,7.963443,15.883228,9.679921
1000.933594,6.657326,13.248133,6.333991,9.987675
1000.937500,7.265934,10.592276,7.785363,5.685256
1000.941406,13.206528,1.081408,2.180534,1.632491
1000.945312,4.828047,-3.239483,4.941853,0.580733
1000.949219,-4.646233,1.543410,-3.020727,1.008799
1000.953125,-6.075461,1.297172,1.299253,-3.196190
1000.957031,-5.587969,3.553877,-6.947669,-3.175946
1000.960938,-7.934597,-3.265666,-0.959531,-3.720604
1000.964844,-11.543044,-9.818711,-9.524273,-12.028991
1000.968750,-5.099685,-12.154174,-15.496069,-13.852856
1000.972656,-10.673186,-10.611245,-13.061374,-10.203659
1000.976562,-9.349736,-16.623950,-7.957114,-4.262071
1000.980469,-6.303589,-10.919848,-15.008660,-14.619253
1000.984375,-11.535966,-6.993192,-5.075766,-15.813105
1000.988281,-10.106468,-11.417491,-8.819922,-9.096648
1000.992188,-2.394641,2.895447,1.830719,-2.899189
1000.996094,-1.185547,4.046022,-2.768504,4.014856
1001.000000,-9.624123,2.371878,-0.122811,-3.840507
1001.003906,-2.070926,1.213620,2.067907,0.359695
1001.007812,0.929445,2.849735,-6.083008,5.244577
1001.011719,5.498081,4.773993,11.741204,1.602402
1001.015625,10.728692,6.876260,3.581864,11.108649
1001.019531,1.931868,7.307161,10.060797,7.597213
1001.023438,4.079586,11.276214,-0.120703,6.317618
1001.027344,2.667452,8.741095,8.911273,13.163187
1001.031250,6.950019,14.373761,5.899864,12.001115
1001.035156,8.154425,8.210532,13.029421,11.348409
1001.039062,-1.014870,1.128709,5.951761,7.978259
1001.042969,2.255071,3.837829,8.776927,4.629712
1001.046875,3.808862,0.852197,3.053706,3.312202
1001.050781,3.522380,-6.638315,-3.172347,-7.636523
1001.054688,-13.987402,-1.152968,-4.440121,-8.653359
1001.058594,-13.226186,-1.638222,-5.284931,-0.098576
1001.062500,-16.259002,-7.087212,-7.950484,-12.287807
1001.066406,-7.759957,-8.914266,-12.114823,-7.408958
1001.070312,-12.204627,-15.528505,-1.478974,-18.935110
1001.074219,-10.606813,-13.760100,-8.703757,-10.496941
1001.078125,-10.406767,-11.510314,-3.678652,-10.679433
1001.082031,-8.361864,-12.013099,-1.964440,-8.993733
1001.085938,-4.411298,-4.121458,-9.657691,-13.771728
1001.089844,1.488970,-8.521093,-1.266811,-15.397759
1001.093750,-10.357533,-0.750935,-6.244467,0.768287
1001.097656,0.020069,4.761353,4.888868,0.167034
1001.101562,0.833494,-4.910850,4.811904,9.758531
1001.105469,5.746343,-1.146959,-1.429034,2.312707
1001.109375,11.768227,10.167257,3.957730,12.098007
1001.113281,9.171950,6.008403,14.469971,12.663311
1001.117188,12.897884,12.833980,6.763819,5.416643
1001.121094,5.233794,5.848976,9.981456,9.247943
1001.125000,1.781044,4.667373,11.023132,6.229617
1001.128906,8.735070,7.768804,10.103914,5.988008
1001.132812,4.364791,8.336173,10.808014,16.768018
1001.136719,9.415470,6.896346,8.030704,13.183319
1001.140625,7.650545,8.366749,5.733648,7.672851
1001.144531,5.094592,8.427124,3.225689,8.631750
1001.148438,0.444964,2.723679,5.232653,5.545716
1001.152344,-6.005466,-4.085109,0.873172,-3.543420
1001.156250,-0.851682,-7.093758,2.729523,-1.658441
1001.160156,-9.157305,0.507501,3.966720,-3.951411
1001.164062,-3.864458,-10.326801,-10.591396,-0.514725
1001.167969,-1.269403,-10.464764,-8.584439,-9.257533
1001.171875,-11.343251,-6.920254,-11.905535,-11.868119
1001.175781,-8.853730,-11.600252,-5.346065,-3.152739
1001.179688,-13.355391,-12.171715,-4.928281,-14.571450
1001.183594,-9.303763,-0.814744,-20.763463,-7.033655
1001.187500,-12.164549,-5.299688,-1.594869,-12.359481
1001.191406,-9.144417,-12.572862,-6.916935,-2.779220
1001.195312,-2.173383,-1.100439,-0.283295,-0.739349
1001.199219,1.906556,-0.206431,-0.601912,-3.733101
1001.203125,-4.775028,10.492868,1.759668,4.360709
1001.207031,-6.625059,2.267192,-2.781156,6.137512
1001.210938,10.821125,-1.511243,5.192337,4.058088
1001.214844,4.856870,6.311025,7.629927,7.509681
1001.218750,6.359273,9.169271,1.710672,9.690348
1001.222656,7.291264,11.655279,10.558551,11.657629
1001.226562,12.134138,2.286438,4.338626,8.795870
1001.230469,6.165466,9.185816,-0.062795,13.714042
1001.234375,12.353424,6.483850,-3.604423,17.090758
1001.238281,1.398766,4.711299,8.260934,13.286956
1001.242188,10.060401,-2.323649,-2.363515,1.399272
1001.246094,0.658903,1.567996,1.124572,0.561810
1001.250000,0.654463,0.872687,-0.662990,0.708168
1001.253906,0.567879,0.461022,-1.697669,-9.893273
1001.257812,-5.070531,-2.496020,-0.269328,-5.293763
1001.261719,-3.492595,-8.594935,-6.444569,2.690370
1001.265625,-2.861021,-13.005059,-9.715595,-8.792050
1001.269531,-10.306644,-11.372207,-11.116995,-12.840167
1001.273438,-11.360004,-7.043602,-4.710165,-3.816258
1001.277344,-11.817230,-10.633781,-14.004268,-14.949448
1001.281250,-11.603999,-15.309194,-15.642712,-8.317552
1001.285156,-3.918914,-6.303981,-10.371079,-16.815839
1001.289062,-4.105452,-7.504792,-3.243164,-1.111188
1001.292969,-6.114346,-8.752187,-0.851813,-6.330800
1001.296875,2.528970,-0.352007,-5.624692,-2.955020
1001.300781,1.113731,-7.179180,3.455499,-0.359366
1001.304688,4.397592,0.824175,3.504037,2.993791
1001.308594,8.273847,1.220215,9.342325,4.181991
1001.312500,14.440313,5.111012,5.695414,5.758630
1001.316406,7.721128,9.447884,9.194043,7.523392
1001.320312,13.998095,4.723031,12.326063,2.809317
1001.324219,14.276943,19.831581,15.407037,14.087958
1001.328125,8.157980,10.342140,6.928838,9.137126
1001.332031,16.931704,5.951176,8.626002,8.216903
1001.335938,11.902251,13.484647,1.196006,3.890329
1001.339844,9.869687,12.923974,12.449353,6.462057
1001.343750,5.078967,7.856450,-2.172134,1.710948
1001.347656,-2.010833,2.882506,5.791753,7.880522
1001.351562,-3.648630,0.397885,2.331932,-0.305718
1001.355469,-7.023066,4.237423,-9.639750,-9.623144
1001.359375,-8.815421,-9.186971,-14.041372,-8.460103
1001.363281,-5.059877,-10.866118,-0.743964,-9.405899
1001.367188,-3.341857,-8.315294,-4.844201,-18.982354
1001.371094,-9.026858,-8.929394,-12.059261,-17.135106
1001.375000,-0.475802,-4.661778,-15.508690,-12.440378
1001.378906,-11.653196,-10.010126,-9.465128,-10.027094
1001.382812,-10.860670,-10.876485,-6.632731,-4.195349
1001.386719,-13.983273,-7.463310,-7.599473,-15.826786
1001.390625,-4.614018,-3.107858,0.670480,-3.945358
1001.394531,6.222818,0.350748,-2.026894,1.379259
1001.398438,-2.101011,-1.762822,2.354487,-3.630628
1001.402344,5.401383,0.036507,2.250076,1.985303
1001.406250,15.038812,-0.856166,0.240744,9.580540
1001.410156,8.305661,2.849836,7.222334,8.418294
1001.414062,16.363198,4.291723,7.553367,8.186044
1001.417969,2.889722,8.864051,12.807285,2.390044
1001.421875,15.938544,4.142980,8.445225,7.064167
1001.425781,6.242356,11.279097,13.144048,17.219582
1001.429688,14.280904,15.610039,17.563128,9.028387
1001.433594,12.798393,9.430720,8.802270,11.962619
1001.437500,0.690352,-1.829015,-2.688591,5.926457
1001.441406,0.646451,8.748318,5.987894,10.155996
1001.445312,1.268389,6.559319,3.712694,-7.038540
1001.449219,-4.022371,-1.840224,-0.452314,1.276420
1001.453125,-1.741629,-13.691524,2.675067,0.907239
1001.457031,-8.132516,2.036923,-9.350530,-5.132862
1001.460938,-9.979968,-8.549767,-1.336200,-3.233081
1001.464844,-11.477790,-5.911699,-3.259321,-3.397219
1001.468750,-14.323040,-6.298173,0.454803,-10.379398
1001.472656,-10.085834,-13.093016,-13.054972,-11.626337
1001.476562,-1.879826,-9.441785,-2.553529,-11.687910
1001.480469,-10.551848,-14.929045,-12.441018,-8.444060
1001.484375,-5.522869,-7.196663,-9.309782,0.276000
1001.488281,-15.314445,-6.968871,-8.829793,-4.746348
1001.492188,1.439760,-7.900666,-18.115357,-6.618620
1001.496094,-2.570122,-2.448941,4.180616,3.657280
1001.500000,2.476835,-5.951172,5.189380,-1.178776
1001.503906,1.876478,1.951905,-0.039782,9.177714
1001.507812,6.884960,0.851105,6.572725,-1.064646
1001.511719,9.932680,7.056788,5.439224,5.165511
1001.515625,4.470724,14.292512,4.334660,9.994284
1001.519531,10.810759,6.363256,2.753813,9.856525
1001.523438,6.221748,9.447650,13.301866,9.592486
1001.527344,9.517745,12.330193,11.299812,9.333609
1001.531250,7.913593,2.442633,11.429186,8.232531
1001.535156,-0.036410,10.640180,11.708971,12.232846
1001.539062,10.384918,5.552691,6.938477,11.840848
1001.542969,2.780981,12.098643,11.410729,2.052054
1001.546875,3.001711,0.528437,0.747973,5.804444
1001.550781,-0.442207,-0.816146,1.694959,1.736568
1001.554688,-6.263840,8.329778,-4.738542,-1.154171
1001.558594,-2.401390,-7.966512,-1.482162,-8.018888
1001.562500,0.548129,-5.220938,-10.777116,-5.329743
1001.566406,-9.393179,-5.426112,-11.989224,-9.676625
1001.570312,-5.223590,-6.449919,-12.634376,-10.560085
1001.574219,-3.526859,-15.022794,-1.825431,-9.415839
1001.578125,-2.079048,-10.992685,-9.778622,-3.546087
1001.582031,-6.895972,-5.046083,-11.032628,-6.691270
1001.585938,-6.014853,-7.697985,-4.321686,-4.827022
1001.589844,-10.132657,-4.199470,-10.524725,-5.185928
1001.593750,-11.157826,0.388089,-7.899535,-2.540192
1001.597656,-1.483060,-9.170139,-3.000206,-1.302781
1001.601562,-8.737651,5.113693,-3.196263,-2.381900
1001.605469,9.015915,-2.404877,2.364922,1.633466
1001.609375,3.770257,5.828674,7.670069,4.224964
1001.613281,6.065027,6.659165,4.106276,11.556351
1001.617188,4.724048,5.236082,7.721337,7.798689
1001.621094,6.022487,8.635187,4.952548,12.248142
1001.625000,6.130445,5.458132,7.985747,13.886513
1001.628906,7.451029,9.271634,13.546335,6.942674
1001.632812,10.735272,2.312526,9.347686,4.934158
1001.636719,1.489291,17.023375,4.829005,10.936564
1001.640625,1.001248,4.420496,2.964636,4.990575
1001.644531,1.547933,2.747288,5.915278,-1.021341
1001.648438,-5.566963,-2.293150,1.224808,-5.167317
1001.652344,-4.042722,-12.489657,-6.995124,-10.301213
1001.656250,-6.089585,-7.489652,-1.169423,-2.028560
1001.660156,-8.603832,-0.700971,-2.533711,-12.612987
1001.664062,-2.171708,-6.571323,-13.661624,-8.499688
1001.667969,-9.125389,-1.215982,-6.323432,-11.343901
1001.671875,-11.859110,-9.561751,-8.467345,-5.997561
1001.675781,-1.614225,-8.286521,-12.467095,-3.279798
1001.679688,-14.678967,-6.484621,-9.260044,-7.288833
1001.683594,-8.008317,-4.546107,-15.116826,-12.264254
1001.687500,-10.226740,-6.667731,-7.843628,-8.148134
1001.691406,-4.087819,-7.303704,-6.067544,-8.651303
1001.695312,-0.558110,-2.203929,0.429779,-2.689564
1001.699219,-0.642808,0.285772,-1.624349,4.685954
1001.703125,-3.194240,0.918561,3.438794,-2.746180
1001.707031,4.379425,5.804232,6.747726,8.004516
1001.710938,5.939683,4.194893,3.391405,-2.026488
1001.714844,6.418155,12.781085,12.577173,13.429117
1001.718750,10.922594,11.772084,4.010616,13.555297
1001.722656,10.786030,13.889607,6.150510,13.095488
1001.726562,7.265346,6.913571,1.217174,3.153267
1001.730469,7.808713,15.121795,8.366769,2.881491
1001.734375,6.912508,6.771506,15.987134,4.760555
1001.738281,11.429588,11.214563,9.914649,3.379878
1001.742188,6.065722,11.178658,8.295161,4.284701
1001.746094,3.722998,1.978250,4.700821,0.795415
1001.750000,-1.978230,-8.353494,-3.360616,-3.621143
1001.753906,5.895753,-5.774562,-2.208048,-3.491687
1001.757812,-6.595704,-4.469409,-6.467236,-12.511984
1001.761719,-4.385557,-1.745469,-7.069127,-7.290598
1001.765625,-14.784748,-6.855124,-8.376135,-4.458530
1001.769531,-13.012392,-8.251556,-9.431317,-16.860664
1001.773438,-6.053358,-5.922415,-8.213035,-10.380126
1001.777344,-6.876150,-8.566980,-11.110580,-1.392469
1001.781250,-7.752123,-9.468142,-16.137628,-12.031877
1001.785156,-13.214524,-10.863532,-7.883437,-13.776898
1001.789062,-9.058182,-8.811769,-2.341394,-5.052644
1001.792969,3.709758,2.713501,-15.014163,-4.084596
1001.796875,-1.610448,2.797141,-5.311680,1.031683
1001.800781,2.245737,-7.104904,-5.881373,-4.999303
1001.804688,5.449389,2.205659,0.707626,5.544929
1001.808594,10.421038,6.630652,3.281716,2.209608
1001.812500,5.290343,11.198007,2.969065,10.079534
1001.816406,4.166308,13.389635,9.920256,0.281520
1001.820312,11.776880,14.685629,16.609871,4.323623
1001.824219,3.303141,17.215744,10.467468,7.110229
1001.828125,12.279567,7.893104,12.955627,13.867815
1001.832031,12.990127,11.657519,9.340184,15.012590
1001.835938,15.293558,8.981588,2.674355,12.581098
1001.839844,11.198056,4.075386,0.251510,18.375471
1001.843750,-0.208454,3.957554,2.504765,12.177422
1001.847656,0.585378,7.212487,5.884091,-1.940879
1001.851562,-0.747353,-1.001015,3.631224,0.136117
1001.855469,-2.035697,-2.858295,-5.100936,1.465190
1001.859375,-6.271761,-6.942902,1.651784,-7.658477
1001.863281,-2.589847,-11.330277,-9.300745,-4.917928
1001.867188,-9.853495,-8.798360,-5.322751,1.774379
1001.871094,-12.435633,-12.634048,-13.352768,-8.878953
1001.875000,-10.703538,-9.968805,-11.429641,-11.440010
1001.878906,-14.044582,-11.004475,-11.212234,-9.092660
1001.882812,-1.977149,-7.454383,-9.743939,-10.967576
1001.886719,-9.680756,-1.610344,-4.443470,-13.511904
1001.890625,-5.284652,-2.618048,-9.061468,0.465982
1001.894531,3.505055,-0.658898,-3.461783,-2.153023
1001.898438,-3.129893,1.155561,-5.781241,-5.424539
1001.902344,-0.542661,-0.847088,2.319726,-1.757357
1001.906250,0.673211,5.916774,2.822896,2.555509
1001.910156,4.750626,6.520195,-0.432600,9.461123
1001.914062,5.805793,8.264941,7.054876,10.044838
1001.917969,6.007380,10.765444,4.320731,8.609279
1001.921875,10.379054,7.930230,12.564890,6.427005
1001.925781,3.700401,2.979252,10.058246,10.639982
1001.929688,8.331837,11.097979,5.885109,8.135840
1001.933594,-0.119063,8.454574,9.139852,7.021589
1001.937500,6.363611,2.138560,3.011760,14.187249
1001.941406,4.372165,8.514132,-1.808608,12.369444
1001.945312,-1.462143,11.485500,1.230784,-1.430090
1001.949219,-0.850791,7.439458,-1.113332,0.312246
1001.953125,-3.544442,-6.776203,-1.829670,-1.259180
1001.957031,-3.825412,-17.446682,-5.791301,-0.526381
1001.960938,-0.315286,-8.989137,-1.460654,-6.637002
1001.964844,-6.834970,-9.383788,-15.204935,-5.129717
1001.968750,-4.780931,-16.772730,-10.867203,-8.621598
1001.972656,-12.300834,-7.537391,-1.779274,-11.660475
1001.976562,-4.244283,-6.625003,-6.834838,-8.737960
1001.980469,-13.456054,-2.697194,-8.315763,-16.345452
1001.984375,-6.546942,-5.640256,-11.718682,-9.660875
1001.988281,-8.937567,0.660063,-3.429275,-10.945189
1001.992188,-4.977271,-5.971663,0.168692,-6.101575
1001.996094,-0.622069,-3.574126,-4.247837,0.188804
1002.000000,0.750221,-5.677730,0.136576,-4.227927
1002.003906,2.747816,-4.342408,-0.221681,2.998873
1002.007812,7.314564,5.949139,3.765715,1.985077
1002.011719,1.423702,5.054140,3.858831,12.139450
1002.015625,17.738616,8.553601,10.764031,10.470877
1002.019531,12.040308,6.990276,12.578970,14.892930
1002.023438,4.065324,7.053946,-1.169728,11.750589
1002.027344,10.916552,10.428816,7.978068,12.216156
1002.031250,4.607589,6.239546,3.953272,9.871028
1002.035156,7.827635,5.172663,13.525013,5.918088
1002.039062,-0.390951,6.405138,5.382032,-2.199842
1002.042969,7.756327,-2.353645,2.173165,8.116829
1002.046875,-0.059063,-1.130706,0.234468,9.745289
1002.050781,1.412188,1.914210,3.009956,5.191039
1002.054688,-5.750328,-1.094283,-7.420821,-2.857422
1002.058594,-10.925795,-3.438205,-6.870696,-3.628253
1002.062500,-0.765795,-6.533750,-5.937527,-8.655927
1002.066406,-11.644765,-8.413635,-7.697377,-14.803520
1002.070312,-12.996665,-7.925825,-4.147510,-7.548882
1002.074219,-18.514155,-7.962356,-12.609323,-16.630440
1002.078125,-9.695451,-12.040939,-3.247553,-9.408467
1002.082031,-5.195742,-0.928222,-3.771275,0.121283
1002.085938,-7.573558,-10.147868,-10.131279,-2.690986
1002.089844,-9.398394,-6.386780,-1.404613,-2.537096
1002.093750,-9.298017,-6.898874,-1.060801,-10.093634
1002.097656,-4.907120,-3.040068,0.488248,-1.090306
1002.101562,0.841317,3.361327,1.211390,2.812616
1002.105469,12.175992,0.012031,-3.116762,7.247471
1002.109375,9.962945,3.878344,2.273608,5.400208
1002.113281,6.954039,7.004744,12.234619,11.111026
1002.117188,13.100635,11.955145,12.320593,6.706238
1002.121094,17.587803,3.270817,12.569615,9.881442
1002.125000,6.074851,16.817820,7.419164,13.114852
1002.128906,6.521393,5.324552,16.020143,1.225166
1002.132812,7.725078,10.061218,2.171132,2.018501
1002.136719,15.908599,9.025250,4.260645,8.731797
1002.140625,2.425084,5.138082,7.261927,4.227432
1002.144531,1.268597,2.020132,-0.795363,6.937217
1002.148438,1.406265,1.626495,6.148325,4.166891
1002.152344,-0.459562,-0.669339,6.852877,-2.607226
1002.156250,-5.501652,-6.775075,5.669936,-12.586287
1002.160156,-7.977244,-2.115002,-0.932006,-6.901045
1002.164062,-7.634162,-10.250757,-9.480697,-2.312065
1002.167969,-12.304046,-13.514278,-9.877675,-21.165393
1002.171875,-9.709979,-5.884143,-8.349859,-14.831403
1002.175781,-13.431309,-11.758721,-8.854369,-10.349181
1002.179688,-16.510573,-18.069178,-10.141268,-16.120986
1002.183594,-10.559514,0.998530,-8.011894,-8.988406
1002.187500,-1.481974,-8.996930,-16.073855,-10.484487
1002.191406,-3.529695,0.784371,-9.912313,-4.310030
1002.195312,-5.224055,-0.373643,0.426479,-2.316671
1002.199219,4.892959,4.035276,5.016628,-4.623896
1002.203125,0.264908,-0.748849,-2.866080,-0.587427
1002.207031,2.527527,2.190480,4.646070,4.374724
1002.210938,4.888090,4.837042,-3.790323,1.152287
1002.214844,2.986327,4.461370,10.168428,9.664429
1002.218750,6.924319,14.292851,11.043764,-4.166459
1002.222656,14.834383,6.552538,8.248667,13.431120
1002.226562,15.117248,5.821829,9.017336,14.342376
1002.230469,13.258699,10.691035,13.878845,16.247818
1002.234375,8.055192,10.734190,2.449020,4.972055
1002.238281,5.320823,6.590575,14.597316,7.226434
1002.242188,5.927883,3.605724,9.002511,2.877712
1002.246094,6.076841,-4.928347,4.987340,7.243314
1002.250000,0.533392,3.771753,2.213887,3.425907
1002.253906,2.479386,-5.962867,-4.899150,-5.726722
1002.257812,-6.515971,-6.306251,-6.435575,-7.727091
1002.261719,-6.372640,-5.473701,-2.115605,-2.017716
1002.265625,-10.520283,-8.212622,-6.557248,-14.547297
1002.269531,-11.735210,-8.418629,-10.584649,-7.446184
1002.273438,-8.608686,-11.010340,-5.589670,-12.342465
1002.277344,-3.494966,-10.968751,-17.381639,-11.938659
1002.281250,-12.728671,-8.136895,-8.314846,-9.575249
1002.285156,-10.657186,-7.007800,-9.553386,-6.950615
1002.289062,-2.099197,-13.331579,-2.749013,-6.130677
1002.292969,-12.096604,-9.064257,-6.301518,1.106936
1002.296875,-3.329580,-7.170342,-2.434671,0.117400
1002.300781,-0.469454,0.775641,-6.359364,-1.730881
1002.304688,3.722528,8.440274,3.177971,-5.078875
1002.308594,7.502450,2.957987,7.635375,8.264843
1002.312500,4.490230,7.585615,8.291791,8.740436
1002.316406,8.819620,10.369620,13.900346,6.848229
1002.320312,8.131098,10.008534,14.139943,6.872412
1002.324219,11.193847,11.639233,8.566998,16.117109
1002.328125,8.895241,3.544379,11.589862,8.461432
1002.332031,8.215431,10.368073,8.757404,15.667995
1002.335938,3.586131,18.503167,7.624738,9.743629
1002.339844,10.618737,14.355535,-0.621152,1.193666
1002.343750,9.828765,6.127557,4.605924,9.029237
1002.347656,7.472948,7.293511,6.215072,10.265341
1002.351562,-7.324866,1.417636,-1.721157,-0.434654
1002.355469,-1.611590,1.284477,-7.828721,0.215710
1002.359375,-2.076123,-11.681177,-2.875512,-8.550401
1002.363281,-7.935113,-11.672823,-7.816995,-9.988332
1002.367188,-7.556153,-9.241506,-6.039550,-13.233837
1002.371094,-6.296643,-12.129851,-13.517062,-12.278217
1002.375000,-9.655931,-11.152700,-5.462685,-4.312796
1002.378906,-9.885303,-7.795742,-19.296768,-6.572511
1002.382812,-10.277274,-7.923752,-2.354425,-11.511875
1002.386719,-5.859059,-12.677056,-6.665784,-4.379391
1002.390625,-3.156635,-10.620102,-6.429567,-7.809749
1002.394531,-5.240153,-3.560601,-6.041356,-1.497631
1002.398438,-0.487080,5.480763,-4.132498,1.529323
1002.402344,-2.251828,2.077536,3.993098,2.244154
1002.406250,9.748376,-2.822507,-1.859650,5.087610
1002.410156,8.940520,3.137644,5.206588,12.022184
1002.414062,7.628897,4.583807,12.307982,14.533962
1002.417969,12.919229,5.128600,3.064719,11.730328
1002.421875,7.048261,8.289717,14.637724,6.007224
1002.425781,2.837436,1.889334,12.800492,13.424451
1002.429688,14.455228,13.820237,3.961439,6.236543
1002.433594,9.430808,5.564597,12.340530,4.645406
1002.437500,3.141446,4.162471,5.885595,4.805619
1002.441406,11.191717,10.904860,6.041482,-3.203358
1002.445312,2.617193,2.435443,10.056357,8.069937
1002.449219,1.315811,-2.531313,-0.523293,7.131684
1002.453125,4.627308,2.722590,-6.054677,0.365614
1002.457031,-3.464292,-2.426865,-6.959997,-9.006054
1002.460938,-4.211075,-6.826673,-7.794405,-4.849518
1002.464844,-7.814492,-10.487555,-5.715080,-8.931756
1002.468750,-7.599437,-2.197364,-2.189735,-11.211305
1002.472656,-11.143040,-11.846664,-12.773870,-15.121478
1002.476562,-13.347864,-3.902072,-10.594218,-10.357851
1002.480469,-4.821220,-12.787318,-9.068240,-9.038860
1002.484375,-9.065407,-11.359166,-5.111204,-12.810063
1002.488281,-7.953464,-4.544897,-8.237691,-1.943780
1002.492188,-4.490823,-2.717535,-9.432881,-11.692429
1002.496094,-3.765715,-1.919566,-4.223312,-2.052538
1002.500000,0.276533,-2.284874,-4.594169,-4.680636
1002.503906,2.292966,5.792849,0.319962,1.608008
1002.507812,1.954333,3.319997,12.844554,1.245600
1002.511719,5.274513,3.920839,5.493882,12.619867
1002.515625,5.996883,14.034080,2.608633,6.181981
1002.519531,8.839942,4.182107,11.045003,6.322520
1002.523438,11.362448,1.014105,7.015224,6.909885
1002.527344,7.112551,5.759307,5.020825,5.949649
1002.531250,4.089304,7.121267,7.325979,10.880783
1002.535156,8.697161,13.262484,12.898794,8.727412
1002.539062,5.248942,9.431132,5.057391,8.850540
1002.542969,5.764981,5.244818,-1.865541,6.671325
1002.546875,2.720129,2.664965,7.590795,-3.943686
1002.550781,-4.519843,5.824224,-3.565021,0.830063
1002.554688,4.175868,-5.722344,-6.659874,-8.554375
1002.558594,-7.652903,-12.224279,-10.124026,-8.844459
1002.562500,-1.076455,-8.335352,-5.004014,-9.227363
1002.566406,-10.445915,-5.293791,-6.826736,-5.733593
1002.570312,-11.541503,-9.523657,-12.545130,-7.969096
1002.574219,-9.906491,-19.045452,-14.393392,-6.052885
1002.578125,-4.663352,-16.465601,-7.357843,-11.175056
1002.582031,-9.395612,-7.572397,-4.390403,-9.513233
1002.585938,-4.407391,-13.403313,-12.908180,-4.827207
1002.589844,-8.556913,-4.863392,-5.179059,-2.927782
1002.593750,-0.213002,-5.505132,0.770543,-4.898231
1002.597656,0.892895,0.236145,-3.677404,4.568320
1002.601562,2.303732,4.340356,0.016474,2.011858
1002.605469,-0.201981,-0.242887,0.714596,8.590342
1002.609375,5.795364,4.304247,2.148819,0.974418
1002.613281,9.491113,10.648834,13.397332,3.930826
1002.617188,9.203743,1.561693,10.426520,6.469741
1002.621094,7.651618,11.215479,9.361599,8.289511
1002.625000,11.267593,3.810446,11.725471,13.602291
1002.628906,3.935159,17.564557,11.948772,3.849028
1002.632812,6.016844,6.265959,4.182013,5.385375
1002.636719,9.292881,6.294658,6.662939,11.115613
1002.640625,7.079646,7.797552,3.268344,1.225375
1002.644531,10.959103,1.789838,4.420204,1.900267
1002.648438,1.034962,4.520695,2.753421,2.956434
1002.652344,1.650540,-1.377047,1.909345,-5.293261
1002.656250,-6.588218,-11.777407,-5.785647,-4.707163
1002.660156,-9.365977,-7.830147,-6.177834,-3.442363
1002.664062,-5.118680,-7.422074,-8.831561,-1.251529
1002.667969,-6.805405,-7.714021,-9.789492,-11.459014
1002.671875,-12.592286,-11.191931,-6.282080,-0.969748
1002.675781,-8.173439,-9.330913,-11.207001,-7.222570
1002.679688,-15.556641,-8.289893,-3.789665,-14.519500
1002.683594,-10.161997,-4.775664,-16.590932,-8.821671
1002.687500,-4.184328,-1.880552,-13.483955,-12.173791
1002.691406,-12.391584,-2.507877,-6.598784,-1.072162
1002.695312,-0.639473,-0.760186,3.267144,0.180747
1002.699219,2.914560,-2.445034,-6.693710,-0.893292
1002.703125,0.139978,-1.427298,1.701886,-0.785038
1002.707031,4.242119,2.392218,-0.373524,7.654986
1002.710938,6.066676,6.640603,10.778054,3.251492
1002.714844,13.087548,4.471427,12.597656,4.514326
1002.718750,6.078700,7.742271,3.506128,17.740804
1002.722656,4.783240,11.984587,4.932242,7.735563
1002.726562,6.641638,2.435435,2.670136,3.421986
1002.730469,12.645140,11.317522,11.945130,10.151085
1002.734375,6.210318,7.292937,4.127518,-0.189143
1002.738281,-0.956594,3.871195,2.802447,2.982067
1002.742188,4.483986,4.054961,3.089587,-0.500518
1002.746094,-1.702455,-11.043528,0.692744,7.435060
1002.750000,-1.615079,-2.932970,-2.236294,-0.165392
1002.753906,2.098551,-8.048218,-8.390520,-0.745623
1002.757812,-9.627456,-1.271471,-6.727435,-6.673329
1002.761719,-3.449703,-10.665244,-11.712717,-8.316962
1002.765625,-11.579568,-10.265120,-2.929854,-9.482970
1002.769531,-13.737137,-6.377843,-10.404083,-16.333461
1002.773438,-16.197491,-9.163438,-10.142625,-6.472150
1002.777344,-9.762604,-16.543231,-7.305655,-7.753384
1002.781250,-8.395907,-8.483023,-11.990684,-9.975489
1002.785156,-5.407184,-4.469132,-8.912569,-9.742753
1002.789062,-3.771068,-10.384215,-6.045638,-6.565164
1002.792969,-9.117852,-4.164541,0.428061,-10.920212
1002.796875,-5.002695,-2.886411,-0.634845,-3.979094
1002.800781,1.924829,3.127511,-1.496712,3.348077
1002.804688,-0.589321,5.051784,-0.379276,3.255433
1002.808594,12.847148,10.817782,0.419012,9.018046
1002.812500,7.363338,7.896277,0.801449,-0.256639
1002.816406,4.848882,5.607687,16.418360,11.456937
1002.820312,12.699302,10.738957,2.605506,12.547143
1002.824219,12.337495,16.369751,7.592220,2.750602
1002.828125,14.441288,8.554889,10.601969,9.953667
1002.832031,3.542299,12.619000,8.856473,6.639485
1002.835938,11.417834,10.410916,2.703229,10.409534
1002.839844,7.875113,3.405360,5.657157,1.732908
1002.843750,4.865067,4.082202,4.472233,0.303981
1002.847656,1.427340,-0.502840,1.904361,-1.357725
1002.851562,-5.170787,-6.632866,1.855594,-3.256112
1002.855469,-1.896108,-1.454306,-3.073375,1.669342
1002.859375,-5.335326,6.638675,-3.828219,-5.639794
1002.863281,-6.647282,-4.497304,-10.625667,-9.321540
1002.867188,-13.501780,-10.272475,-11.484095,-7.110061
1002.871094,1.872640,-7.586809,-10.548669,-12.774973
1002.875000,-8.966402,-12.807201,-12.939180,-10.840752
1002.878906,-18.790685,-9.922782,-17.837896,-7.235014
1002.882812,-6.371020,-13.617207,-7.876084,-8.310120
1002.886719,-13.157347,-10.836352,-6.244131,-10.903206
1002.890625,-0.381934,-3.147859,-3.796454,-7.271256
1002.894531,2.040484,-5.947325,-0.179728,-4.914633
1002.898438,0.450277,-3.714902,-2.644528,9.356552
1002.902344,0.965148,-0.380848,6.782071,3.591285
1002.906250,1.846402,0.525058,5.627206,4.246285
1002.910156,-0.450999,5.141660,8.067933,5.749408
1002.914062,10.266385,10.684461,12.972807,10.736331
1002.917969,8.681622,4.608958,6.011910,8.494006
1002.921875,12.590119,13.849522,5.330821,5.903747
1002.925781,11.082065,7.373263,10.977533,14.548214
1002.929688,9.318228,9.665920,3.172003,12.927162
1002.933594,17.253568,8.393491,3.826580,12.640388
1002.937500,8.587387,16.255599,8.383595,5.385128
1002.941406,2.880008,4.826383,-4.489149,11.386129
1002.945312,0.794585,10.569976,0.420808,7.936154
1002.949219,-4.496435,-1.557788,-5.790719,-1.228487
1002.953125,-3.294744,-6.583661,-4.678882,-3.866079
1002.957031,-6.073481,-0.248931,-7.312759,1.725075
1002.960938,-7.127922,-6.385823,-6.747734,-8.210999
1002.964844,-4.086881,-11.217491,-8.926246,-13.200188
1002.968750,-9.712826,-9.514090,-6.076195,-13.316862
1002.972656,-11.762300,-11.368767,-8.964018,-7.213732
1002.976562,-8.619263,-9.823149,-3.137012,-11.149295
1002.980469,-0.570593,-14.484725,-8.856418,-14.052122
1002.984375,-8.610279,-11.115987,-3.050112,-8.389922
1002.988281,-3.986835,-2.888619,-3.723103,-5.200279
1002.992188,-10.417900,0.091398,-3.291103,2.908115
1002.996094,-5.575833,1.333138,-0.671615,3.109681
1003.000000,3.902200,-2.964795,-1.119977,7.895314
1003.003906,2.466812,5.530225,3.337569,-0.290180
1003.007812,1.679789,7.817655,12.374282,2.485962
1003.011719,7.906636,6.873721,8.810193,5.193963
1003.015625,4.623485,8.157945,2.737071,11.049238
1003.019531,12.445563,7.700464,16.493787,7.497176
1003.023438,10.181464,8.503356,1.851200,15.452862
1003.027344,13.309815,17.327660,14.841226,15.265956
1003.031250,16.944193,7.057006,6.515523,3.124647
1003.035156,8.881729,6.937702,10.897756,16.083128
1003.039062,12.502147,6.814854,7.951675,3.828969
1003.042969,10.471260,-0.185914,6.574857,4.380983
1003.046875,4.838084,-2.394416,1.543942,3.199769
1003.050781,-9.789586,1.202742,-0.620429,1.665129
1003.054688,3.671071,-9.680043,-10.434774,-14.049559
1003.058594,-2.239416,-9.925998,-5.386005,-1.967652
1003.062500,-6.718681,-3.887445,-7.183624,-5.635264
1003.066406,-12.301746,-9.134822,-8.573699,-6.082849
1003.070312,-8.401668,-9.954783,-10.318031,-13.035102
1003.074219,-5.151833,-9.493818,-12.891059,-15.958536
1003.078125,-9.810590,-8.574447,-16.986688,-15.567670
1003.082031,-8.606083,-13.397849,-12.493560,-6.921150
1003.085938,1.880591,-8.194817,-1.489050,-13.522134
1003.089844,-4.701130,-1.295472,-3.240347,-4.907211
1003.093750,-2.597916,-5.858861,-6.479491,-0.555351
1003.097656,-1.722745,-7.059452,-2.953992,-4.667695
1003.101562,1.050729,4.416242,0.666248,4.400908
1003.105469,-1.393852,2.685744,6.264152,3.896119
1003.109375,3.667362,6.379582,12.085133,11.784078
1003.113281,5.036253,3.913971,13.136957,9.314850
1003.117188,7.719260,9.786894,8.583431,12.588201
1003.121094,12.736647,-1.604323,15.077662,0.251909
1003.125000,0.603452,11.964723,10.252027,9.905032
1003.128906,8.210757,13.932182,10.404637,10.167118
1003.132812,11.334152,10.907947,10.546662,7.274648
1003.136719,7.469311,5.237824,6.988715,9.647714
1003.140625,-1.649940,2.842218,15.328614,17.765391
1003.144531,0.342537,3.138175,9.375005,0.555674
1003.148438,-0.172219,-7.047628,1.355992,-3.234238
1003.152344,1.902566,3.572468,2.848882,0.031549
1003.156250,-2.094715,-13.437891,0.822950,-0.031158
1003.160156,-11.825103,-4.888524,-11.481020,-9.537427
1003.164062,-10.459068,-7.878149,-12.100073,-10.266469
1003.167969,-8.842940,-12.426166,-13.070825,-0.740927
1003.171875,-8.089998,-5.735065,-3.928366,-9.177075
1003.175781,-7.326902,-16.485175,-15.111974,-13.042956
1003.179688,-8.320052,-9.804461,-3.401581,-12.670663
1003.183594,-1.189079,-7.302535,-5.219848,-9.116947
1003.187500,-8.523224,-6.308992,-3.693695,-2.558016
1003.191406,-6.622489,-4.781961,-6.325479,-8.703713
1003.195312,-3.727395,-3.498716,-1.323211,-8.260255
1003.199219,-6.520460,-1.809406,-2.370802,3.710302
1003.203125,-3.498134,-2.250968,5.008542,7.020047
1003.207031,9.844000,8.207954,4.231071,5.462683
1003.210938,11.464890,10.172373,6.632423,8.071421
1003.214844,7.007278,9.476391,10.712307,4.149455
1003.218750,10.127474,7.981783,6.944861,2.167240
1003.222656,11.706534,8.054243,11.694830,4.400621
1003.226562,15.325008,3.790758,18.160278,3.384928
1003.230469,11.350165,12.291185,10.346414,11.480266
1003.234375,12.107374,8.973375,5.857153,2.411561
1003.238281,5.924309,9.280246,5.832217,6.520396
1003.242188,6.548540,3.119742,5.544072,9.456575
1003.246094,4.336446,-0.738898,7.600826,3.455734
1003.250000,5.039630,-0.117839,-0.657022,4.834153
1003.253906,-3.750359,2.080581,-2.618741,1.271219
1003.257812,-2.705278,-1.889412,-5.230546,-14.556516
1003.261719,0.197391,-5.657892,-12.409890,-2.663773
1003.265625,-13.231393,-0.003359,-11.077389,-4.951308
1003.269531,-13.603095,-13.238746,-6.561178,-5.437724
1003.273438,-7.144189,-11.800747,-10.643498,-9.076235
1003.277344,-9.461063,-12.154890,-5.356304,-9.134802
1003.281250,-11.995932,-7.447134,-6.225909,-8.142970
1003.285156,-11.965397,-2.743990,-14.925406,-10.141185
1003.289062,-0.700980,-8.440342,-11.163287,-5.639835
1003.292969,-4.006698,-8.725730,-8.817940,-8.647179
1003.296875,0.495859,-3.519563,6.415549,6.846494
1003.300781,3.613809,3.851221,-6.708689,1.304338
1003.304688,6.479935,4.381362,6.687332,0.448477
1003.308594,9.160055,1.551125,-0.012042,6.336570
1003.312500,9.643235,11.092288,6.367901,4.946059
1003.316406,11.536633,10.235022,8.132277,8.059001
1003.320312,6.523372,9.685267,3.247861,3.562141
1003.324219,11.163937,12.033283,8.542058,8.239083
1003.328125,14.070942,10.599386,18.567632,8.590813
1003.332031,6.151667,9.474176,5.934118,0.860225
1003.335938,6.428647,-0.056858,4.472104,3.390242
1003.339844,2.324106,10.816674,2.618916,6.954288
1003.343750,0.072113,2.696206,0.009951,2.369627
1003.347656,6.764077,3.117577,-1.931019,-8.882613
1003.351562,-4.820111,0.881119,-1.613434,2.599325
1003.355469,-5.510066,-10.642914,-5.000738,-1.724288
1003.359375,-14.538461,-3.705313,-6.801244,-9.732743
1003.363281,-5.058624,-5.697645,-5.761284,-17.771514
1003.367188,-6.030804,-4.019894,-9.004463,-14.370067
1003.371094,-11.682926,-16.733934,-6.639335,-10.945137
1003.375000,-8.283675,-2.845829,-10.668267,-14.526734
1003.378906,-14.785382,-7.923057,-9.884640,-13.177944
1003.382812,-13.044257,-5.359032,-14.238089,-2.664893
1003.386719,-11.011241,-2.438626,-6.763716,-11.831752
1003.390625,-3.262109,-4.769007,-3.748821,-8.085094
1003.394531,0.197231,-3.788897,-3.833108,1.076887
1003.398438,-3.925228,-3.766931,-3.172310,-0.729046
1003.402344,4.689416,3.078139,7.122935,5.546740
1003.406250,-0.132058,0.678417,4.299013,3.809188
1003.410156,3.344054,9.498106,-1.216960,3.900603
1003.414062,8.138749,4.957267,7.557393,6.949680
1003.417969,6.479103,7.728949,6.586473,5.279775
1003.421875,11.761195,2.541788,13.008758,8.211364
1003.425781,11.131916,11.303864,2.711665,14.163360
1003.429688,12.804031,9.664457,5.279072,13.789252
1003.433594,6.229100,5.839367,6.925039,7.691988
1003.437500,6.602889,15.400556,8.407759,11.170929
1003.441406,-1.111741,3.734999,4.785875,5.367911
1003.445312,2.793669,4.293350,-5.528873,0.818485
1003.449219,2.546941,2.816278,6.045001,2.487130
1003.453125,-4.128062,4.153036,2.032727,-10.558403
1003.457031,-0.494408,1.090144,-5.642147,-4.293544
1003.460938,-9.997270,-8.027297,-4.704792,-6.701730
1003.464844,-7.242993,-4.700580,-8.045162,-8.779228
1003.468750,-2.766410,-11.462159,-11.239702,-11.509116
1003.472656,-16.818628,-17.840867,-9.529415,-12.459006
1003.476562,-11.896433,-9.784484,-3.736058,-3.501179
1003.480469,-8.862099,-9.103028,-6.637549,-7.323658
1003.484375,-9.729592,-3.160910,-14.563166,-6.449942
1003.488281,-2.849471,-13.104384,-6.630346,-4.697003
1003.492188,3.967628,-8.382513,-0.604128,-5.629979
1003.496094,-1.859946,-7.189729,1.553974,-4.538056
1003.500000,0.697198,1.160164,5.870870,0.781432
1003.503906,2.463522,-2.647897,-5.440069,7.645517
1003.507812,4.169820,3.993804,5.467920,4.216038
1003.511719,3.504915,-2.052233,6.934793,7.900591
1003.515625,2.864133,7.745195,6.776152,5.412309
1003.519531,6.265320,11.204129,10.781923,10.931407
1003.523438,10.791988,14.218824,11.314698,10.458545
1003.527344,9.945310,6.123585,10.858877,13.406019
1003.531250,10.430920,12.335506,6.260309,4.471573
1003.535156,3.346436,11.514862,7.958356,8.255704
1003.539062,3.437110,2.185761,11.705698,8.231037
1003.542969,5.802895,5.644916,8.953971,-3.826281
1003.546875,1.481853,5.581124,-2.303488,-5.458528
1003.550781,-1.102946,-4.280577,-1.503921,1.440831
1003.554688,3.406236,-3.915281,-0.600565,2.168289
1003.558594,-7.728591,-9.902401,-1.573270,-2.359633
1003.562500,-3.858953,-8.010282,-7.275501,-9.705769
1003.566406,-14.008962,-8.332970,-9.726763,-14.136426
1003.570312,-10.868412,-11.037512,-11.357651,-7.481836
1003.574219,-10.050046,-10.394346,-10.192180,-12.153943
1003.578125,-8.581928,-12.097915,-10.156697,-4.669613
1003.582031,-2.201351,-16.734352,-11.631738,-5.589335
1003.585938,-15.488863,-10.000603,-2.365903,-13.774008
1003.589844,-4.127003,-6.803606,-6.006129,-8.047758
1003.593750,-1.416365,-5.117468,-5.492350,1.010909
1003.597656,-1.015935,0.390207,-0.224435,0.045071
1003.601562,3.324236,7.081353,-4.734825,2.804331
1003.605469,0.190203,6.775029,7.861230,11.178690
1003.609375,4.085110,3.677608,-1.454203,8.839288
1003.613281,3.868913,5.301425,6.793297,15.719853
1003.617188,20.185193,8.685040,6.728698,6.592394
1003.621094,12.397664,12.784349,6.031917,3.028023
1003.625000,9.421388,12.423379,5.388792,9.942835
1003.628906,2.872362,12.566076,6.500038,19.604257
1003.632812,7.021083,2.114907,14.354213,12.938277
1003.636719,8.854814,9.373958,6.368084,7.921969
1003.640625,8.177705,7.194599,1.981783,10.195304
1003.644531,3.822917,4.753292,3.630741,0.551793
1003.648438,1.927391,6.145605,0.161996,2.086529
1003.652344,-1.111919,4.625532,4.449322,-3.468049
1003.656250,-5.599674,1.047231,-0.784269,-7.379912
1003.660156,-1.580068,-7.393366,-7.395765,-8.153558
1003.664062,-10.466911,0.713425,-6.425063,-9.327819
1003.667969,-5.681532,-7.373564,-6.242208,-10.075201
1003.671875,-11.095940,-13.656287,-1.761830,-7.250761
1003.675781,-5.830882,-11.012227,-13.071503,-6.841952
1003.679688,-4.831466,-7.666629,-16.957708,-8.289373
1003.683594,-9.658050,-6.251255,-7.508399,-10.161715
1003.687500,-1.219809,-8.812538,1.423549,-8.322626
1003.691406,-0.206232,-3.230789,-7.840170,-4.328466
1003.695312,3.875811,-0.798025,-2.399434,-0.325008
1003.699219,0.265026,-4.178782,-1.070436,-0.398633
1003.703125,-0.368108,4.607889,-2.022002,4.150873
1003.707031,4.851984,0.649407,1.676203,-0.886107
1003.710938,4.930150,2.527078,7.658810,7.583207
1003.714844,15.029919,1.972826,1.934990,8.670882
1003.718750,6.372608,8.223552,12.674693,8.828967
1003.722656,13.484842,7.105189,15.263860,6.858327
1003.726562,3.173584,14.123637,13.415552,5.351112
1003.730469,5.948371,15.288286,9.624427,4.638982
1003.734375,7.374332,14.179317,5.778875,9.202234
1003.738281,-0.877392,5.147382,17.155919,4.469052
1003.742188,2.700316,-2.918587,10.456959,10.523115
1003.746094,-2.890005,-0.564040,3.280417,1.080357
1003.750000,3.655777,5.993303,5.001128,0.004877
1003.753906,-1.751269,-7.214337,-2.880478,0.750575
1003.757812,-4.950377,-15.436831,-1.027601,-2.122610
1003.761719,-6.378389,-5.222101,-4.634231,-4.356668
1003.765625,-8.256991,-6.758295,-11.044991,-9.722767
1003.769531,-8.539058,-2.840076,-14.494737,-13.549284
1003.773438,-13.053453,-3.270757,-10.929316,-9.411592
1003.777344,-13.327825,-2.498118,-8.200771,-3.377139
1003.781250,-5.928980,-7.502056,-10.097699,-7.872450
1003.785156,-3.350904,-9.067564,-10.886557,0.533058
1003.789062,-6.388027,-7.216077,-12.039616,-3.947412
1003.792969,1.110206,-3.139511,-0.133867,-3.627545
1003.796875,-1.884020,-7.518744,-6.285393,1.358065
1003.800781,0.506350,2.012254,-1.167908,11.256861
1003.804688,2.319227,-2.211221,4.822335,3.481119
1003.808594,4.555201,8.331911,6.868721,11.363968
1003.812500,11.438514,10.109095,15.486564,8.848971
1003.816406,10.400662,7.126386,8.511962,1.015748
1003.820312,9.324967,12.036340,9.386497,7.635467
1003.824219,6.054808,8.409154,10.379263,13.609689
1003.828125,8.175718,7.483205,20.736451,11.129750
1003.832031,6.079587,15.465641,10.304217,11.904344
1003.835938,7.917145,8.614088,13.128852,7.602686
1003.839844,5.850957,8.220199,-7.108621,15.010681
1003.843750,7.311975,1.840458,7.515969,-1.687660
1003.847656,-0.321066,2.321793,2.928777,4.126822
1003.851562,0.586640,-2.730951,-5.134421,-1.282226
1003.855469,-13.363357,-5.915380,-6.043598,2.650817
1003.859375,-6.732186,-1.218522,-12.463327,-2.736238
1003.863281,-13.787256,-1.496079,-5.456882,-7.069908
1003.867188,-3.393269,-4.780948,-13.634069,-13.975651
1003.871094,-13.805438,-12.159310,-8.999796,-18.120123
1003.875000,-18.917327,-13.966412,-3.787564,-9.916812
1003.878906,-13.825984,-5.298472,-11.315526,-12.255211
1003.882812,-10.829213,-5.828014,-7.731175,-5.125775
1003.886719,-4.020024,-6.266962,-8.457419,-5.859979
1003.890625,-3.053864,-10.093410,-4.822997,-3.150167
1003.894531,0.888152,-8.525415,2.676726,3.432650
1003.898438,1.568471,-6.713559,-1.728799,-2.721484
1003.902344,1.089871,-2.105890,-0.228192,-1.900713
1003.906250,1.849313,3.854928,3.441858,4.102008
1003.910156,4.230279,4.669813,6.995502,6.760188
1003.914062,9.698766,7.924876,5.336695,2.754783
1003.917969,1.273001,8.535173,7.576005,8.148205
1003.921875,2.462955,4.294612,12.835235,6.527852
1003.925781,8.746407,7.811515,13.368381,7.503809
1003.929688,13.440465,11.517013,12.424091,14.193560
1003.933594,5.220768,7.519519,2.616471,12.321638
1003.937500,3.907215,6.309750,7.196795,-1.563220
1003.941406,7.082529,10.977437,-4.628515,12.940868
1003.945312,1.711745,-2.259414,2.456730,-0.629633
1003.949219,-0.503951,2.230292,3.931995,-4.972966
1003.953125,-3.789478,-4.766442,-6.686077,-0.123779
1003.957031,0.759412,0.950734,-2.391915,-2.995465
1003.960938,-13.270756,-6.214366,-1.708564,-7.565563
1003.964844,-7.042480,-7.794345,-6.620827,-8.276547
1003.968750,-12.533192,-16.709085,-7.775838,-6.404246
1003.972656,-7.360522,-11.237593,-3.476016,-11.316946
1003.976562,-9.151731,-16.798653,-6.019740,-6.022410
1003.980469,-7.059864,-5.644730,-8.314336,-2.271588
1003.984375,-6.376401,-10.259642,-7.413387,-8.396413
1003.988281,-1.619687,-9.784948,-12.386729,-6.083129
1003.992188,-9.564162,-6.608813,-5.319384,-12.362521
1003.996094,-5.724223,-2.340680,-7.346982,-0.660101
1004.000000,-7.379400,-5.493578,2.526355,-3.780945
1004.003906,5.662887,0.382449,8.761222,8.496449
1004.007812,6.334548,2.908432,0.388551,4.248192
1004.011719,10.392251,11.780726,1.403590,9.807434
1004.015625,0.322163,13.533084,9.006260,10.190094
1004.019531,16.343160,11.754314,7.469438,4.430190
1004.023438,5.585833,11.522106,7.381680,4.307757
1004.027344,9.437563,4.728809,15.483434,5.841062
1004.031250,8.611643,10.291311,8.922851,12.251390
1004.035156,5.216559,1.316578,7.525428,9.734818
1004.039062,7.413908,6.616239,7.191966,5.325460
1004.042969,2.612999,3.612720,3.632147,3.056312
1004.046875,3.184220,0.872883,-1.000481,2.049245
1004.050781,-4.075787,0.874878,-1.495272,-3.278278
1004.054688,-4.955941,-6.870451,-3.009710,-7.470608
1004.058594,-6.278576,-5.089789,-10.313527,-3.318113
1004.062500,-5.988751,-6.812046,-7.528050,-7.186725
1004.066406,-3.366342,-5.717944,-8.560380,-8.446786
1004.070312,-12.813243,-4.608159,-6.623267,-10.858505
1004.074219,-4.660510,-14.703093,-16.296211,-5.839478
1004.078125,-5.256629,-16.120816,-13.122722,-11.769360
1004.082031,-5.605863,-3.943709,-14.066544,-13.203361
1004.085938,-10.839616,-4.919803,-6.861584,-13.608364
1004.089844,-2.456693,-1.398615,-5.691849,-1.879775
1004.093750,-7.608832,-2.348820,-7.193001,-1.804998
1004.097656,3.788249,2.191088,-4.768856,1.881589
1004.101562,3.439174,4.504856,-0.686042,-2.208029
1004.105469,5.533508,-0.046037,0.809193,5.742469
1004.109375,0.205790,1.577623,6.345876,9.929632
1004.113281,2.671256,9.162872,3.607051,6.949881
1004.117188,7.568225,8.969241,4.846941,8.322347
1004.121094,6.465189,8.933101,9.463783,11.333387
1004.125000,16.055949,12.363524,8.789351,9.705241
1004.128906,6.105855,12.659800,8.282480,6.820050
1004.132812,8.112488,10.472406,12.153656,4.365348
1004.136719,9.492834,7.965342,-0.352350,4.339894
1004.140625,11.136232,0.635190,10.619551,2.413224
1004.144531,0.940294,10.240421,8.332419,9.734460
1004.148438,8.363184,-5.693086,3.095470,5.706287
1004.152344,1.362343,-3.740799,-1.406751,-6.263306
1004.156250,-1.175571,-3.078131,1.331403,-0.380907
1004.160156,-3.127029,-1.538932,-5.937904,0.088119
1004.164062,-5.287033,-7.201436,-11.352773,-9.089301
1004.167969,-15.459638,-11.157543,-12.316237,-11.405712
1004.171875,-8.043324,-8.031939,-12.369820,-14.692507
1004.175781,-6.322691,-7.729369,-14.201130,-9.006950
1004.179688,-7.496103,-8.461698,-8.683279,-10.293491
1004.183594,-3.154568,-6.912071,-7.240862,-6.373894
1004.187500,-6.138318,-1.824670,-8.782780,-12.233929
1004.191406,-6.187832,-10.838551,-9.680093,-6.277602
1004.195312,-4.988209,-8.735323,0.977179,-2.706945
1004.199219,2.183681,-2.140002,-2.051974,0.265760
1004.203125,8.178454,-2.834703,-2.895468,9.331343
1004.207031,6.727390,4.739768,-4.540282,4.097650
1004.210938,9.287751,3.134183,9.058047,4.836672
1004.214844,4.029786,8.536839,14.028707,14.538218
1004.218750,7.071151,10.602347,11.174967,6.237900
1004.222656,17.397305,14.413620,10.980947,5.978984
1004.226562,10.081704,14.439497,8.283616,13.529406
1004.230469,7.074724,10.483090,4.142920,10.370542
1004.234375,17.657737,-1.461351,3.210747,11.565158
1004.238281,11.895374,8.694673,6.556370,4.041454
1004.242188,5.745915,5.191433,6.851521,5.678086
1004.246094,0.533302,8.323642,5.106711,10.307540
1004.250000,2.256360,0.555139,-0.620531,-4.214230
1004.253906,-3.478325,3.166010,-8.050805,-2.154266
1004.257812,-0.990351,-1.358486,-0.767219,-3.162179
1004.261719,-2.559468,-5.324700,-15.154612,-8.606524
1004.265625,-10.920747,-2.711506,-7.173369,-3.872851
1004.269531,-14.164372,-6.343709,-6.259109,-8.663357
1004.273438,-9.889530,-14.884265,-5.927563,-13.577995
1004.277344,-13.119606,-14.110485,-10.003176,-9.569738
1004.281250,-16.300831,-9.806118,-2.615920,-10.408496
1004.285156,-7.633291,-4.839402,-5.720979,-9.885480
1004.289062,-1.078036,-6.439622,-9.182333,-6.165327
1004.292969,4.730015,-6.685818,-8.329818,-3.692875
1004.296875,-0.406343,-3.098189,-3.063595,3.359710
1004.300781,-5.421426,-0.194480,-4.856479,2.221063
1004.304688,-6.816728,-0.277524,2.758051,0.032561
1004.308594,5.583342,8.028967,5.274075,-5.391194
1004.312500,8.925821,6.214360,2.289097,6.623318
1004.316406,10.091663,9.303125,11.414376,7.450928
1004.320312,13.455274,13.398124,6.017007,6.744622
1004.324219,10.863016,13.379593,15.181001,8.803422
1004.328125,5.224913,6.825135,10.153182,14.387662
1004.332031,6.635896,13.196164,8.847314,11.144528
1004.335938,8.291233,5.535238,10.449910,6.832096
1004.339844,8.520833,4.075231,6.983473,10.868741
1004.343750,6.215154,16.646561,4.873011,4.860265
1004.347656,9.691262,-0.576845,7.088360,-3.765048
1004.351562,1.342358,-3.964529,-5.270736,4.451945
1004.355469,0.115714,-3.398997,-12.314244,-0.353009
1004.359375,-1.573534,-4.181591,-6.701225,-3.070309
1004.363281,-14.453672,-2.866229,-12.521585,-6.227089
1004.367188,-17.366784,-6.642076,-9.287450,-6.336247
1004.371094,-6.826952,-5.937216,-14.945240,-4.088882
1004.375000,-10.762956,-12.803261,-6.243448,-14.305335
1004.378906,-15.072908,-15.301980,-8.385704,-5.586866
1004.382812,-5.599439,-2.411938,-4.210559,-0.548576
1004.386719,-3.409402,-8.969973,-11.061339,-13.310573
1004.390625,-7.855630,-5.537188,-7.399035,-6.173162
1004.394531,2.415402,-3.484879,-4.545238,-6.531222
1004.398438,5.128784,-3.395342,-9.138700,-0.502336
1004.402344,6.392141,2.841590,-0.960880,-4.136394
1004.406250,4.864984,-1.956994,-2.838768,1.217756
1004.410156,4.073386,3.408917,1.773193,10.291012
1004.414062,8.441225,9.463082,14.607116,8.692624
1004.417969,13.628905,7.150717,5.885459,10.837461
1004.421875,8.323164,8.442050,11.116055,9.604824
1004.425781,14.531529,13.901594,20.794370,6.158836
1004.429688,4.939656,11.883693,14.254668,2.245065
1004.433594,7.277396,4.417181,2.986354,3.539286
1004.437500,10.731675,3.667560,5.952263,11.011456
1004.441406,1.782561,0.408123,1.455235,0.857480
1004.445312,-6.161919,8.098985,2.573528,1.571311
1004.449219,-4.047908,6.090376,1.080983,2.966149
1004.453125,-1.203375,2.080739,-7.645833,4.513997
1004.457031,-4.619498,-3.745159,5.353253,2.133335
1004.460938,-12.823627,-6.465365,-9.451732,-9.562023
1004.464844,-4.801032,-14.952390,-3.109169,-12.995919
1004.468750,-13.743467,-9.744686,-7.245581,-10.406983
1004.472656,-10.273695,-7.778961,-13.399986,-9.786763
1004.476562,-14.152418,-14.296086,-7.880956,-15.164166
1004.480469,-14.141714,-8.705180,-11.474850,-11.192736
1004.484375,-6.254451,-3.879079,-10.830161,-15.620895
1004.488281,-1.425527,-6.968093,-8.765512,-9.118088
1004.492188,-5.871967,3.757552,-3.596214,-7.384544
1004.496094,3.404717,0.465158,-2.362049,-3.201824
1004.500000,-2.344614,-7.188511,-9.078669,-3.167018
1004.503906,2.163506,3.940551,2.559584,1.480205
1004.507812,7.344410,9.784764,5.543013,6.768178
1004.511719,5.407287,1.336273,7.180509,7.097699
1004.515625,5.485010,8.809451,3.840975,5.274574
1004.519531,4.755954,12.522203,10.050815,15.435312
1004.523438,12.345140,8.990756,9.479530,9.659703
1004.527344,16.114193,12.267454,9.477282,12.410176
1004.531250,14.282621,12.380727,10.793859,14.172645
1004.535156,-0.172434,8.262624,9.551042,6.674971
1004.539062,-0.156727,6.713028,-3.182156,2.074893
1004.542969,6.943488,3.767733,-0.296878,1.840453
1004.546875,-2.726976,-2.072324,3.070546,7.616134
1004.550781,-3.119469,-1.448153,-0.809271,1.880822
1004.554688,-8.826602,-6.183617,-5.555414,-8.069121
1004.558594,-6.221136,-2.557233,-8.561534,-9.673943
1004.562500,-12.588391,-1.532709,-3.028795,-8.655741
1004.566406,-7.235626,-8.206217,-7.774191,-8.627180
1004.570312,-9.558270,-4.960025,-5.459655,-8.901564
1004.574219,-5.116440,-4.688730,-13.001971,-3.105834
1004.578125,-10.246830,-6.269147,-6.998738,-5.902336
1004.582031,-18.458683,-12.524441,-12.222854,-10.293637
1004.585938,-3.883257,-3.933449,-10.542575,-14.803267
1004.589844,-3.856667,-10.871454,-6.493087,-1.598263
1004.593750,-1.470983,-5.282155,-4.550084,-4.657568
1004.597656,-2.860084,3.313248,0.374336,-0.204097
1004.601562,4.938688,-6.229736,2.395998,-8.577536
1004.605469,2.083372,-2.986481,8.211839,4.906273
1004.609375,8.853569,9.899025,7.203070,10.241237
1004.613281,4.702987,1.837493,8.924567,5.350081
1004.617188,3.366028,9.587061,19.160596,9.588603
1004.621094,5.639204,10.140809,14.446220,2.455633
1004.625000,11.001572,9.690642,7.742333,5.465367
1004.628906,10.768108,9.246024,11.304273,4.528570
1004.632812,9.838338,11.001678,4.323640,7.148897
1004.636719,9.171040,5.901973,10.013672,14.106572
1004.640625,-1.805272,3.162816,5.932690,5.740539
1004.644531,12.329475,1.864903,15.472055,-2.854454
1004.648438,3.651868,-0.757933,-5.360485,0.829520
1004.652344,-3.131341,2.337389,-2.754972,0.511436
1004.656250,-7.802616,-9.942175,-7.369590,2.905080
1004.660156,-1.963983,-2.707846,-3.522756,-5.785845
1004.664062,-6.848751,-7.294102,-11.703916,-14.379569
1004.667969,-12.346249,-10.482891,-9.280618,-3.896788
1004.671875,-13.249165,-6.992961,-10.960301,-2.607410
1004.675781,-8.728034,-14.469509,-10.217997,-6.847819
1004.679688,-5.184328,-7.792695,-9.577245,-11.721244
1004.683594,-6.946150,-9.126280,-3.398455,-12.222852
1004.687500,-9.887725,-10.712335,-9.876820,-9.063135
1004.691406,-1.946706,-6.290944,-5.788989,-2.065999
1004.695312,-1.929196,2.574518,-0.618846,-0.091619
1004.699219,-5.310914,-6.892084,-4.479403,0.989359
1004.703125,4.769198,4.202494,4.506440,1.698310
1004.707031,3.160739,7.825497,8.170388,4.807071
1004.710938,3.781366,7.675792,8.925252,1.409539
1004.714844,3.998162,-0.053487,10.739872,6.100617
1004.718750,15.235843,14.043286,0.441523,8.949289
1004.722656,11.377419,7.373433,14.095748,8.479562
1004.726562,13.534703,13.932541,6.254051,10.730857
1004.730469,8.939820,-0.039642,15.456189,7.647497
1004.734375,14.914341,6.751750,5.262701,8.484691
1004.738281,8.408383,13.298264,2.634962,10.534943
1004.742188,0.796420,2.637013,11.569732,8.786428
1004.746094,-8.235679,5.933288,3.441269,6.577363
1004.750000,2.391327,6.500489,-8.585994,6.683259
1004.753906,-0.286420,-1.928825,3.038562,-0.964508
1004.757812,-2.337671,-8.143268,-6.704078,-3.169298
1004.761719,-9.028531,-5.542262,-4.747130,-11.923361
1004.765625,0.865412,-0.755011,-8.796477,-12.875001
1004.769531,-4.882451,-15.185221,-3.689205,-5.250698
1004.773438,-7.391258,-4.249829,-9.657634,-9.165682
1004.777344,-12.190108,-10.078395,-5.574499,-7.451255
1004.781250,-6.001203,-1.870495,-6.257512,-10.943800
1004.785156,-4.215999,-14.592809,-10.894875,-3.822195
1004.789062,-9.382914,-6.190812,-4.540615,-7.597178
1004.792969,2.897624,-10.792778,-6.690503,0.647184
1004.796875,-4.139938,-6.655922,1.977864,-0.707474
1004.800781,1.034079,4.059110,9.227473,6.288252
1004.804688,-1.680526,0.240507,4.542018,8.313595
1004.808594,4.251418,15.480856,4.339407,10.410282
1004.812500,2.383135,4.154009,7.465752,5.682483
1004.816406,-1.818030,4.303214,10.290190,5.700868
1004.820312,12.398904,9.589624,4.998463,11.673386
1004.824219,10.300671,15.844508,11.110835,11.480872
1004.828125,15.460179,13.433991,5.407020,10.596135
1004.832031,3.537409,9.878487,9.231375,0.937859
1004.835938,5.124703,5.609550,8.346346,4.330279
1004.839844,0.090781,5.468520,-0.604652,13.375409
1004.843750,2.823648,1.512096,4.697074,-0.371285
1004.847656,0.382985,-3.084881,3.514486,0.983742
1004.851562,-6.348961,-4.765662,-0.316583,1.380917
1004.855469,1.013430,1.057259,-1.525578,-8.852569
1004.859375,-12.959155,-8.076617,-3.259539,-0.210867
1004.863281,-7.834662,-7.654528,-14.929993,-6.725503
1004.867188,-7.461150,-9.744700,-4.742032,-10.624539
1004.871094,-9.454676,-9.367371,-7.194780,-6.309885
1004.875000,-2.830903,-4.087433,-11.261418,-3.131997
1004.878906,-6.401185,-11.898099,-10.854510,-10.318211
1004.882812,-6.492095,-8.998782,-4.820858,-8.195663
1004.886719,1.488191,-5.841056,-15.520826,-9.092854
1004.890625,-10.509981,-4.789004,-4.988949,-5.284164
1004.894531,-3.383694,-8.212890,-6.190556,-7.274067
1004.898438,1.631338,0.917487,-2.637874,0.185828
1004.902344,1.484000,-1.219607,4.705755,-0.189583
1004.906250,5.132751,6.475494,2.302627,5.045297
1004.910156,12.975030,5.465187,4.294523,5.323600
1004.914062,10.507487,11.531090,7.190462,-2.364449
1004.917969,9.648370,9.353407,7.969804,3.879619
1004.921875,5.838699,12.430834,13.166973,6.321819
1004.925781,6.943049,9.399410,9.274035,14.029052
1004.929688,14.138726,8.807855,12.860513,13.450861
1004.933594,1.205035,8.717229,7.371123,13.458277
1004.937500,1.660264,11.216576,8.307314,4.628437
1004.941406,1.053456,10.915546,5.056355,6.852264
1004.945312,6.575811,4.262317,5.704446,1.274578
1004.949219,1.956394,-6.068132,0.562312,-4.307140
1004.953125,-9.346027,0.687354,0.884781,-7.248354
1004.957031,-4.884012,3.013710,-1.982140,5.367541
1004.960938,-11.420378,-0.757540,-2.866882,-9.943105
1004.964844,-8.552377,-4.244652,-2.754345,-4.315215
1004.968750,-8.058011,-11.097880,-12.705052,-12.821906
1004.972656,-9.587575,-7.299974,-9.707088,-17.442993
1004.976562,-16.182721,-5.042344,-8.081109,-15.350843
1004.980469,-10.932910,-5.221960,-16.444660,-10.521887
1004.984375,-5.016844,-1.158394,-8.598783,-9.260804
1004.988281,-4.269190,-8.212006,1.305705,-2.907286
1004.992188,-6.816930,-2.938919,-4.004073,-5.718891
1004.996094,-4.439560,-9.289045,-9.106080,0.061080
1005.000000,-1.171874,8.563812,3.718958,0.408667
1005.003906,-2.564302,5.786026,-1.075140,-1.783223
1005.007812,-0.286219,6.896048,1.687667,11.277935
1005.011719,8.485487,9.937533,13.382434,-2.879473
1005.015625,8.685593,-0.015305,15.756724,8.429500
1005.019531,10.504080,15.667441,4.485774,9.258683
1005.023438,14.656704,12.870631,5.895907,9.488964
1005.027344,8.062657,15.476844,8.664912,9.958486
1005.031250,14.483587,4.028279,8.558245,3.455414
1005.035156,4.579343,7.145615,4.263018,6.785813
1005.039062,7.588757,5.021387,2.626821,14.368167
1005.042969,4.027578,2.463838,12.743488,6.275897
1005.046875,-2.311668,-2.730525,7.378887,-8.308735
1005.050781,1.051687,5.100411,-4.672896,10.940322
1005.054688,-5.238626,3.047868,0.315798,-2.896815
1005.058594,-6.452696,-11.453627,-2.818700,-10.775072
1005.062500,-10.231478,-7.755674,-5.172519,-6.376765
1005.066406,-12.937119,-7.009945,-8.474970,-11.171543
1005.070312,-10.826132,-7.844572,-5.443352,-19.868573
1005.074219,-6.346476,-12.387802,-8.794870,-17.224032
1005.078125,-12.710196,-9.646158,-8.520105,-3.321954
1005.082031,-9.838045,-11.734131,-8.555069,-14.562562
1005.085938,-8.131237,-11.715721,-8.688332,0.060576
1005.089844,-7.552708,-4.639175,-9.669411,-9.613078
1005.093750,-1.529058,-9.022678,-2.539368,-1.931655
1005.097656,-9.427858,0.663655,-9.677608,-3.462222
1005.101562,8.944699,-0.899868,-4.119848,5.992121
1005.105469,-1.605886,-1.662888,1.695671,12.929083
1005.109375,9.473357,1.080678,6.799306,11.807391
1005.113281,14.088915,10.393935,7.556418,2.253124
1005.117188,12.365969,6.957203,12.384542,6.957475
1005.121094,14.625710,6.922399,12.083689,12.010265
1005.125000,13.253756,13.069492,9.505905,10.419190
1005.128906,9.750766,12.936317,8.712016,14.872927
1005.132812,6.247318,10.542135,10.041540,4.641606
1005.136719,4.423726,6.235189,4.930961,15.675367
1005.140625,5.313744,13.223874,5.170174,8.998756
1005.144531,-0.045583,3.331327,4.682933,2.601105
1005.148438,3.504873,8.490554,5.368499,1.486538
1005.152344,-5.843377,-4.847197,2.255395,-1.094497
1005.156250,1.724030,-5.748579,-4.941513,0.954043
1005.160156,-16.380617,-6.345164,-7.581815,-6.346840
1005.164062,-8.905783,-7.816024,-11.693624,-0.944894
1005.167969,-13.957995,-10.545084,-6.029050,-5.544177
1005.171875,-4.311999,-5.903248,-2.562559,-10.959135
1005.175781,-10.198991,-7.132007,-16.700282,-6.002179
1005.179688,-11.579147,-12.844956,-7.269501,-12.067108
1005.183594,-12.266728,-12.288498,-14.478389,-20.469774
1005.187500,-0.168271,-4.843901,-1.603308,-4.449631
1005.191406,-3.673467,-3.059467,-3.354094,-5.561965
1005.195312,-9.639458,-3.287292,0.644889,-6.583306
1005.199219,-6.839849,-2.641932,0.650110,0.800465
1005.203125,-3.837693,-2.415956,4.444456,0.158964
1005.207031,8.002886,-4.107806,6.310943,9.249323
1005.210938,0.430503,12.418982,5.412767,5.191209
1005.214844,7.178254,11.027798,5.475882,-0.415599
1005.218750,14.453511,10.584303,15.300557,4.382962
1005.222656,9.581056,13.032204,6.571420,7.535984
1005.226562,6.070447,13.895184,12.116559,8.383509
1005.230469,11.082917,11.422451,7.583255,4.246252
1005.234375,11.720069,16.871135,4.963041,5.435767
1005.238281,3.898941,8.090090,14.188988,4.529226
1005.242188,8.320143,3.156923,3.706365,-0.380677
1005.246094,7.253224,9.113298,10.337930,2.584504
1005.250000,-2.336873,-0.448608,0.002974,1.738159
1005.253906,-7.850129,-3.644848,-0.630665,-4.197107
1005.257812,-9.191992,-1.668218,-0.628891,-2.935995
1005.261719,-0.666533,-4.351505,-8.372069,-2.634740
1005.265625,-11.445385,-12.032626,-13.232550,-5.158503
1005.269531,-8.980107,-12.381371,-6.607956,-11.597496
1005.273438,-12.085737,-7.900546,-6.681900,-12.185910
1005.277344,-21.378484,-17.859743,-6.428240,-2.801051
1005.281250,-0.339481,-9.786209,-7.225340,-7.846591
1005.285156,-13.942116,-6.904713,-10.161362,-7.077402
1005.289062,-4.578402,-10.194162,-18.733096,-10.007311
1005.292969,-5.306253,-7.355334,-0.751271,-11.060315
1005.296875,-3.445262,-1.765655,2.507923,-1.902051
1005.300781,2.745878,-1.829974,-2.518169,3.418633
1005.304688,3.681986,2.652201,2.334211,8.690800
1005.308594,9.140417,0.814705,13.398597,3.680107
1005.312500,11.036265,8.118192,9.540537,6.056043
1005.316406,9.624489,6.296741,7.370767,6.551029
1005.320312,7.322117,8.647724,1.107039,9.976825
1005.324219,13.020217,6.481716,14.917833,10.282029
1005.328125,12.381849,10.796825,8.502747,0.743619
1005.332031,10.723209,8.166585,8.253944,13.128825
1005.335938,6.513385,7.902621,9.079561,9.932146
1005.339844,8.380216,5.199006,5.757378,9.045309
1005.343750,2.040812,5.649964,11.464678,3.219384
1005.347656,-1.220827,3.194126,8.607846,-2.658860
1005.351562,-0.892624,0.786095,-7.039562,-1.356376
1005.355469,-7.951724,0.980907,-2.425790,-5.809258
1005.359375,-7.730990,-13.853800,-4.979141,-4.035066
1005.363281,-4.405474,-2.369253,-7.630742,-9.327216
1005.367188,-4.698338,-17.299069,-16.085574,-13.248621
1005.371094,-11.910089,-10.396960,-8.178606,-16.697157
1005.375000,-11.840118,-3.268221,-6.674012,-7.640450
1005.378906,-12.811723,-9.009561,-8.011559,-16.607687
1005.382812,-8.303471,-8.713356,-9.283286,-1.791257
1005.386719,-6.198119,-5.181133,-3.123025,-16.162763
1005.390625,-9.591916,-9.205337,-9.187555,-2.593876
1005.394531,-3.270338,-9.494252,-6.082818,-7.649767
1005.398438,-13.920993,2.567212,0.409368,-4.165493
1005.402344,-0.486063,-0.354453,-3.631589,6.466126
1005.406250,5.519845,8.896789,1.479362,6.968793
1005.410156,0.090006,4.211011,11.913067,6.267522
1005.414062,16.364169,6.502954,4.482440,6.986959
1005.417969,6.007903,6.700009,8.558611,11.966955
1005.421875,6.614051,4.998119,6.704581,5.798852
1005.425781,10.929285,13.874594,6.867467,15.958269
1005.429688,8.715852,12.166418,11.147660,10.023839
1005.433594,6.982058,5.331489,3.525115,8.051375
1005.437500,10.801519,4.665598,-1.698228,6.334125
1005.441406,8.925668,10.941626,3.755423,5.685840
1005.445312,5.694708,10.252695,4.653540,0.223628
1005.449219,5.235105,0.125497,0.209105,4.585960
1005.453125,1.320222,-4.840869,-1.826097,-1.373107
1005.457031,-0.103585,-9.634486,-5.359103,4.293289
1005.460938,-2.810817,-10.945532,-2.822073,-6.370879
1005.464844,-9.759551,-2.108903,-13.643022,-10.959946
1005.468750,-8.346248,-5.809788,-4.154444,-6.119903
1005.472656,-12.239979,-19.362626,-4.541703,-10.281372
1005.476562,-14.211630,-5.716941,-8.753123,-11.768928
1005.480469,-16.519229,-8.590690,-10.813046,-4.035022
1005.484375,-11.660428,-15.131770,-6.152477,-2.049975
1005.488281,-8.218099,-5.622206,-9.533147,-3.579385
1005.492188,-4.213364,-2.380012,-5.017212,-12.978782
1005.496094,-4.032166,-4.658341,1.159669,2.457959
1005.500000,8.122744,-0.214629,4.473810,-2.147527
1005.503906,-0.673781,-2.109399,3.174989,-1.286464
1005.507812,2.299391,6.494263,9.233516,7.018516
1005.511719,4.920046,5.286797,12.955238,6.308770
1005.515625,18.160213,9.953431,12.731374,12.767489
1005.519531,0.981956,10.012834,6.748825,17.566372
1005.523438,10.477375,9.461313,10.558206,14.630965
1005.527344,9.822481,15.314068,-0.857005,9.591999
1005.531250,10.424962,3.186434,6.588689,8.351348
1005.535156,13.214800,2.526446,5.403665,3.779360
1005.539062,3.538646,0.997499,9.684829,13.064038
1005.542969,11.025276,5.536496,5.003007,-2.569382
1005.546875,5.333147,2.044557,0.321768,4.415054
1005.550781,-7.481676,3.705164,7.591241,-1.557903
1005.554688,1.030173,-6.602501,2.451062,0.981580
1005.558594,-5.868902,-8.373583,5.788033,1.459684
1005.562500,-3.907144,-2.242551,0.706529,-10.720546
1005.566406,-1.237476,-6.396600,-10.141607,-12.966662
1005.570312,-7.399684,-9.054195,-16.405212,-6.537880
1005.574219,-8.010596,-11.337730,-8.474169,-9.419187
1005.578125,-11.058374,-8.515972,-13.433304,-12.666855
1005.582031,-15.487160,-4.563076,-7.395648,-4.951931
1005.585938,-7.501203,-8.581709,-5.805918,-9.868817
1005.589844,-3.267171,3.114641,-7.552537,-15.174796
1005.593750,0.069811,-4.396729,2.736170,-9.021099
1005.597656,-1.382754,-2.571885,-1.690331,-0.157765
1005.601562,4.075601,2.324341,4.886294,-2.461430
1005.605469,-1.013210,-1.801744,-0.811831,1.537443
1005.609375,7.147079,-4.967951,10.263044,15.431077
1005.613281,4.336866,5.248698,6.258153,1.978043
1005.617188,8.683648,4.907554,13.431418,12.428210
1005.621094,6.672412,12.903898,15.221248,4.521623
1005.625000,11.261212,16.335009,11.521991,16.518647
1005.628906,13.387791,6.730336,10.341364,10.047266
1005.632812,2.682395,4.749537,10.944531,4.851679
1005.636719,7.558411,15.591437,-0.156727,14.543629
1005.640625,3.880989,-0.843604,5.357575,7.390900
1005.644531,2.549108,0.240080,8.571852,6.922662
1005.648438,1.155801,8.448342,4.243814,-2.532350
1005.652344,4.042451,1.688084,-3.551650,-9.297361
1005.656250,1.895453,-4.891183,2.661278,1.546244
1005.660156,-4.662749,-4.242001,-10.124568,-5.339546
1005.664062,-6.139855,-8.818469,-9.220071,-9.071943
1005.667969,-5.536530,-8.276039,-4.776429,-7.227344
1005.671875,-8.552104,-9.784947,-11.710170,-12.290926
1005.675781,-10.715696,-7.604942,-13.732474,-7.527057
1005.679688,-13.224552,-13.911582,-5.173365,-3.430619
1005.683594,-12.566937,-6.517440,-9.774928,-7.761927
1005.687500,-0.851046,-3.566188,-7.164185,-6.952035
1005.691406,-8.930751,-9.408945,-9.001992,-8.956908
1005.695312,-1.523653,-1.011486,2.006267,-1.828016
1005.699219,-0.809429,-1.526598,-1.598575,-3.636048
1005.703125,-2.313554,4.467534,0.470582,1.846110
1005.707031,1.193141,5.907008,3.526942,10.682111
1005.710938,-0.959108,1.242403,5.668866,12.246253
1005.714844,2.929704,7.835356,3.982741,4.870990
1005.718750,7.149723,8.095028,8.400372,15.376500
1005.722656,13.859784,18.897538,10.160148,13.714407
1005.726562,11.345790,7.195969,13.972257,7.943823
1005.730469,14.056571,13.720996,5.288418,9.143126
1005.734375,10.650980,0.925552,4.746758,3.730949
1005.738281,6.901758,1.561044,10.116627,6.350465
1005.742188,5.952811,-0.617645,1.865051,4.735964
1005.746094,8.644421,5.647138,2.855476,0.600067
1005.750000,3.186806,0.573438,1.966690,0.510326
1005.753906,2.174101,-1.759637,-3.099541,-1.719515
1005.757812,0.297768,-8.090785,-0.105461,-11.265320
1005.761719,-6.848334,-10.740790,2.378512,-7.630381
1005.765625,-8.282645,-13.342030,-6.903938,-13.251910
1005.769531,-10.310466,-12.175251,-2.920555,-12.276136
1005.773438,-15.852608,-12.849887,-9.468340,-16.817396
1005.777344,-14.897771,-9.036603,-4.078498,-4.826501
1005.781250,-7.861375,-8.971822,-4.388087,-9.892901
1005.785156,-11.602484,-5.625865,-11.236216,-8.612064
1005.789062,-4.920025,-12.519499,-11.953198,-6.516892
1005.792969,-9.231109,1.573715,-7.136010,-3.502260
1005.796875,2.037181,-0.091269,1.992450,-2.640054
1005.800781,-3.532812,-0.352873,-7.528855,7.412910
1005.804688,0.427053,-2.878621,3.823669,-0.897849
1005.808594,0.751500,8.894876,-3.701580,0.610243
1005.812500,-2.963976,9.277065,3.787236,7.646077
1005.816406,10.085107,6.688304,8.054221,2.691651
1005.820312,11.515811,14.284814,8.817215,11.905818
1005.824219,6.630719,9.098997,5.960122,6.826859
1005.828125,10.383211,8.292694,15.703878,7.298455
1005.832031,14.784017,12.464637,7.813825,8.302754
1005.835938,2.309768,4.689693,10.235748,10.734517
1005.839844,-3.770031,7.150198,8.946872,2.567494
1005.843750,8.057364,4.972596,0.367161,0.585685
1005.847656,4.236836,0.985896,1.351505,2.474380
1005.851562,3.436322,3.671362,-6.926994,-4.397065
1005.855469,-5.275846,-4.104247,-5.643054,-9.870098
1005.859375,-14.319315,-5.268156,-3.005048,-8.975402
1005.863281,-9.768601,-10.443863,-7.264361,-2.659193
1005.867188,-6.008072,0.464436,-6.110965,-7.399839
1005.871094,-7.781462,-2.387146,-7.695081,-13.184567
1005.875000,-10.253963,-11.375142,-9.704888,-4.601537
1005.878906,-11.201511,-10.595188,-9.659113,-10.655700
1005.882812,-9.900249,-10.689964,-12.782997,-13.703110
1005.886719,-14.876697,-5.564734,-3.382100,-7.707855
1005.890625,-6.644242,-7.887454,-9.311885,-8.399396
1005.894531,-4.157432,-2.439672,-4.521139,-4.040783
1005.898438,-1.815943,-2.600882,-0.892761,-8.698792
1005.902344,1.886862,3.116671,2.832532,1.965132
1005.906250,1.099546,9.241251,4.281215,-2.934587
1005.910156,1.242504,6.337346,-0.804842,2.024894
1005.914062,6.299094,12.204248,5.859705,4.601412
1005.917969,8.327852,6.143787,10.960530,6.100281
1005.921875,7.972150,4.691234,9.270381,6.031357
1005.925781,14.083595,13.933252,8.679140,13.098236
1005.929688,10.634647,10.294154,8.559370,9.337956
1005.933594,3.963438,5.811182,14.185673,11.840000
1005.937500,3.836581,6.590431,8.178871,-4.150127
1005.941406,7.866389,6.890896,9.348435,8.457865
1005.945312,0.322911,2.547541,8.336821,5.803869
1005.949219,3.180932,0.490594,5.901371,-1.976859
1005.953125,4.669935,-3.932686,1.740068,-1.638086
1005.957031,-11.881296,-2.941174,-8.659668,-4.419809
1005.960938,-5.554250,-3.542161,-4.355386,-1.028521
1005.964844,-7.055635,0.484930,-19.013963,-8.259368
1005.968750,-3.694629,-2.828714,-13.957631,-9.297501
1005.972656,-10.958717,-11.512062,-8.199720,-1.748878
1005.976562,-12.849935,-9.335663,-12.884467,-5.277942
1005.980469,-17.325878,-3.107431,-11.549805,-13.573002
1005.984375,-11.620575,-9.304128,-5.268624,-11.746791
1005.988281,-6.614165,-5.868449,-4.458099,-10.207962
1005.992188,-0.176263,-3.518421,-4.736307,0.360073
1005.996094,-0.008429,-9.718190,1.544941,-6.642222
1006.000000,-3.867858,2.481018,-0.320127,0.633983
1006.003906,10.875444,-0.045244,5.527814,2.880322
1006.007812,2.941061,9.643676,9.277739,3.793595
1006.011719,5.406675,10.128154,1.810699,5.431742
1006.015625,1.555887,10.347232,9.352907,8.440308
1006.019531,5.372135,11.138692,14.496002,8.309244
1006.023438,14.448877,14.457941,14.716677,7.779579
1006.027344,13.520421,9.180594,11.934400,11.158660
1006.031250,16.834149,14.294706,14.930303,5.960813
1006.035156,10.641547,9.097230,12.471601,6.493057
1006.039062,0.359275,7.488940,4.447645,-1.025680
1006.042969,5.624389,-4.060749,-0.696256,-4.761026
1006.046875,-2.590318,-5.494230,0.893115,0.200971
1006.050781,1.643985,1.687297,-4.113609,-2.859437
1006.054688,3.567355,-2.768512,-2.216205,-10.009123
1006.058594,0.504680,-1.986089,-4.770198,-6.011468
1006.062500,-5.203230,-2.840752,-9.152959,-9.482025
1006.066406,-4.468916,-8.180101,-0.713998,-15.993509
1006.070312,-14.487711,-7.405833,-11.098531,-13.896532
1006.074219,-6.046869,-14.168626,-3.014664,-13.515457
1006.078125,-8.206463,-15.828438,-4.461085,-8.121520
1006.082031,-6.164711,-8.801193,-13.949586,-11.449577
1006.085938,-9.461758,-9.517576,-11.216888,-2.572983
1006.089844,-9.285785,-14.259137,1.172580,-3.768953
1006.093750,-5.536647,-0.990253,-7.514951,-7.715784
1006.097656,-1.236019,3.048837,-8.905784,0.838841
1006.101562,-0.388671,-1.640001,-3.717172,-1.007668
1006.105469,-1.271298,9.859232,-5.507626,4.208199
1006.109375,7.523724,10.042576,11.573299,8.809170
1006.113281,9.967449,4.385800,8.627928,0.561266
1006.117188,18.938246,5.508577,9.918645,7.913296
1006.121094,17.648181,8.240439,12.454215,14.359794
1006.125000,4.479163,9.932935,13.160923,5.682518
1006.128906,6.202126,16.598739,9.367722,11.732095
1006.132812,7.626954,3.866153,5.881862,11.532182
1006.136719,10.122102,5.828825,2.936322,6.070812
1006.140625,7.602280,-6.111713,0.656889,7.643389
1006.144531,14.067993,2.899966,4.601295,5.198532
1006.148438,2.036353,0.747478,0.634685,-0.822111
1006.152344,-1.214105,0.805830,-5.838190,-12.503104
1006.156250,-0.480012,0.687080,-13.173631,-3.125327
1006.160156,-1.003803,-6.353415,-6.124115,-5.602341
1006.164062,-5.220595,-2.082135,-11.073653,-5.177265
1006.167969,-4.055254,-9.641625,-6.225435,-12.080862
1006.171875,-3.132075,-9.126265,-8.071174,-8.098019
1006.175781,-3.170415,-11.503782,-7.182164,-14.318392
1006.179688,-0.857504,-11.166337,-1.884378,-8.234501
1006.183594,-10.333727,-7.294122,-1.547691,-17.878962
1006.187500,-9.457419,-2.212475,-0.417024,-4.362010
1006.191406,-9.149192,-8.694275,-0.262258,-10.813827
1006.195312,-0.447344,-4.635042,-3.954994,-5.317189
1006.199219,-5.614272,-4.715906,-6.038510,-4.592988
1006.203125,-3.589572,-0.870363,11.366317,1.622378
1006.207031,10.669454,3.588522,6.151839,5.427737
1006.210938,7.187972,3.240782,6.566264,-1.942582
1006.214844,6.611185,4.979900,8.266352,5.694095
1006.218750,10.065498,8.707635,9.284663,6.624526
1006.222656,10.729495,10.027891,8.697595,8.195886
1006.226562,9.342527,11.038030,6.668456,4.276737
1006.230469,15.900181,7.205474,10.020720,17.182522
1006.234375,5.799079,9.978171,2.139976,13.255768
1006.238281,0.297829,6.770522,2.719810,8.667278
1006.242188,5.534147,7.727813,5.564186,0.988532
1006.246094,4.857940,-0.590232,10.256461,6.527674
1006.250000,-3.065384,0.467811,0.257836,-3.287595
1006.253906,-3.870119,5.064712,-1.951776,-5.287830
1006.257812,-6.099196,-8.682513,-7.597740,-10.838440
1006.261719,-6.303920,-3.547454,-0.925187,-7.719741
1006.265625,-12.257592,-9.650002,-3.703935,-4.950511
1006.269531,-5.369477,-9.771355,-1.520008,-5.800141
1006.273438,-9.183842,-13.734450,-9.089805,-10.906846
1006.277344,-9.381874,-9.683123,-9.427289,-11.721270
1006.281250,-3.332051,-5.213091,-4.849511,-4.620548
1006.285156,-17.790168,-3.179712,-3.990465,-6.972549
1006.289062,-4.917670,1.414030,-7.735892,1.106617
1006.292969,-3.353044,-9.477580,-2.187185,0.911880
1006.296875,-10.078013,8.903089,0.305986,-8.109543
1006.300781,-3.621790,0.087387,1.385428,-5.667133
1006.304688,-1.370334,1.224988,0.829590,-0.863475
1006.308594,0.825489,7.632524,3.767705,3.865142
1006.312500,6.386081,7.578639,9.520354,4.747687
1006.316406,8.766218,7.861759,13.435022,9.640001
1006.320312,9.100977,11.329307,6.665095,15.152224
1006.324219,15.351481,11.247381,5.975771,6.492271
1006.328125,3.841587,9.515098,9.056791,14.197598
1006.332031,9.918436,12.511491,10.011751,9.896334
1006.335938,9.398550,5.379295,6.798594,7.392549
1006.339844,14.096307,6.155415,3.237046,4.556609
1006.343750,0.171098,-1.475238,7.855553,-3.976840
1006.347656,3.643039,6.519703,0.672736,-2.609075
1006.351562,-0.705887,3.332150,2.902279,-1.389388
1006.355469,-6.769146,-2.937016,-3.243287,0.260087
1006.359375,-6.049306,-0.318802,-6.609029,0.819236
1006.363281,-1.267358,-3.197485,-7.796320,-1.631955
1006.367188,-5.933062,-0.890183,-7.539160,-6.779544
1006.371094,-9.094238,-10.246753,-3.940868,-14.068440
1006.375000,-10.290679,-18.208988,-11.056912,-7.790163
1006.378906,-13.198743,-4.029607,-6.349417,-14.671145
1006.382812,-2.035606,-12.534931,-13.509388,-1.198024
1006.386719,-8.665357,6.163719,-9.940644,-7.803188
1006.390625,-5.091838,-8.278751,-12.442069,-4.800768
1006.394531,-5.145561,-8.028051,-3.119206,-3.699500
1006.398438,-3.033210,2.024637,2.828880,-0.245053
1006.402344,-1.270717,1.593808,1.994218,-2.984948
1006.406250,-5.488997,-5.521101,1.044096,6.292600
1006.410156,1.861514,9.374174,9.041708,5.313635
1006.414062,4.076060,10.035034,4.324010,11.064092
1006.417969,16.725031,6.699241,14.915403,4.027782
1006.421875,11.953882,5.027008,10.374859,12.385878
1006.425781,15.394507,11.701615,18.624993,9.778602
1006.429688,7.576677,12.847650,13.326048,12.242175
1006.433594,13.722261,4.126916,6.138213,9.416560
1006.437500,7.072123,6.008745,5.012619,12.689313
1006.441406,7.006852,4.342730,3.497683,11.123130
1006.445312,7.548438,-4.717254,7.653398,10.608959
1006.449219,-1.379503,1.502490,0.151970,3.416806
1006.453125,-3.871764,-4.073408,-2.885595,-12.054725
1006.457031,-2.797995,-9.533715,9.358126,-7.592788
1006.460938,-10.429403,-7.198848,-7.565586,-5.145033
1006.464844,-5.631039,-8.421974,-3.536945,-4.046030
1006.468750,-2.230087,-9.249030,-2.752129,-5.501570
1006.472656,-15.129064,-6.445915,-8.680065,-11.004654
1006.476562,-9.260739,-8.131507,-8.970307,-13.948285
1006.480469,-11.747048,-10.601214,-15.361057,-8.197476
1006.484375,-0.897544,-2.723241,0.802447,-7.427797
1006.488281,-5.619178,-7.096992,-7.324423,-7.233061
1006.492188,-2.099013,-1.042516,-4.473798,-6.235289
1006.496094,4.360888,-3.828416,-4.166410,-4.422738
1006.500000,2.358253,-2.305981,-4.809987,-5.153547
1006.503906,8.170174,10.900821,-1.841789,1.906301
1006.507812,5.161560,0.829043,9.063900,10.691213
1006.511719,10.986932,2.075075,8.294206,8.277060
1006.515625,10.596593,10.808295,3.864727,14.667917
1006.519531,10.583363,11.125511,10.781631,0.159054
1006.523438,7.485735,6.251655,10.143042,18.623562
1006.527344,7.142646,11.362373,7.547239,7.989315
1006.531250,10.472362,9.988124,8.480689,-0.533387
1006.535156,8.019163,7.449235,-1.276972,4.391804
1006.539062,8.102058,9.361223,3.627247,10.298173
1006.542969,0.918217,7.386342,4.870690,8.655860
1006.546875,12.130750,6.730584,-0.278223,1.645054
1006.550781,-6.987923,0.886193,-2.805504,3.734064
1006.554688,-1.233024,-3.155119,-1.289073,-1.713267
1006.558594,-5.600043,-8.169087,-0.942688,-2.704915
1006.562500,-6.021365,-3.754194,-8.783665,-9.000776
1006.566406,-9.643909,-9.965569,-11.424041,-12.706891
1006.570312,-8.006270,-10.867145,-8.523249,-8.208507
1006.574219,-11.896666,-12.443604,-15.947764,-5.497818
1006.578125,-15.672538,-11.347318,-16.167643,-12.811909
1006.582031,-17.170045,-9.375892,-7.655329,-11.314026
1006.585938,-16.548049,-5.427867,-8.427817,-12.254661
1006.589844,-0.695836,-1.103809,-12.227506,-7.914009
1006.593750,-7.639403,-4.866365,-0.708387,-7.697750
1006.597656,-3.728637,-5.176668,2.767180,-1.717196
1006.601562,5.258445,-5.799778,1.652654,-7.048847
1006.605469,6.694644,2.710123,-1.245927,3.968225
1006.609375,3.872699,3.789049,3.921565,10.319117
1006.613281,2.324981,0.951544,2.136003,3.044645
1006.617188,9.969234,1.941050,10.096284,10.480457
1006.621094,12.765820,6.595587,9.307652,8.468926
1006.625000,11.756133,11.469110,13.030923,6.834369
1006.628906,10.544188,15.134261,12.798831,17.238152
1006.632812,8.365207,12.414784,12.246030,3.374438
1006.636719,6.875259,1.999691,6.467554,5.276588
1006.640625,-1.108510,10.031124,6.682160,5.888817
1006.644531,5.976032,4.662035,15.141031,1.458144
1006.648438,6.205172,-6.263920,-5.690948,3.360376
1006.652344,2.296798,-6.392018,3.233721,3.129946
1006.656250,-4.462940,-3.931548,-4.348850,-4.691516
1006.660156,-9.935701,-5.461554,4.763428,-3.263481
1006.664062,-5.405210,-10.009066,-7.754622,-5.532022
1006.667969,-4.100181,-9.117666,-8.345239,-10.565124
1006.671875,-10.205250,-1.781517,-5.357390,-7.788199
1006.675781,-4.878078,-14.947687,-12.657013,-9.440719
1006.679688,-9.100028,-12.167348,-10.115789,-12.310917
1006.683594,-7.808860,-7.050323,-8.700293,-14.789927
1006.687500,-2.410716,-2.755333,-4.050078,-0.945656
1006.691406,-3.367414,-3.085725,-10.344441,-11.399804
1006.695312,-0.882371,-2.414392,-6.476503,-1.729498
1006.699219,-5.346055,6.439271,2.296157,-4.188350
1006.703125,0.705426,-0.856815,2.016710,-0.521431
1006.707031,1.769591,11.850151,-3.054676,5.217592
1006.710938,6.602778,7.941837,1.742638,7.950604
1006.714844,3.846334,-1.403456,5.566586,8.381001
1006.718750,9.950819,5.705279,8.659603,4.626796
1006.722656,11.615481,18.930959,20.121314,4.298388
1006.726562,5.887292,10.917172,12.534783,18.239960
1006.730469,7.907189,4.734562,4.933994,6.681414
1006.734375,0.978715,4.301467,15.028032,12.092564
1006.738281,3.670762,6.943131,6.340428,4.989949
1006.742188,5.533103,7.505071,6.263941,3.589309
1006.746094,-4.122161,4.178286,-0.246043,1.411360
1006.750000,-0.671014,2.472677,3.110370,3.814406
1006.753906,-4.659277,-5.859615,-4.958428,-1.696304
1006.757812,-8.525001,-5.262826,2.038886,-7.598375
1006.761719,-3.983864,-11.819198,-10.818708,-4.667971
1006.765625,-3.739547,-8.988176,-11.828797,-10.985883
1006.769531,-4.405023,-12.893439,-9.356078,-9.827635
1006.773438,-5.059458,-5.621874,-3.974374,-13.042147
1006.777344,-10.173085,-5.500517,-9.744462,-13.185056
1006.781250,-5.351786,-12.673073,-4.275332,-0.280947
1006.785156,-3.028993,-4.570243,-9.596413,-4.088251
1006.789062,0.440920,-3.493725,-4.861861,-4.501043
1006.792969,1.845555,-10.808085,1.898134,-5.925695
1006.796875,-2.475914,-6.957611,-4.504282,-5.807865
1006.800781,-1.429737,-8.752668,7.016440,-6.374206
1006.804688,3.381516,5.005167,-4.630877,-1.109121
1006.808594,9.350759,7.982457,11.468876,8.495091
1006.812500,8.086919,6.219445,4.627128,4.300265
1006.816406,4.858527,5.683465,13.688256,10.872454
1006.820312,11.329346,13.375978,10.601662,8.583674
1006.824219,14.050790,13.021313,7.947336,17.529071
1006.828125,10.651261,17.053081,13.548831,12.367321
1006.832031,11.759436,10.067255,12.837009,10.209805
1006.835938,1.503540,4.581073,10.394666,4.097012
1006.839844,6.463988,11.887377,11.124074,8.577104
1006.843750,0.819403,5.855225,3.487293,10.926814
1006.847656,3.233825,1.371538,11.552573,5.083078
1006.851562,-4.024756,-1.962829,-7.762921,-7.874672
1006.855469,2.551095,-0.411363,-1.036829,-1.287086
1006.859375,-6.746009,-6.124908,-3.916542,-9.540170
1006.863281,-4.526262,-10.257535,-11.566126,-6.508002
1006.867188,-12.708579,-14.670568,-10.582479,2.501258
1006.871094,-7.497277,-3.400701,-8.861282,0.557159
1006.875000,-10.479585,-4.074680,-14.079144,-9.728392
1006.878906,-8.790822,-13.738090,-2.800947,-2.351947
1006.882812,-5.279383,-8.209857,-14.062777,-5.831342
1006.886719,-9.250737,-7.326333,-5.344461,-7.462152
1006.890625,-3.242849,-7.971914,-3.151180,-7.378426
1006.894531,-7.752141,-4.151188,-3.324423,-11.025270
1006.898438,-3.736964,-0.687011,2.918243,4.418668
1006.902344,2.509284,1.018059,3.542657,-1.513242
1006.906250,-0.417565,2.002353,3.021315,-1.781217
1006.910156,1.913178,5.105561,0.922555,-1.138148
1006.914062,8.150762,7.027871,3.012284,8.795527
1006.917969,9.331913,7.564993,10.525698,7.282901
1006.921875,3.314638,8.036137,14.288496,10.032076
1006.925781,9.582542,16.937929,8.826120,4.355158
1006.929688,8.187023,7.965732,2.428076,13.460361
1006.933594,9.671502,12.695797,6.024629,12.210815
1006.937500,9.197197,2.509006,9.659818,11.998367
1006.941406,0.501607,10.077302,4.979431,2.038989
1006.945312,4.811642,-4.403780,6.533374,0.183985
1006.949219,-0.043515,2.470580,-1.783488,-7.817807
1006.953125,-2.493553,1.883860,-2.023508,-1.692990
1006.957031,-1.931973,-7.251479,-12.705629,-8.010166
1006.960938,-14.256815,-9.635417,-7.533783,-9.969847
1006.964844,-3.796493,-16.500772,-11.985859,-1.834298
1006.968750,-7.968682,-4.415508,-8.036674,-6.692731
1006.972656,-6.888513,-11.057371,-14.308546,-14.518430
1006.976562,-7.042041,-18.769756,-11.202792,-10.660995
1006.980469,-5.774515,-8.653606,-1.788809,-8.700517
1006.984375,-2.722998,-10.493569,-9.671413,-11.426730
1006.988281,-12.687649,-16.621842,-9.590064,-2.237425
1006.992188,-7.347229,-2.415406,-4.080309,-13.828512
1006.996094,-0.685059,-6.659234,-4.125389,-6.554070
1007.000000,-2.440274,1.589190,-5.257142,-8.817191
1007.003906,4.011553,0.635672,0.525034,-2.413557
1007.007812,1.285379,5.335479,7.338506,0.551071
1007.011719,7.719010,2.505582,6.176892,16.442606
1007.015625,13.408935,8.578642,13.317896,8.728936
1007.019531,11.497056,13.565999,9.430755,7.036068
1007.023438,10.624336,4.057555,5.867159,10.121823
1007.027344,5.878658,8.340340,14.002400,10.857771
1007.031250,14.107033,8.886439,6.119178,7.361326
1007.035156,9.054643,5.352321,7.927376,2.567750
1007.039062,5.244971,8.400488,6.695946,-4.263211
1007.042969,3.244261,1.241295,0.482442,1.752005
1007.046875,4.347081,1.822941,-0.647019,6.388422
1007.050781,-1.480672,1.567951,5.567731,-3.501345
1007.054688,-7.230814,0.578024,-2.509843,-0.561608
1007.058594,-14.977367,-4.781495,-12.086893,-3.764373
1007.062500,-4.833114,-4.068631,-5.378737,1.076289
1007.066406,-15.649466,-5.084639,-8.556231,-11.107887
1007.070312,-17.211657,-3.846051,-13.790863,-4.407207
1007.074219,-3.653517,-9.495994,-10.217270,-14.360312
1007.078125,-9.805933,-14.847628,-16.065287,-9.038012
1007.082031,-8.186216,-6.417091,-12.501486,-9.469452
1007.085938,-5.371680,-13.439039,-2.958753,-8.191935
1007.089844,-1.419982,-7.175936,-6.233548,-8.492361
1007.093750,-3.753826,-4.672674,-2.437070,-4.880174
1007.097656,-0.236800,-2.066418,10.686405,0.295056
1007.101562,-3.701300,1.051843,1.805798,-4.545708
1007.105469,-4.321815,8.859924,1.627346,3.517435
1007.109375,4.799606,2.007222,2.093537,-1.301116
1007.113281,8.078159,6.073757,9.613045,10.150986
1007.117188,12.099793,13.453204,9.452971,6.075601
1007.121094,13.624676,-0.559969,11.543517,12.500598
1007.125000,16.713119,15.935819,12.236915,13.583152
1007.128906,9.715079,12.750147,10.826773,15.116614
1007.132812,11.984251,10.702415,-1.207897,9.312086
1007.136719,5.335759,9.511022,13.611177,17.498990
1007.140625,5.796651,4.160752,11.942762,1.227023
1007.144531,3.530884,2.639853,5.988150,1.509645
1007.148438,3.914585,3.941765,0.288381,-1.194347
1007.152344,-4.314803,3.023049,-1.441426,-1.126539
1007.156250,-5.144535,-5.587700,-4.919355,-3.363509
1007.160156,-7.863427,-10.210428,-7.822520,-5.146192
1007.164062,-5.079847,-7.412232,-0.761847,-11.031639
1007.167969,-13.398998,-8.729358,-3.548908,-11.772899
1007.171875,-9.524947,-8.480368,-15.746176,-12.033352
1007.175781,-10.884660,-12.725624,-4.594167,-9.945571
1007.179688,-8.525969,-14.555294,-8.532655,-7.777213
1007.183594,-12.816814,-6.627463,-3.111022,-12.546873
1007.187500,-5.729591,-5.112431,-2.562182,-8.848397
1007.191406,-1.369304,-0.757904,-4.187153,2.329253
1007.195312,1.105994,-0.566685,-4.434690,3.188492
1007.199219,3.653161,-5.484431,0.654717,1.437899
1007.203125,2.938191,-4.313949,1.105220,3.271061
1007.207031,0.554648,7.925770,4.323525,2.133143
1007.210938,1.333092,9.411902,11.752871,3.481726
1007.214844,8.604639,12.570084,8.116663,14.388146
1007.218750,4.677632,11.812575,7.124561,7.738773
1007.222656,9.855106,8.965801,11.027610,7.077018
1007.226562,7.502747,14.894080,15.562983,8.941713
1007.230469,2.137767,5.550391,16.608532,19.831626
1007.234375,8.467156,10.803057,-4.376167,5.502305
1007.238281,5.077466,11.312685,9.510278,5.235240
1007.242188,7.691951,4.853815,7.333444,3.414092
1007.246094,5.018129,-2.285447,7.842692,-0.255489
1007.250000,8.966269,3.621405,-0.959255,4.351980
1007.253906,0.061342,-4.568075,-1.331767,0.123456
1007.257812,-7.137596,-5.328865,-0.131708,-5.585965
1007.261719,-8.966889,-2.638335,-5.604018,-8.117424
1007.265625,-2.285592,-8.395150,-5.058191,-1.833782
1007.269531,-6.775467,-6.552874,-6.570897,-2.509190
1007.273438,-12.120150,-5.191500,-16.924364,-8.766363
1007.277344,-10.768516,-12.642698,-2.907460,-9.914788
1007.281250,-12.253124,-14.690149,-14.164359,-7.359979
1007.285156,-4.175722,-3.418677,-10.082107,-8.110615
1007.289062,-1.897349,-7.634376,-0.995524,-5.796891
1007.292969,-2.080205,-8.841203,-1.614183,-0.988655
1007.296875,-2.362843,-10.278364,-10.304708,3.217934
1007.300781,2.059480,5.589647,2.460608,-1.110855
1007.304688,-0.260216,-2.200840,1.683559,1.936475
1007.308594,11.783386,5.705225,4.323140,10.823019
1007.312500,11.315194,8.639070,14.441392,6.628828
1007.316406,14.467902,13.954886,9.799596,11.918559
1007.320312,3.173011,3.500068,5.169667,7.750960
1007.324219,17.364149,11.722680,9.466510,17.385713
1007.328125,12.819925,6.558661,8.124636,9.547797
1007.332031,4.174077,12.647911,2.680605,10.319009
1007.335938,8.647042,7.630328,12.788988,1.594181
1007.339844,5.328132,4.437165,5.476447,7.505783
1007.343750,6.030354,7.692768,-2.315292,9.416389
1007.347656,-5.746927,0.271440,-3.132403,1.646119
1007.351562,-8.603303,8.620363,2.373461,-3.805255
1007.355469,-4.125614,-5.450957,-5.182967,-5.119023
1007.359375,-4.250135,-4.678520,0.241791,-5.296476
1007.363281,-10.396722,-4.495404,-13.233151,-9.014349
1007.367188,-9.979492,-3.779806,-8.992448,-4.884351
1007.371094,-12.632767,-9.242631,-5.458669,-9.819171
1007.375000,-6.423912,-11.443791,-11.759142,-6.603499
1007.378906,-3.775720,-14.544981,-18.423385,-10.386180
1007.382812,-20.313066,-5.656253,-4.168087,-7.033819
1007.386719,1.463503,-8.422585,-11.574623,-14.292455
1007.390625,-5.624486,4.821837,-2.506108,-2.507216
1007.394531,-0.799453,-3.046516,-0.958146,-2.834425
1007.398438,2.209696,1.350427,-0.589749,2.454808
1007.402344,3.708441,-5.105030,-5.409592,-4.572217
1007.406250,5.547020,10.917602,-1.594554,1.044890
1007.410156,7.278014,2.975469,10.783284,6.596836
1007.414062,2.782900,4.702190,4.510270,7.871854
1007.417969,6.733438,13.792207,5.941287,13.854102
1007.421875,-0.736067,6.083535,9.780117,10.858394
1007.425781,12.698203,6.641810,12.055868,9.645023
1007.429688,8.321313,4.929521,10.664374,11.802078
1007.433594,11.590776,11.911537,8.535106,7.975140
1007.437500,1.246721,9.592081,7.201956,9.310748
1007.441406,4.012839,5.485577,9.067035,3.394959
1007.445312,3.113448,-2.607615,1.029910,6.009205
1007.449219,-4.837992,0.183227,4.601030,1.848858
1007.453125,4.917439,-7.483910,-1.111439,2.906675
1007.457031,-3.653345,-5.268847,-3.407978,-8.427478
1007.460938,-1.926908,-6.548900,-10.475241,-0.655473
1007.464844,-12.233456,-9.369065,-6.632506,-6.528437
1007.468750,-15.498914,-7.384188,-11.659156,-9.605226
1007.472656,-14.947598,-16.028740,-5.308001,-9.898505
1007.476562,-12.828446,-8.102181,-8.550142,-8.051536
1007.480469,-10.136362,-8.083643,-11.063483,-9.056218
1007.484375,-5.429502,-12.532070,-6.552816,-14.588798
1007.488281,-9.566114,-5.566843,-7.908210,-9.726115
1007.492188,-0.181018,-4.649989,-7.745770,-2.320711
1007.496094,-4.088670,3.318642,-1.757498,-7.805871
1007.500000,-1.537843,-0.824224,-1.568236,-0.528486
1007.503906,3.983914,-2.771254,0.429639,1.860481
1007.507812,-1.196615,1.505610,3.477826,-1.156686
1007.511719,5.399846,2.362832,11.577690,4.566834
1007.515625,6.697561,6.715694,5.509345,6.124447
1007.519531,9.055640,8.883745,5.009272,9.171441
1007.523438,16.069292,7.705557,14.615796,9.314461
1007.527344,8.532697,8.537913,14.763265,14.319405
1007.531250,4.504933,16.698147,12.068666,9.106457
1007.535156,7.109408,12.481264,8.031457,7.800716
1007.539062,10.750409,10.031774,5.254560,6.336996
1007.542969,3.870481,8.407234,1.414324,12.646123
1007.546875,-3.943516,6.351838,3.485142,-0.460921
1007.550781,-1.215731,-2.359852,0.667993,0.194737
1007.554688,-3.332933,1.661546,-0.597873,-1.749202
1007.558594,-7.452325,3.724765,-2.383092,-10.741182
1007.562500,-0.594206,-9.637923,-10.827245,-4.210411
1007.566406,-7.661280,-2.124610,-7.191566,-14.350931
1007.570312,-15.890359,-8.164434,-6.876375,-14.341472
1007.574219,-16.846370,-2.854198,-10.491392,-8.018199
1007.578125,-13.812711,-11.349773,-8.580450,-16.679479
1007.582031,-15.733769,-17.564903,-10.129062,-13.211106
1007.585938,-10.261786,-5.786793,-16.079191,-13.474419
1007.589844,-6.040740,-12.406793,-4.455040,-1.677308
1007.593750,-2.332648,-2.958045,-2.420387,2.256389
1007.597656,7.700222,1.279606,-6.085159,-4.049684
1007.601562,0.924385,1.437437,-3.783486,-1.197297
1007.605469,5.258703,6.225306,2.103896,2.029222
1007.609375,3.831540,8.267363,12.009016,1.297776
1007.613281,8.071466,6.662465,1.755623,10.585112
1007.617188,2.490730,13.717971,12.871939,10.426333
1007.621094,12.110750,4.911386,13.640758,8.651655
1007.625000,6.680182,9.989035,8.285655,8.103473
1007.628906,13.666714,16.128065,12.782934,13.538221
1007.632812,4.795862,8.530836,12.613710,14.636277
1007.636719,8.139816,7.995351,9.185885,9.508388
1007.640625,2.777500,2.216582,4.056487,10.323420
1007.644531,0.375499,1.414552,2.897758,6.569960
1007.648438,1.397395,3.413679,10.770159,3.714487
1007.652344,2.839629,1.238030,-1.729859,-8.753872
1007.656250,-0.438086,-0.837007,1.257621,-2.389861
1007.660156,-4.184362,-10.178932,-5.715800,-4.373883
1007.664062,-8.308043,-13.003113,-6.689919,-10.881733
1007.667969,-8.996032,-11.647684,-10.106313,-9.039754
1007.671875,-16.310309,-8.335327,-9.160038,-8.525411
1007.675781,-7.663128,-9.189091,-13.812535,-10.339778
1007.679688,-7.121651,-16.228585,-11.042404,-0.652027
1007.683594,-6.496998,-14.010944,-11.031459,-15.097634
1007.687500,-2.439381,-3.126041,-10.495832,-7.713672
1007.691406,-1.452741,-11.431175,-4.604507,-8.456854
1007.695312,-7.589228,-1.763144,-3.214917,1.661871
1007.699219,-1.177216,3.096752,-5.012454,-7.961843
1007.703125,5.518066,5.813758,9.021656,5.681324
1007.707031,3.214328,4.185286,-1.774672,6.400055
1007.710938,5.227109,16.553144,5.468500,12.232986
1007.714844,7.187036,5.531528,-1.212045,4.145099
1007.718750,5.752754,11.038761,6.709950,7.803230
1007.722656,18.425431,13.632725,11.711803,7.309119
1007.726562,16.553376,13.825249,9.015442,11.300382
1007.730469,16.319870,11.505015,15.462734,9.777063
1007.734375,10.638833,14.806398,4.775507,8.681467
1007.738281,12.446898,5.352934,8.367781,4.821875
1007.742188,2.542017,7.314164,11.131474,2.198542
1007.746094,6.551366,5.842117,-3.722396,8.815109
1007.750000,-1.547690,3.029986,-1.093323,6.827629
1007.753906,-0.244563,-5.798836,-1.284016,1.912794
1007.757812,-9.726443,-3.119424,-3.998236,-6.943048
1007.761719,-11.924005,-8.699197,1.119832,-1.609292
1007.765625,-5.477578,-7.931620,-14.283256,-15.015716
1007.769531,-13.411615,-7.026569,-16.250134,-7.707468
1007.773438,-12.044916,-2.904237,-13.969117,-8.444584
1007.777344,-13.102448,-6.384015,-17.457926,-6.832887
1007.781250,-0.886863,-10.981811,-8.254920,1.449204
1007.785156,-13.974682,-8.197734,-7.082683,-7.211357
1007.789062,-1.341320,-7.349528,-7.322468,-1.965712
1007.792969,-4.775756,-6.797387,3.246656,-8.006068
1007.796875,4.621436,1.722465,0.280291,-10.275167
1007.800781,-4.704574,-9.525306,3.907742,4.863778
1007.804688,2.936196,2.376621,5.621688,4.607755
1007.808594,0.848969,6.988895,-0.146348,0.155361
1007.812500,4.680062,11.796807,4.653026,8.411156
1007.816406,10.486157,10.136413,12.168081,7.625865
1007.820312,7.817155,12.530991,8.944885,11.417993
1007.824219,10.966139,13.676068,15.515578,5.093547
1007.828125,9.752314,8.011237,8.236737,12.698227
1007.832031,12.228244,10.828591,9.201653,17.731935
1007.835938,8.521653,7.183051,6.428960,4.179644
1007.839844,6.028393,7.485069,3.098321,-1.512825
1007.843750,3.205980,2.893153,4.450960,4.521112
1007.847656,1.806680,3.246115,3.710843,-4.621659
1007.851562,-2.389908,2.493780,3.338347,3.533808
1007.855469,-6.802511,-0.774441,-5.491311,-3.147715
1007.859375,-3.884280,-10.090688,-6.177532,-7.887588
1007.863281,-11.594431,-9.285314,-16.235786,-6.411032
1007.867188,-4.460901,-0.007179,-12.770750,-10.804705
1007.871094,-6.604014,-8.152634,-10.939929,-1.142026
1007.875000,-6.277399,-6.869149,-6.160318,-9.825445
1007.878906,-7.060363,-10.144259,-0.812218,-15.334892
1007.882812,-1.840948,-3.859999,-9.264252,-6.185424
1007.886719,-12.383745,-2.596269,-5.611271,-6.842947
1007.890625,4.533087,-4.348859,-8.868440,-0.220635
1007.894531,-10.425643,4.510862,1.458514,-4.285933
1007.898438,4.571179,-1.328090,-1.103908,-0.019820
1007.902344,2.674408,0.423154,-2.654902,2.506001
1007.906250,0.607547,7.640454,4.868702,3.494314
1007.910156,4.547490,5.195739,5.821601,4.060369
1007.914062,8.820005,8.367174,1.525855,1.838237
1007.917969,9.261008,4.117584,12.102063,13.962870
1007.921875,7.451293,7.978805,10.840835,13.869801
1007.925781,10.174160,8.354562,11.265884,8.646418
1007.929688,12.912833,7.374453,9.936888,9.396135
1007.933594,7.764007,9.255857,4.902066,2.101085
1007.937500,7.868190,2.319500,9.854950,9.710957
1007.941406,7.228607,10.968299,6.952048,7.895957
1007.945312,-1.172104,4.152658,3.785089,1.937090
1007.949219,-2.943167,-11.722423,0.910064,6.630285
1007.953125,-3.981398,2.265614,1.536059,-3.363006
1007.957031,-8.694735,-7.319192,-6.426109,-7.222547
1007.960938,-8.241910,-5.623518,-9.130546,0.056208
1007.964844,-11.155882,-14.533001,-4.796792,-8.109926
1007.968750,-10.055276,-14.327711,-6.979035,-14.699948
1007.972656,-6.069962,-18.761112,-19.152267,-10.337271
1007.976562,-9.602487,-7.762610,-7.869608,-4.129257
1007.980469,-9.963649,-5.245131,-6.484011,-18.811218
1007.984375,-11.720122,-8.404322,-7.813938,-8.235465
1007.988281,-2.329879,-8.358768,-9.568266,-7.543666
1007.992188,-0.422243,-2.783534,-2.772640,-11.580227
1007.996094,-4.006276,-0.940215,0.790297,-2.710082
1008.000000,-7.722473,-1.577608,-5.595694,-0.724675
1008.003906,5.681217,1.686403,9.021435,2.635413
1008.007812,-4.720903,1.180597,8.618605,1.359074
1008.011719,14.355824,7.860989,8.242345,2.422171
1008.015625,7.878859,7.647615,16.413468,7.858428
1008.019531,12.497571,7.620994,10.401042,10.499838
1008.023438,13.881665,5.115381,17.074243,7.526250
1008.027344,7.908419,8.597055,7.563796,10.419037
1008.031250,7.690930,12.853835,1.392376,13.162928
1008.035156,-0.567147,7.733478,3.285277,4.152905
1008.039062,13.795167,8.885054,6.977852,5.035406
1008.042969,4.175975,4.004227,0.412613,4.673158
1008.046875,5.736013,3.469472,4.001172,3.981930
1008.050781,-3.421711,3.291062,2.815540,0.913586
1008.054688,-2.310584,1.518390,-5.976360,-6.242812
1008.058594,-9.285913,-2.241576,1.446678,2.679945
1008.062500,-6.195816,-10.414238,-8.340499,-13.542174
1008.066406,-5.653714,-8.466887,-12.252987,-7.065712
1008.070312,-8.981190,-7.490780,-6.819196,-14.114133
1008.074219,-8.138262,-6.770102,-17.770825,-15.065172
1008.078125,-13.771753,-10.433599,-9.681242,-5.271767
1008.082031,-12.894261,-6.349223,-8.586967,-9.250091
1008.085938,-2.944788,-10.482288,-10.618559,-4.463053
1008.089844,3.461165,-3.607021,-10.397095,-4.389834
1008.093750,2.902759,-7.840335,-8.672846,-1.543219
1008.097656,-3.877785,-0.333923,-3.148637,-5.692015
1008.101562,-8.864729,2.078505,3.864155,-1.608428
1008.105469,7.184462,1.385233,-1.106460,2.659921
1008.109375,7.600381,18.334261,6.828325,4.326925
1008.113281,7.040954,5.313434,13.197711,10.882340
1008.117188,17.078271,3.468980,11.284778,6.375369
1008.121094,12.593799,10.328510,8.670619,10.512705
1008.125000,12.668033,19.804318,13.973012,9.296936
1008.128906,10.550496,9.943803,9.302575,18.694677
1008.132812,8.278917,9.512421,6.288111,10.722927
1008.136719,8.456827,7.712661,7.141947,4.392488
1008.140625,11.635143,5.902013,1.311623,0.184224
1008.144531,2.324185,-3.604801,5.889506,4.500483
1008.148438,6.769674,-5.775565,-0.684724,-3.805745
1008.152344,-2.360178,-2.902904,1.762255,-2.778487
1008.156250,-2.026335,-6.865982,-7.723870,-1.754814
1008.160156,-5.019834,-6.818658,3.434792,-5.583186
1008.164062,-6.676701,-3.901359,-6.273798,-11.071649
1008.167969,-6.039970,-7.135047,-13.489557,-7.117760
1008.171875,-4.404489,-4.667354,-7.860900,-8.844929
1008.175781,-11.452906,-6.521711,-5.631498,-9.877677
1008.179688,-4.614629,-8.697960,-8.475027,-12.942989
1008.183594,-7.814541,-2.702058,-7.507645,-8.469735
1008.187500,-2.079763,-1.392700,-4.991575,-10.723000
1008.191406,-9.750758,-3.241653,-4.166734,-9.727625
1008.195312,-9.584322,0.449165,-6.761134,-3.600382
1008.199219,-0.667398,2.216658,-1.901314,-2.436994
1008.203125,6.099937,1.945384,12.360317,3.338352
1008.207031,10.805195,3.843037,5.929891,0.920022
1008.210938,1.381269,4.184380,7.032345,11.529549
1008.214844,14.789463,13.740935,5.418454,4.612267
1008.218750,6.543320,8.967645,4.389210,6.350759
1008.222656,10.271468,4.681187,8.345519,12.984793
1008.226562,10.378410,11.630190,11.051099,9.921832
1008.230469,0.097899,0.508996,14.973839,0.913298
1008.234375,15.268579,8.468955,8.833440,6.189511
1008.238281,6.687974,5.269917,0.908558,12.563326
1008.242188,4.554130,8.075729,-0.904409,0.827774
1008.246094,8.464652,4.798859,-0.419294,12.767579
1008.250000,6.571578,3.891004,0.589005,-5.062239
1008.253906,-1.669870,0.270071,-1.264466,5.148838
1008.257812,-7.117266,-3.651028,0.453337,-0.086353
1008.261719,-9.691551,-8.741113,-11.360576,-3.960177
1008.265625,-6.757977,-12.305881,-8.616106,-2.429841
1008.269531,-11.705242,-17.395415,-8.634502,-6.379498
1008.273438,-13.034283,-18.908130,-2.049674,-7.630015
1008.277344,-6.413113,-8.913657,-6.445810,-16.802574
1008.281250,-9.797037,-8.743753,-11.261166,-10.006729
1008.285156,-8.996424,-9.219237,-14.647501,-9.811056
1008.289062,4.166966,-5.844370,-9.854416,-9.582530
1008.292969,-4.651935,-2.566565,-6.753113,-12.099642
1008.296875,3.808073,-2.862381,-2.829521,-1.410681
1008.300781,-4.026090,-2.949013,-1.933868,7.486793
1008.304688,4.793623,0.064918,6.452602,1.315816
1008.308594,5.383783,5.316307,4.917202,9.372026
1008.312500,5.524386,12.135408,8.196187,14.429166
1008.316406,12.458360,8.765646,11.468192,2.885611
1008.320312,16.430048,7.527012,7.947645,5.516766
1008.324219,14.934417,11.321183,3.948675,2.527997
1008.328125,9.494993,10.787566,4.778796,9.521079
1008.332031,-0.403807,15.681125,9.174421,5.276694
1008.335938,8.589830,9.926953,7.984734,3.945409
1008.339844,6.369312,10.178865,10.253063,6.143291
1008.343750,-0.490140,4.957672,4.089299,5.807731
1008.347656,0.715510,5.780748,11.947871,8.206591
1008.351562,-2.544710,-3.078443,2.478979,5.851292
1008.355469,-10.777070,-0.473058,-10.579756,-5.787075
1008.359375,-12.207062,-4.463392,-9.367470,-5.566038
1008.363281,-4.402982,-6.436822,-8.068837,-6.939394
1008.367188,-17.521916,-6.928845,-12.250993,-13.194375
1008.371094,-11.019507,-10.333512,-6.291674,-5.255719
1008.375000,-8.965345,-11.531378,-8.484311,-7.474673
1008.378906,-5.324837,-5.082753,-12.140149,-6.084310
1008.382812,1.132986,-8.302624,-0.845415,-12.240037
1008.386719,-13.249500,-5.615023,-5.823234,-10.864854
1008.390625,-4.829679,-12.617388,-3.564234,-0.044495
1008.394531,-4.725451,-2.263579,-9.115115,7.725260
1008.398438,1.919489,0.851540,-5.443739,-5.846456
1008.402344,3.074287,-0.144406,-3.450425,-1.379555
1008.406250,3.446871,2.816668,9.252461,3.565471
1008.410156,10.130846,7.474269,-4.074838,8.502520
1008.414062,7.335827,6.324553,7.289446,6.349089
1008.417969,12.433182,8.315142,3.877512,6.921873
1008.421875,8.962486,5.840967,8.881903,13.195928
1008.425781,17.357011,12.098821,4.788662,9.363213
1008.429688,7.351237,4.727039,12.712815,12.721167
1008.433594,7.289420,3.533642,10.873954,4.318826
1008.437500,3.631967,6.743303,5.532140,14.034522
1008.441406,7.704170,7.864953,2.840614,2.638906
1008.445312,1.444805,4.409329,8.520293,5.378569
1008.449219,-0.734878,-0.888876,2.819188,4.136627
1008.453125,-2.388427,-8.098912,-8.734906,-5.733820
1008.457031,-6.987630,-0.116401,-5.723246,-11.710517
1008.460938,-6.119584,-2.791000,-5.338619,-6.816972
1008.464844,-10.197264,-8.413493,-3.772540,-3.881854
1008.468750,1.328453,-11.798401,-4.155035,-10.112918
1008.472656,-9.194646,-6.312737,-8.863101,-11.422994
1008.476562,-6.436960,-10.903426,-11.888143,-8.293927
1008.480469,-13.204027,-10.749645,-9.615684,-4.417685
1008.484375,2.067903,-8.681281,-3.353075,-5.813258
1008.488281,-6.637288,-10.472531,-12.458671,-5.623610
1008.492188,-0.194401,-10.046050,-1.933896,-0.760057
1008.496094,-6.475786,-3.752924,-3.994387,-4.160272
1008.500000,0.023395,-0.650347,-4.568603,0.569289
1008.503906,0.539713,19.196381,8.161026,3.924550
1008.507812,6.487237,-0.211392,3.394319,5.717328
1008.511719,1.427422,10.013310,12.732606,1.777089
1008.515625,6.418941,7.777021,6.599545,7.891511
1008.519531,21.151771,14.265357,6.607046,9.596832
1008.523438,10.279260,12.245637,15.136505,5.563471
1008.527344,9.448427,12.281065,6.871039,17.929393
1008.531250,12.759639,4.607575,6.554368,14.487217
1008.535156,5.093937,14.993341,10.064634,6.717963
1008.539062,7.294371,18.243092,5.151907,6.031021
1008.542969,3.649047,8.936504,6.035038,1.527774
1008.546875,3.035833,7.597761,3.300927,-3.628954
1008.550781,-5.307898,-0.562136,2.052727,3.669343
1008.554688,-0.484320,-1.675354,-6.221382,5.000189
1008.558594,-11.618223,-0.169156,-14.130639,-9.156518
1008.562500,-3.816545,-2.772495,-10.626990,-6.810348
1008.566406,-11.955460,-5.581932,-9.766018,-11.036768
1008.570312,-10.569216,-2.605609,-12.312248,-20.012444
1008.574219,-9.105494,-13.504894,-4.004004,-11.167838
1008.578125,-9.589412,-13.040579,-12.603334,-12.941779
1008.582031,-12.294782,-1.640388,-4.460899,-6.901781
1008.585938,-2.649718,-11.014300,-3.035056,-6.195124
1008.589844,-1.136094,-9.662031,1.877560,-8.760981
1008.593750,-5.542674,-0.255830,-3.371715,-4.153256
1008.597656,-1.752975,-1.140035,0.957206,6.441094
1008.601562,-0.960418,-4.688618,-3.392413,5.221728
1008.605469,8.960508,0.936069,2.401919,4.562796
1008.609375,-3.545807,5.180027,6.387559,7.445408
1008.613281,4.610325,9.089284,14.548295,-0.032033
1008.617188,7.122572,7.970757,13.706696,8.702069
1008.621094,13.544998,4.634818,14.708666,9.474583
1008.625000,13.220505,12.495200,10.260972,6.972702
1008.628906,11.620029,12.152540,11.669329,8.358777
1008.632812,11.153214,6.390067,11.720322,2.519396
1008.636719,6.890475,14.062027,-4.428131,2.801417
1008.640625,11.123207,10.635246,10.267668,1.686183
1008.644531,-1.165975,-2.399553,7.487750,7.511539
1008.648438,-1.394999,-0.933122,5.210342,1.960478
1008.652344,1.702808,-9.101536,-2.561497,-0.167718
1008.656250,-5.209983,-1.831355,-11.513851,-10.165117
1008.660156,-8.969574,-3.428028,-5.112489,-5.266676
1008.664062,-7.812815,-5.503962,-6.422542,-0.815958
1008.667969,-9.015380,-10.672537,-16.215560,-10.145025
1008.671875,-14.429706,-18.301731,-6.741997,-15.849543
1008.675781,-12.110928,-8.768759,-4.705594,-11.341570
1008.679688,-8.783860,-11.860523,-15.468373,-13.459549
1008.683594,-1.438283,-11.040445,-11.324424,-8.415997
1008.687500,-11.409854,-3.277474,-5.146048,-12.089939
1008.691406,1.359179,-1.665522,-0.915968,-13.328615
1008.695312,0.331192,-9.178954,-5.822112,-1.490164
1008.699219,3.661371,6.730806,-0.115518,1.983346
1008.703125,-0.396691,9.677875,-0.964041,1.450624
1008.707031,15.125129,4.066296,3.007487,7.160240
1008.710938,9.543430,10.414203,8.221752,5.709902
1008.714844,9.208929,6.531948,12.094862,8.532215
1008.718750,6.293586,3.697927,7.477786,6.841235
1008.722656,15.975981,14.822537,-1.014869,12.181679
1008.726562,5.989000,8.033968,9.654206,8.710014
1008.730469,13.034523,10.369900,6.772777,11.363642
1008.734375,7.270565,8.721070,12.483626,5.094205
1008.738281,10.032047,5.371904,5.382039,4.955584
1008.742188,7.245829,0.182836,7.642040,6.711768
1008.746094,4.688975,-1.086018,-0.333659,-3.040105
1008.750000,1.411964,1.943715,-7.440532,-2.251079
1008.753906,-4.766620,-2.346775,-1.010773,-4.338365
1008.757812,-1.061064,-9.352837,1.268727,-10.443954
1008.761719,-5.762139,-5.144961,-8.163107,-1.340762
1008.765625,-8.013883,-3.467099,-7.291639,-4.123969
1008.769531,1.276316,-14.119417,-4.660365,-1.395715
1008.773438,-12.994951,-13.817101,-10.259877,-7.007003
1008.777344,-7.396172,-10.625069,-5.926414,-8.456060
1008.781250,-15.876765,-5.228772,-5.551518,-9.168753
1008.785156,-12.663579,-14.471691,-6.507813,-11.743801
1008.789062,-10.632261,-15.098377,-1.664731,-9.470999
1008.792969,-9.186080,-7.947683,-2.955741,-8.564367
1008.796875,-3.977000,-4.505856,-1.112656,0.302893
1008.800781,9.828736,-6.091411,0.771972,2.442895
1008.804688,6.587696,4.504826,1.382480,7.508648
1008.808594,5.522126,14.462923,1.471279,10.863731
1008.812500,4.551377,14.908709,5.772356,8.655576
1008.816406,8.650828,11.804975,8.772830,4.230858
1008.820312,8.135608,8.388934,7.875170,10.266580
1008.824219,10.810153,9.239170,6.960787,9.346638
1008.828125,16.902413,6.254774,4.857656,12.365660
1008.832031,6.224067,4.898418,7.845785,13.187901
1008.835938,9.309866,3.527809,7.873907,7.706427
1008.839844,12.631134,0.547563,3.308485,6.750736
1008.843750,1.553935,7.141738,11.397381,6.923334
1008.847656,4.250279,5.391454,-3.092837,-3.070275
1008.851562,-1.316378,-1.607209,0.569396,-4.078841
1008.855469,1.171033,-3.085525,0.204557,0.576130
1008.859375,-5.065648,-7.203368,-8.004366,0.295218
1008.863281,-5.708225,-7.478712,-15.438109,-8.393193
1008.867188,-16.266180,-8.320142,-6.221497,-8.910627
1008.871094,-12.616765,-9.983242,-14.202055,-10.688726
1008.875000,-19.971478,-10.403409,-10.464332,-11.940090
1008.878906,-5.883944,-11.019014,-6.598788,-10.793017
1008.882812,-5.987131,-5.122055,-10.404383,-9.532029
1008.886719,-6.815243,-4.635938,-4.550327,-5.828818
1008.890625,-1.793020,-4.823213,-3.557055,-13.501049
1008.894531,-1.821059,3.915514,-6.187583,-8.370011
1008.898438,-5.018949,-8.031242,-1.163301,-1.494950
1008.902344,8.535107,3.401638,3.874810,-0.187968
1008.906250,6.236964,-1.861996,-0.655415,-0.019247
1008.910156,7.590029,3.705604,3.210580,4.919806
1008.914062,13.290644,1.767270,13.960245,8.870017
1008.917969,-0.113975,10.490476,12.025847,10.250355
1008.921875,3.690119,6.416666,13.909925,4.483137
1008.925781,9.326606,14.079281,11.247489,12.654286
1008.929688,9.682041,11.906053,7.465106,15.170756
1008.933594,7.706293,6.029210,14.116248,6.962014
1008.937500,9.160440,11.248640,9.208207,14.290431
1008.941406,4.543371,-0.094223,9.376133,3.601301
1008.945312,1.382690,-0.164910,-0.295874,2.586989
1008.949219,-3.336246,5.808892,-3.061426,-0.577176
1008.953125,-2.549015,-8.845085,-3.974604,-0.311817
1008.957031,-11.591953,-5.721649,-5.121861,-9.333262
1008.960938,-9.476110,0.030817,-2.123887,-4.967724
1008.964844,-4.272325,-1.970127,-9.576854,-10.173494
1008.968750,-10.455134,-10.225923,-12.035137,-9.205526
1008.972656,-9.222192,-13.405206,-14.785423,-12.310265
1008.976562,-12.758278,-8.925744,-6.439306,-8.040053
1008.980469,-13.801819,-14.224498,-1.874125,-10.731700
1008.984375,-5.846807,-5.159224,-13.017564,-6.799036
1008.988281,-9.619385,-8.429100,-8.886368,-6.893558
1008.992188,0.149921,-3.684858,-9.239504,-0.752628
1008.996094,-6.912845,-2.941317,-2.596096,-4.280202
1009.000000,-1.996943,4.077165,-2.782726,0.667336
1009.003906,0.896390,3.339579,2.969945,11.120781
1009.007812,2.959167,5.806729,3.686512,5.272923
1009.011719,3.677882,2.535249,6.906693,9.972952
1009.015625,12.519179,4.314031,5.649695,8.868555
1009.019531,10.870905,7.933828,8.822410,13.187819
1009.023438,8.664404,6.248072,4.543278,12.023507
1009.027344,8.978770,9.257537,10.583117,11.387874
1009.031250,0.863980,4.035654,10.205192,9.578475
1009.035156,11.360791,3.435485,2.430996,7.670415
1009.039062,7.335542,-0.942320,2.599600,12.954384
1009.042969,6.957033,7.400610,2.011443,13.006501
1009.046875,3.620871,-1.900051,5.404059,-2.176342
1009.050781,-1.556251,6.771393,-3.171471,-5.173893
1009.054688,4.552478,-0.274371,-2.981642,-4.317839
1009.058594,-6.334050,-6.075765,-11.106200,-3.023784
1009.062500,-0.543967,-8.131068,-11.394570,-6.908386
1009.066406,-6.122582,-4.114989,-5.385114,-14.982492
1009.070312,-8.981784,-13.511763,-3.887846,-14.153534
1009.074219,-7.221748,-7.265083,-8.566933,-15.975209
1009.078125,-18.066598,-7.249180,-7.167401,-6.077571
1009.082031,-8.984170,-11.088297,-7.894407,-10.421323
1009.085938,-7.540960,-11.113562,-6.934161,-11.715483
1009.089844,-6.207879,-0.993481,-4.579596,-7.083622
1009.093750,-2.146660,-6.381624,-0.082805,-4.117542
1009.097656,2.360334,-1.020021,1.627767,-8.044908
1009.101562,0.271716,5.599056,2.680210,3.783599
1009.105469,10.270014,3.773831,3.652342,1.416056
1009.109375,1.456925,6.291635,1.626823,5.614505
1009.113281,7.868648,4.119739,3.333136,8.414843
1009.117188,7.290827,11.965470,9.483973,8.780483
1009.121094,12.513826,9.819575,7.779906,12.178136
1009.125000,12.233237,14.131495,7.981884,3.629098
1009.128906,12.367978,13.234098,9.102894,10.544286
1009.132812,9.160236,6.525972,12.495132,5.446831
1009.136719,8.288137,9.667494,5.145042,8.892404
1009.140625,12.260607,3.392042,10.502815,5.883848
1009.144531,8.218870,-7.977318,-1.709869,9.602458
1009.148438,3.617866,2.768679,7.784184,2.515120
1009.152344,3.958236,5.351963,2.049670,-0.142136
1009.156250,-3.228442,-1.724735,-4.102558,-0.603467
1009.160156,-2.331912,-3.314661,-4.015724,-4.569113
1009.164062,-8.760444,-4.875437,-3.956045,-12.228418
1009.167969,-10.616828,-9.172994,-17.333054,-3.697108
1009.171875,-7.896763,-14.970185,-8.984671,-10.282063
1009.175781,-9.749927,-8.300931,-11.949100,-1.288916
1009.179688,-2.407069,-10.874202,-5.096802,-13.197385
1009.183594,-3.765211,-8.575316,-12.326903,-16.185633
1009.187500,-4.981954,-14.602708,-6.649826,-1.445006
