timestamp,TP9,AF7,AF8,TP10
1000.000000,-0.035491,0.894759,-2.403919,-2.429494
1000.003906,1.547024,6.440374,-0.026649,5.270611
1000.007812,9.330266,1.824477,1.921157,1.228859
1000.011719,4.481689,0.562076,10.540247,2.862597
1000.015625,6.917459,4.727303,4.607324,12.829270
1000.019531,5.463878,9.841559,7.458122,2.196262
1000.023438,9.585348,11.068718,13.831454,5.549952
1000.027344,4.496044,5.052708,11.935163,7.297726
1000.031250,7.848694,9.427144,13.185885,3.384340
1000.035156,8.581754,-2.551883,3.462429,5.903374
1000.039062,4.152140,4.302378,0.135400,12.553163
1000.042969,10.745737,2.127031,6.017315,-2.279342
1000.046875,0.587708,-0.777773,0.390121,0.287134
1000.050781,-0.379084,3.901804,-0.971778,-3.873552
1000.054688,-3.252747,5.727147,-1.143858,-3.436407
1000.058594,-0.265507,-13.620752,-5.401691,-2.227911
1000.062500,-4.339822,-8.448004,-5.509284,-10.364990
1000.066406,-9.620992,-8.190819,-7.408226,-11.617629
1000.070312,-7.072779,-10.917833,-14.724941,-8.484332
1000.074219,-12.386196,-18.928145,-20.110937,-2.823393
1000.078125,-15.183362,-16.662839,-0.479075,-9.898614
1000.082031,-11.535431,-7.873618,-9.667827,-4.766465
1000.085938,-10.382584,-7.249010,-3.796607,-9.234987
1000.089844,-8.216558,-5.468505,-7.299649,-8.119734
1000.093750,-1.936266,-12.069752,-2.312476,1.882536
1000.097656,-0.159107,-3.279695,-5.310904,-1.051250
1000.101562,1.912282,-0.681555,5.947662,-0.433637
1000.105469,5.758430,4.995472,0.381365,-0.325335
1000.109375,10.814087,8.004506,10.204964,10.715295
1000.113281,9.735117,1.852347,7.837874,3.103379
1000.117188,12.726655,8.913391,4.811565,8.216422
1000.121094,10.847395,7.674130,10.572602,8.140534
1000.125000,13.922463,12.943742,12.214987,11.458669
1000.128906,3.096238,8.589712,12.171747,10.356401
1000.132812,11.629260,16.484741,14.171782,10.890737
1000.136719,2.083209,7.212092,8.204279,12.237925
1000.140625,5.976433,0.491587,-0.552330,8.413047
1000.144531,-5.983597,8.440212,-0.555139,9.187515
1000.148438,3.320528,2.834526,5.088353,3.966537
1000.152344,-2.426745,-4.393399,6.441791,-3.985682
1000.156250,0.248251,-2.363612,-0.083446,-9.518968
1000.160156,-6.710306,-4.506497,-1.478224,-4.167836
1000.164062,-2.248954,-8.039273,-0.585384,-0.990281
1000.167969,-2.975589,-8.915659,-9.841607,-15.362876
1000.171875,-13.631808,-15.075321,-15.497216,1.531209
1000.175781,-4.229376,-6.051132,-10.811746,-9.572908
1000.179688,-10.701684,-22.273522,-2.685747,-8.558604
1000.183594,-6.498661,-6.551384,-3.240016,0.782710
1000.187500,-3.832485,-10.560057,-4.152208,-8.822152
1000.191406,-5.232034,-14.047783,-1.553688,-4.940931
1000.195312,0.738671,-9.257681,-3.179616,-4.325578
1000.199219,-4.652113,-6.808665,3.155793,2.685047
1000.203125,9.126641,9.100957,-3.970997,8.672989
1000.207031,2.643462,6.769780,4.515218,9.289117
1000.210938,0.930570,4.257878,6.493596,6.118460
1000.214844,7.905092,7.499468,5.755088,11.729863
1000.218750,4.102698,14.389050,6.185587,4.796161
1000.222656,16.957616,12.819835,7.617581,14.261629
1000.226562,16.650927,11.764289,14.389876,4.809185
1000.230469,15.455892,7.577240,10.832505,11.370065
1000.234375,5.168258,14.937569,1.892188,9.688044
1000.238281,10.148785,11.698886,8.470579,9.019340
1000.242188,-4.011091,1.046288,3.897306,5.110490
1000.246094,1.200074,6.854079,-6.569757,9.086174
1000.250000,-3.103181,-5.200474,1.012427,4.591004
1000.253906,-4.586309,-2.700387,-3.097895,-2.049706
1000.257812,2.321194,-9.111724,-7.368725,-8.024580
1000.261719,-10.929468,-8.993557,-3.316261,-6.234132
1000.265625,-11.757375,-2.970244,-8.595990,2.404149
1000.269531,-12.721374,-16.453101,-13.979686,-4.134917
1000.273438,-9.085789,-5.861961,-4.975105,-10.741015
1000.277344,-10.982923,-6.052186,-7.316320,-6.146706
1000.281250,-7.983641,-15.778938,-11.360304,-1.302382
1000.285156,-7.724528,-3.771207,-7.850508,-4.861252
1000.289062,-7.144170,-7.310778,-1.362576,-6.562172
1000.292969,-2.532520,-4.085174,-2.588476,-0.078980
1000.296875,-2.874518,0.504589,-1.871161,-3.898273
1000.300781,-1.046821,-2.822483,-4.150569,5.075604
1000.304688,1.311913,3.640715,0.388003,4.885910
1000.308594,8.248404,10.038185,7.557316,5.822265
1000.312500,12.063534,3.622266,11.091295,10.066060
1000.316406,11.547700,10.290325,8.235364,7.660307
1000.320312,7.178394,3.069473,9.696971,12.914551
1000.324219,9.425011,13.586817,11.054447,4.800189
1000.328125,16.062473,7.212258,7.518166,8.857183
1000.332031,17.209139,10.793313,6.098649,-4.821835
1000.335938,10.564097,7.445177,0.232153,5.523599
1000.339844,6.915696,6.942559,3.067803,1.814424
1000.343750,1.694491,0.426399,9.376641,0.119656
1000.347656,5.494955,1.368454,-2.138597,5.813149
1000.351562,7.611879,1.664372,-1.375290,4.881625
1000.355469,3.448866,-0.585498,-6.094746,0.605362
1000.359375,-6.946300,-4.406672,-4.185664,-10.592837
1000.363281,-10.600281,-3.863613,-7.067213,-13.161914
1000.367188,-12.992038,-8.889046,-8.061682,-8.887027
1000.371094,-9.181452,-10.963689,-10.599323,-2.755743
1000.375000,-13.905902,-10.588963,-11.351858,-10.017650
1000.378906,-15.338648,-6.970245,-14.272495,-11.277387
1000.382812,-5.657237,-3.856053,-12.749573,-12.433180
1000.386719,-8.596372,-5.255869,-10.594386,-7.726033
1000.390625,3.204854,-4.829658,-8.743851,-5.784585
1000.394531,-0.641085,-7.673405,-4.822685,2.183531
1000.398438,-1.025554,-8.641013,2.245008,-2.739884
1000.402344,-7.971344,-0.241618,10.249157,1.995597
1000.406250,9.219201,-0.285566,5.825508,6.188965
1000.410156,6.324205,10.316328,-3.167467,9.936198
1000.414062,7.337448,1.377618,5.294320,10.845905
1000.417969,8.466816,10.191744,13.017413,11.642406
1000.421875,14.019616,8.303686,3.590255,6.092863
1000.425781,10.551153,11.811402,15.182236,8.944135
1000.429688,8.324593,9.709357,10.765554,12.670886
1000.433594,8.316819,5.696116,7.084217,8.867124
1000.437500,7.630320,5.104044,5.686642,4.747481
1000.441406,1.003278,2.116817,8.958400,-3.226049
1000.445312,1.247203,8.628867,2.924974,2.420416
1000.449219,2.264998,4.966589,4.259026,-3.238119
1000.453125,-7.463121,-2.042201,-5.121458,-6.609146
1000.457031,2.377958,2.559502,-7.101597,-5.351175
1000.460938,-12.456704,-2.026306,-9.285927,-10.319765
1000.464844,-4.307985,-7.784601,-8.906872,-12.738974
1000.468750,-14.236238,-5.606371,-8.847818,-3.676737
1000.472656,-10.663989,-18.422802,-12.400810,-10.824341
1000.476562,-19.826339,-3.630893,-14.310055,-10.785585
1000.480469,-15.742952,-4.694681,-11.661305,-11.578413
1000.484375,-10.677590,-12.565019,-1.685577,-8.656063
1000.488281,-9.284694,-4.729368,-6.633748,-1.856243
1000.492188,-5.017338,2.778500,-5.654802,-5.710975
1000.496094,-7.228847,1.276205,-2.706467,3.775866
1000.500000,-2.363819,2.714431,-8.877990,4.443614
1000.503906,1.803867,-1.451570,3.454820,3.831030
1000.507812,4.286879,6.693081,7.859886,7.553297
1000.511719,7.507224,9.125864,11.099807,9.742958
1000.515625,5.055066,14.036579,8.546967,4.394077
1000.519531,2.908721,9.215408,8.896160,15.268482
1000.523438,16.687771,9.855151,11.303822,10.752384
1000.527344,19.157270,17.445224,14.832768,10.576942
1000.531250,6.149389,12.260846,14.462044,13.175318
1000.535156,9.392225,-1.087833,10.472260,9.069341
1000.539062,5.160202,8.589136,7.269646,10.844707
1000.542969,1.106607,3.478448,4.039155,0.851715
1000.546875,0.098127,7.641535,1.506967,0.942485
1000.550781,2.527669,4.407034,0.912109,7.225832
1000.554688,-2.755251,0.997886,1.903777,6.803345
1000.558594,-4.017863,-5.304622,-5.770509,-7.980965
1000.562500,-11.115924,-8.924798,-10.601539,-4.129961
1000.566406,-6.337421,-8.075516,-5.568767,-6.158519
1000.570312,-14.510525,-9.508268,-18.701770,-8.726128
1000.574219,-11.750965,-12.319624,-8.514213,-17.417358
1000.578125,-10.953603,-12.629007,-12.362523,-13.749026
1000.582031,-2.502442,-7.692835,-5.313094,-8.793636
1000.585938,-3.245944,-13.485706,-9.714613,0.510537
1000.589844,-8.532243,-6.262170,5.045414,-13.380971
1000.593750,-6.388589,-8.618104,-9.744689,-2.788937
1000.597656,-2.456209,-2.941266,-0.053844,0.071208
1000.601562,-2.549384,3.075147,1.127298,-1.850424
1000.605469,4.066114,7.941147,6.778991,2.447001
1000.609375,7.906234,8.728266,8.042410,4.525719
1000.613281,2.925562,-1.785283,7.386905,6.783504
1000.617188,5.600845,7.013776,4.492540,7.476091
1000.621094,10.986022,4.268660,8.229443,12.531287
1000.625000,1.258162,11.058165,10.261973,7.819940
1000.628906,6.401103,5.534639,3.705464,11.979038
1000.632812,12.583618,13.546759,7.129406,-1.917040
1000.636719,6.577316,9.677060,9.323523,7.667376
1000.640625,8.434021,-4.795451,8.648278,5.485629
1000.644531,7.348475,7.956929,7.123178,11.915892
1000.648438,0.311911,0.852822,0.842966,-1.681377
1000.652344,-7.301137,-1.239172,1.738143,-1.779705
1000.656250,-2.048380,-0.154375,-5.713563,-2.960448
1000.660156,-13.961464,-7.188472,-8.655695,-6.619782
1000.664062,-9.985083,-6.169041,-12.383596,-5.641233
1000.667969,-3.656817,-16.137071,-1.817691,-2.866413
1000.671875,-17.426953,-10.534001,-9.865140,-7.308238
1000.675781,-11.124275,-6.144147,-11.376257,-13.231053
1000.679688,-10.977971,-11.387169,-11.404920,-0.819126
1000.683594,-12.472084,-11.734655,-6.917251,-10.344041
1000.687500,-11.936969,-6.385034,-4.791823,-12.647886
1000.691406,-7.853671,-0.555100,-4.748828,-8.584084
1000.695312,-2.184898,-0.291265,-9.875574,-3.439456
1000.699219,7.732512,5.635442,-0.643482,4.628378
1000.703125,-4.737786,-1.534439,6.316611,0.748272
1000.707031,3.268576,6.366170,-0.031352,-1.824415
1000.710938,5.381444,6.880342,8.070346,3.822737
1000.714844,2.054078,1.300232,9.241794,8.388955
1000.718750,1.831378,1.079069,10.819080,15.084856
1000.722656,10.301404,4.097986,7.692277,12.527003
1000.726562,8.122055,9.554793,12.196729,1.045725
1000.730469,8.867236,4.521621,2.593814,11.098425
1000.734375,4.189522,10.212648,3.887601,11.677724
1000.738281,6.459632,4.437745,4.956380,8.426419
1000.742188,10.465797,6.019476,2.407170,4.574443
1000.746094,-1.001998,5.888273,-1.207099,5.126322
1000.750000,3.757257,0.240699,-7.825030,-6.293655
1000.753906,-4.117532,2.756290,-3.848612,2.806147
1000.757812,-9.101371,-3.729259,-13.648054,-14.686987
1000.761719,-7.357246,-10.132263,0.489678,-7.251110
1000.765625,-6.233156,-11.510121,-1.910722,-6.361080
1000.769531,-8.363785,-7.080222,-4.868378,-15.455948
1000.773438,-8.440709,-7.376220,-13.373934,-9.075016
1000.777344,-8.847156,2.084086,-11.114374,-12.860418
1000.781250,-12.409920,-4.948353,-9.717483,-6.316602
1000.785156,-5.632058,-9.032067,-11.855349,-10.301005
1000.789062,-7.854501,-1.797854,-3.676962,-4.941501
1000.792969,-2.244506,-8.740788,-12.743789,-7.679405
1000.796875,-3.567825,-0.249194,2.272815,-3.253570
1000.800781,4.072660,-0.304688,1.284049,5.273920
1000.804688,6.625181,5.433212,-5.876067,4.347590
1000.808594,6.033036,-1.400100,-1.387915,12.144062
1000.812500,0.288710,4.248536,3.832747,14.216729
1000.816406,11.455675,-1.327887,0.627523,11.079669
1000.820312,6.968194,12.846848,5.178592,12.426973
1000.824219,9.868295,8.183299,11.540828,12.328059
1000.828125,6.975237,14.579708,13.374407,15.656467
1000.832031,1.430351,8.297677,7.162061,7.478640
1000.835938,7.761923,9.377862,6.268509,15.337378
1000.839844,8.259792,2.881679,11.583070,7.653760
1000.843750,7.222629,3.629739,-3.079808,2.352700
1000.847656,-3.808403,4.184456,2.922444,1.004523
1000.851562,-2.606800,2.128787,2.524858,6.143052
1000.855469,2.164079,-2.377701,-5.431077,-6.717374
1000.859375,-9.089561,-6.508030,-4.663028,-11.428574
1000.863281,-1.937595,-11.260812,-0.888783,-14.193625
1000.867188,-11.324099,-13.355955,-15.862967,-3.306537
1000.871094,-11.357758,-7.891627,-9.462975,-14.372369
1000.875000,-9.488465,-11.017074,-9.761575,-10.326243
1000.878906,-5.972598,-7.074069,-10.631045,-8.710524
1000.882812,-9.003651,-13.369737,-9.857331,-14.276998
1000.886719,-5.975610,-9.496927,-11.481416,-3.114138
1000.890625,-8.232405,1.584204,-7.610532,-8.627952
1000.894531,-2.957021,-3.332043,-4.825506,-4.046473
1000.898438,0.853433,-5.314457,3.592237,-2.717619
1000.902344,0.433801,-0.575311,-1.124619,-1.113452
1000.906250,-2.673100,-3.361045,8.735144,3.775960
1000.910156,2.626370,6.812421,6.816799,3.140654
1000.914062,12.636490,6.222264,9.832411,10.435422
1000.917969,8.545623,10.856656,-1.472352,7.791443
1000.921875,8.927059,7.250112,4.614798,8.360381
1000.925781,7.690411,13.060498,14.078303,5.239697
1000.929688,7.587807,7.090310,8.898972,12.475813
1000.933594,5.269002,9.584718,11.041185,7.609584
1000.937500,8.484453,10.899782,0.285952,6.565918
1000.941406,6.018725,14.453515,11.224711,3.805287
1000.945312,-0.348640,-0.489391,5.190374,8.371699
1000.949219,-0.432813,-3.586762,-0.272198,7.422687
1000.953125,-6.829770,1.123400,-5.152133,-2.241968
1000.957031,1.575658,-0.945912,1.588051,-1.803943
1000.960938,-9.134046,-1.304959,-3.616136,-9.212991
1000.964844,-11.051079,-12.284533,-7.281955,-0.845350
1000.968750,-8.724844,-11.460245,-4.211471,-4.367995
1000.972656,-8.192328,-9.093879,-12.128936,-14.444793
1000.976562,-2.066508,-7.654634,-8.479223,-7.181840
1000.980469,-10.547280,-9.076626,-8.177427,-6.666989
1000.984375,-13.724976,-7.415438,-5.414722,-4.826651
1000.988281,-3.984749,-3.201916,-11.921681,-11.281514
1000.992188,1.636797,-1.859616,-4.165322,-6.767441
1000.996094,-8.963209,-9.605518,-0.915294,0.487163
1001.000000,4.969327,-4.561539,-3.764961,-2.039313
1001.003906,1.144277,-0.775802,-1.596010,2.527836
1001.007812,-0.898090,9.511745,5.501304,9.448902
1001.011719,10.325236,4.187667,6.568058,1.895451
1001.015625,7.455260,8.675954,11.243621,6.057066
1001.019531,7.344434,9.527967,16.570339,14.138908
1001.023438,5.984076,13.337417,8.917870,11.943171
1001.027344,13.032414,15.346580,8.488536,13.330187
1001.031250,3.593841,18.382216,3.340946,7.828576
1001.035156,1.888435,2.726507,7.049568,10.658320
1001.039062,-0.102365,15.646503,2.376482,11.833634
1001.042969,11.544295,-1.353598,7.647634,8.745594
1001.046875,-1.483914,6.688311,3.257872,6.765699
1001.050781,4.340915,-3.678534,5.048621,5.216696
1001.054688,2.571317,-4.240038,0.118730,1.915427
1001.058594,-4.949673,-8.681635,-1.375481,-3.662076
1001.062500,-11.486391,-6.533929,-17.701295,-12.204199
1001.066406,0.234913,-7.260457,-15.148245,-12.804462
1001.070312,-4.802604,-12.354265,-9.856286,-16.451935
1001.074219,-12.205959,0.725901,-15.239857,-10.875339
1001.078125,-7.911513,-14.634951,-13.160525,-11.427232
1001.082031,-6.215699,-9.919883,-9.483581,-11.370181
1001.085938,0.006388,-12.665727,-5.156172,-1.231513
1001.089844,-4.115860,-5.424124,-8.159663,-12.011696
1001.093750,2.222118,-2.264528,-0.175140,-10.961152
1001.097656,0.691192,2.020098,3.935705,-6.514297
1001.101562,0.538705,9.825883,2.337301,4.780136
1001.105469,4.336367,-0.869386,3.464316,6.364290
1001.109375,2.669580,6.547812,6.196780,2.150879
1001.113281,8.634796,0.039232,2.976621,1.798569
1001.117188,8.886040,12.699752,7.028489,3.994138
1001.121094,3.315928,5.433353,15.280517,8.794743
1001.125000,12.242924,6.547998,8.962770,5.612743
1001.128906,6.668963,7.768208,12.040715,10.797157
1001.132812,6.112172,17.035759,8.901430,8.419600
1001.136719,7.016474,8.150927,5.413941,8.246261
1001.140625,10.228478,1.397689,11.082883,4.815584
1001.144531,5.448959,9.201921,6.200561,7.188338
1001.148438,1.893842,1.739423,-3.469202,-2.807057
1001.152344,-0.932882,-1.611196,-1.043967,2.618989
1001.156250,-8.279954,-0.742251,-1.240148,-1.590292
1001.160156,-7.054655,-8.648696,-5.815039,-0.787497
1001.164062,-1.289752,-9.576685,-4.902408,-8.079769
1001.167969,-5.618491,-7.095380,-8.123841,-6.449606
1001.171875,-10.792486,-10.084416,-13.297875,-17.340071
1001.175781,-11.823104,-13.894255,-10.501880,-11.635804
1001.179688,-11.349968,-10.467777,-8.952994,-16.733146
1001.183594,-7.015086,-5.482600,-6.372373,-9.928271
1001.187500,-8.960032,-11.994009,-7.522602,-5.396076
1001.191406,1.445441,-14.508335,-13.325943,-10.216755
1001.195312,-6.390873,-4.414844,-4.348158,-4.928056
1001.199219,0.005263,7.004517,3.932919,3.570427
1001.203125,-0.118179,0.228559,0.331764,3.293523
1001.207031,-0.093259,6.265608,-0.910611,2.994928
1001.210938,2.379353,3.306232,5.997047,4.473858
1001.214844,12.186823,12.380580,3.537639,15.483326
1001.218750,11.279111,14.294829,7.654465,12.938488
1001.222656,4.706182,3.282878,13.948478,4.245568
1001.226562,3.894285,8.188231,13.187087,11.876764
1001.230469,7.426588,13.100742,10.460226,5.003396
1001.234375,8.102069,9.076477,6.282861,9.339576
1001.238281,14.785854,0.676180,5.333657,11.337371
1001.242188,2.943003,3.306738,6.899153,4.688733
1001.246094,-0.313937,-4.070695,6.338851,3.122232
1001.250000,-0.466395,-2.975468,2.200429,6.847606
1001.253906,-2.508100,-6.262569,1.211528,-3.687865
1001.257812,-3.381545,-5.614130,-8.076541,-2.266981
1001.261719,-4.714217,-7.760533,-8.553066,-11.434950
1001.265625,-4.587620,-12.717102,-13.376471,-1.520272
1001.269531,-11.325984,-15.592173,-7.808121,-9.842646
1001.273438,-9.363749,-9.987647,-15.903675,-8.002829
1001.277344,-9.680149,-8.858215,-8.078368,-19.257479
1001.281250,-9.843211,-7.774997,-14.118680,-15.964596
1001.285156,-3.486803,-14.070083,-8.856595,-7.277700
1001.289062,-13.382561,-6.640106,-13.033972,0.206385
1001.292969,-4.106741,-7.138796,-6.762925,-7.689737
1001.296875,-2.896747,-5.139064,2.297965,0.861151
1001.300781,-0.585259,-4.764925,6.794137,-1.033819
1001.304688,7.435149,-0.922340,8.377657,2.351640
1001.308594,6.646932,6.698682,4.688642,2.478810
1001.312500,8.908932,11.620968,14.305321,12.675077
1001.316406,15.063429,12.244826,13.745300,14.008461
1001.320312,18.146718,7.613263,14.129188,8.571110
1001.324219,13.394629,6.863590,8.248066,10.957176
1001.328125,8.844763,13.596951,7.789375,9.410578
1001.332031,10.559691,8.848824,6.520843,-0.024235
1001.335938,11.960450,10.083611,12.756896,1.337142
1001.339844,5.648148,7.068398,6.399854,4.098294
1001.343750,6.156651,-1.292025,-3.278633,-2.422063
1001.347656,-1.078226,-6.167876,4.980103,0.387926
1001.351562,-5.153161,-3.904082,-3.464423,-0.894801
1001.355469,-9.406067,-11.457432,-0.639846,-4.022483
1001.359375,-6.847382,-9.061042,-3.023747,-5.667160
1001.363281,-4.873423,-8.047915,-8.253203,-4.565683
1001.367188,0.665204,-2.936193,-13.442436,-10.420802
1001.371094,-11.184892,-12.675652,-9.932037,-7.124488
1001.375000,-3.674414,-7.251842,-15.308740,-15.890507
1001.378906,-12.070572,-1.492843,-20.206969,-13.495009
1001.382812,-16.752018,-14.225148,-11.121037,-10.578656
1001.386719,-4.056615,-10.532579,-12.540799,-2.174091
1001.390625,1.126459,-4.585707,-10.292276,-4.795312
1001.394531,2.501428,-2.792135,-5.446711,2.004564
1001.398438,-4.113055,0.957722,8.891055,-9.894948
1001.402344,1.319434,0.227783,3.148800,0.312033
1001.406250,4.272967,11.493366,2.514830,8.395150
1001.410156,9.800834,10.918580,-0.395980,2.887118
1001.414062,4.538428,7.528722,4.031147,7.170936
1001.417969,8.060374,0.710994,6.149533,15.241127
1001.421875,8.692298,9.552669,10.885739,10.511759
1001.425781,9.332994,9.668967,9.562670,11.449318
1001.429688,4.184843,15.916416,7.445882,12.611749
1001.433594,6.883188,8.692704,13.828994,5.548400
1001.437500,2.238524,11.744361,9.307193,8.553747
1001.441406,6.146639,3.273098,5.594802,12.334983
1001.445312,0.638209,1.846791,10.867452,2.520956
1001.449219,6.687218,-2.454252,3.023433,0.099801
1001.453125,1.057553,1.614807,6.085245,0.948533
1001.457031,-4.417961,-0.751820,-5.862722,-11.272735
1001.460938,-8.653385,-8.646347,-10.892532,-0.287324
1001.464844,-3.517075,-12.023680,-5.902521,-10.890351
1001.468750,-4.266589,-19.899860,-13.133748,-8.309825
1001.472656,-10.893455,-2.043152,-14.998692,-11.054927
1001.476562,-9.030686,-6.371357,-7.162817,-8.347784
1001.480469,-15.412359,-14.241460,-12.542595,-12.514988
1001.484375,-10.729390,-9.830071,-10.565453,-3.397664
1001.488281,-5.308939,-9.340110,-7.666212,-4.585752
1001.492188,-7.209346,-7.188527,-9.513498,-3.633807
1001.496094,-3.085400,1.765025,-6.142142,-0.972068
1001.500000,3.891161,1.225369,-3.309481,1.476195
1001.503906,-0.601328,0.735305,-0.151389,1.048755
1001.507812,5.662852,4.694339,2.163765,2.645864
1001.511719,14.123643,10.387633,12.301170,5.622030
1001.515625,11.745421,8.834896,15.382213,11.997067
1001.519531,2.284495,17.176195,8.791620,9.110781
1001.523438,7.290892,2.070655,4.828200,4.184737
1001.527344,16.059417,14.548926,12.282183,19.161171
1001.531250,9.929380,13.943812,7.377379,4.539234
1001.535156,5.952280,2.132334,8.009616,7.700453
1001.539062,2.163995,8.408018,3.820662,9.358566
1001.542969,7.786830,8.582060,-6.932389,5.429211
1001.546875,3.458240,0.591341,-0.789175,8.078895
1001.550781,-2.989139,1.855374,1.330220,1.099865
1001.554688,0.546651,0.109395,5.946454,-7.435885
1001.558594,-10.786621,-7.147571,-5.827091,-6.178316
1001.562500,-8.531921,-3.341341,-4.769509,-10.122344
1001.566406,-15.253216,-7.940752,-9.794003,-15.999682
1001.570312,-3.286025,-1.398959,-16.206264,-7.758880
1001.574219,-4.014849,-8.189240,-12.285471,-11.394092
1001.578125,-12.305844,-9.210806,-9.186521,-4.295500
1001.582031,-6.896419,-8.694051,-14.003581,-14.275000
1001.585938,-12.377080,-14.444727,-8.442298,-15.523452
1001.589844,-1.503186,-0.406717,-1.757880,-1.616017
1001.593750,-9.727922,-4.203133,-9.073145,-1.044916
1001.597656,-1.204530,-4.111758,3.038490,1.413992
1001.601562,3.306242,0.207973,-2.693559,-2.586369
1001.605469,0.367945,-0.939819,8.469227,-2.774550
1001.609375,3.523885,7.541247,4.723800,7.874299
1001.613281,10.947918,9.059294,4.426097,6.079692
1001.617188,3.066532,3.764732,9.563253,6.280116
1001.621094,8.916844,7.554359,8.949471,5.628176
1001.625000,8.011234,5.027481,7.742585,9.302115
1001.628906,10.800649,9.236468,13.074408,4.247547
1001.632812,8.745796,13.819108,9.205283,10.763194
1001.636719,7.125700,11.675623,13.061171,11.904401
1001.640625,8.014948,8.735743,6.574315,8.274577
1001.644531,8.173944,0.040331,-0.190720,0.431647
1001.648438,-0.759230,-0.980621,-4.664087,-3.621317
1001.652344,-0.620402,4.852322,0.488669,-5.799817
1001.656250,-1.270148,0.112445,-8.499260,-8.684881
1001.660156,-5.650562,-7.210031,-5.820925,-9.770998
1001.664062,-7.438019,-6.936572,-11.048750,-12.160173
1001.667969,-13.196553,-6.497972,-13.733339,-17.203147
1001.671875,-8.008642,-23.579021,-11.530939,-14.211050
1001.675781,-10.799189,-12.049532,-13.875739,-8.352772
1001.679688,-10.695094,-8.579001,-6.403981,-13.393694
1001.683594,-9.702844,-10.398535,-13.777382,-11.462317
1001.687500,-11.957782,-12.050838,-5.245615,-10.115570
1001.691406,-1.153050,-7.492766,1.464447,-15.093341
1001.695312,6.259907,-6.168076,-7.351973,-4.089484
1001.699219,-2.164877,-0.148259,-0.919038,9.120887
1001.703125,2.087189,4.693779,1.741899,0.002393
1001.707031,-0.497621,8.672434,2.498550,4.203322
1001.710938,2.540114,5.757148,8.714039,0.780259
1001.714844,9.508277,8.243007,3.953666,12.850064
1001.718750,8.050291,13.740006,4.339552,9.438366
1001.722656,2.584131,5.734402,14.599191,10.373605
1001.726562,9.498022,10.599124,16.258603,8.031340
1001.730469,14.167827,10.298631,3.424510,3.708472
1001.734375,9.357743,10.897171,14.632458,2.803510
1001.738281,11.555041,3.662566,1.174536,7.857993
1001.742188,4.814931,4.372698,1.559800,8.272196
1001.746094,1.720884,3.526198,1.748891,5.937818
1001.750000,4.459071,3.197671,-9.231122,-0.316472
1001.753906,-7.181919,-5.645182,-2.729412,-4.495247
1001.757812,-5.661184,-0.609745,-6.534884,-2.943930
1001.761719,-1.446327,-7.303573,-11.619515,-8.209210
1001.765625,-8.373145,-8.849646,-12.395960,-6.264435
1001.769531,-12.688475,-7.583930,-9.861970,-7.573489
1001.773438,-13.626857,-10.503739,-13.558124,-3.609537
1001.777344,-8.041605,-5.401920,-6.867628,-15.499290
1001.781250,-9.740465,-13.253033,-9.605022,-5.210433
1001.785156,-6.426832,-15.418373,-5.894379,-6.860563
1001.789062,-6.903623,-0.963399,-13.604269,-3.305634
1001.792969,-4.040063,3.013183,-4.550698,1.502037
1001.796875,-3.753110,-2.269103,4.481394,-4.590581
1001.800781,-2.662498,-1.257218,-2.865287,-7.015639
1001.804688,-1.294321,5.126155,0.046280,2.777616
1001.808594,3.570297,3.032741,4.576748,4.660007
1001.812500,3.884880,4.101203,7.664967,11.445565
1001.816406,5.283936,6.770382,6.514341,8.469203
1001.820312,9.323010,9.174476,-1.853707,10.133754
1001.824219,15.061856,15.381837,11.521117,15.549823
1001.828125,6.776578,0.667291,5.403898,2.022449
1001.832031,8.241053,7.306075,10.341647,7.236894
1001.835938,6.533825,5.115696,3.711191,13.490051
1001.839844,5.816737,2.003120,4.087924,3.563328
1001.843750,-2.386665,-1.758847,3.668133,-2.926902
1001.847656,-2.874159,4.511618,2.091300,-7.597388
1001.851562,-0.378751,-3.184822,-5.308625,-2.838029
1001.855469,-2.759363,2.876027,-2.440062,-1.159461
1001.859375,-4.319444,-3.313855,-0.021261,-12.738493
1001.863281,-7.189792,-11.283811,-9.412396,-5.272193
1001.867188,-8.618276,-4.040934,-8.753161,-15.189477
1001.871094,-5.012063,-10.372126,-6.337695,-5.332707
1001.875000,-11.910246,-12.320057,-8.603779,-6.890550
1001.878906,-6.082248,-15.302339,-7.688453,-12.551805
1001.882812,-4.928329,-7.719290,-15.533476,-7.535479
1001.886719,-8.779031,-1.707356,-0.651279,-15.325165
1001.890625,-5.311335,-10.341242,-0.845909,-8.617435
1001.894531,-0.371402,-4.251661,-7.529003,-4.935047
1001.898438,3.013724,-1.411580,-1.474175,-0.906312
1001.902344,-1.503069,2.467176,-2.675524,1.910436
1001.906250,2.962610,5.786145,4.279528,9.026670
1001.910156,9.532079,4.448943,9.309561,7.676380
1001.914062,-3.547568,7.289122,0.316107,10.160547
1001.917969,5.554435,0.149146,10.781183,12.773750
1001.921875,2.551750,2.881850,12.211136,12.536925
1001.925781,7.640419,10.934255,3.553924,15.122190
1001.929688,1.177859,7.488150,14.176472,8.756788
1001.933594,9.793675,5.653791,8.177038,0.987889
1001.937500,12.318965,-0.316908,4.461732,9.518388
1001.941406,9.275970,4.067722,-2.567516,2.089968
1001.945312,-2.970961,5.424111,1.052670,1.862828
1001.949219,-2.537785,-2.063170,7.703392,0.928865
1001.953125,-8.592344,3.073925,2.540191,1.080714
1001.957031,-6.460278,-14.897068,3.454696,-3.938079
1001.960938,-6.120497,-6.520652,-9.322774,-3.743844
1001.964844,-6.320236,-8.150718,-15.483423,-9.919649
1001.968750,-6.266124,-13.220830,-16.627611,-14.775184
1001.972656,-12.848453,-9.482819,-11.236871,-12.649933
1001.976562,1.192626,-9.259534,-9.070052,-8.505954
1001.980469,-3.142248,-7.436188,-9.474679,-9.639528
1001.984375,-9.250370,-15.169360,-11.623884,-6.223390
1001.988281,-4.214138,-4.870431,-0.193804,-2.231723
1001.992188,-0.532375,-0.263315,1.097436,-10.382555
1001.996094,-8.854820,-8.298016,2.268363,7.654410
1002.000000,1.056285,5.346309,-2.328966,-0.424298
1002.003906,1.234031,12.356740,0.203545,-3.039661
1002.007812,3.149460,7.516033,10.380876,7.171445
1002.011719,6.289734,6.669904,5.926960,2.617679
1002.015625,9.289372,10.099025,6.821047,12.201160
1002.019531,6.650296,16.184797,9.787462,9.960928
1002.023438,11.276754,11.807776,7.684528,9.495383
1002.027344,12.991309,5.905174,10.212001,9.681533
1002.031250,6.575636,9.013061,4.504699,6.914388
1002.035156,19.249317,6.099269,5.878931,5.822747
1002.039062,5.284440,8.932024,4.256653,9.060369
1002.042969,2.766524,4.828182,8.183848,5.635009
1002.046875,2.027455,1.953921,3.546115,6.269912
1002.050781,1.581587,-3.264737,-1.026761,-0.344803
1002.054688,1.676145,2.750526,-6.802305,-5.975144
1002.058594,-6.250484,-9.196999,-0.479611,-8.973375
1002.062500,-3.179238,-7.630622,-2.769582,-6.282398
1002.066406,-13.879840,-7.878544,-11.505462,-5.651836
1002.070312,-9.849777,-7.963593,-11.495875,-10.668903
1002.074219,-10.122691,-15.824309,-8.206847,-11.590274
1002.078125,-9.570063,-3.569705,-12.715344,-14.870189
1002.082031,-10.991675,-5.532533,-3.549905,-13.643586
1002.085938,-9.026726,-9.072541,-9.346617,-11.037349
1002.089844,-7.873204,-6.882756,-6.646780,-4.920212
1002.093750,4.250852,-3.676347,-1.846989,-6.380264
1002.097656,-5.778047,0.516161,-5.123242,-0.290669
1002.101562,-1.011905,5.998803,-4.104399,-2.854659
1002.105469,3.165015,5.528472,4.910877,1.767931
1002.109375,9.806145,17.972729,0.064113,8.679906
1002.113281,4.160395,7.759356,5.929819,11.927183
1002.117188,7.060193,14.175624,10.642749,8.735561
1002.121094,10.599926,7.009828,12.092664,13.317348
1002.125000,5.891828,13.585649,6.639396,9.867123
1002.128906,5.786717,7.031009,9.291330,6.343229
1002.132812,6.926702,14.865009,11.087607,6.544415
1002.136719,1.414657,5.168140,11.012416,8.887259
1002.140625,12.217001,1.597387,8.285316,5.424791
1002.144531,5.542672,0.196379,-1.507506,8.145625
1002.148438,-0.354797,1.953470,-1.531338,-1.775872
1002.152344,4.258423,-10.727638,0.350708,-8.815142
1002.156250,-7.500419,-3.512683,2.652287,-9.911845
1002.160156,2.567539,-6.251997,-6.199173,-6.326802
1002.164062,-12.352035,-11.967517,-15.048759,-3.814466
1002.167969,-2.523622,-6.685280,-4.699321,-11.635070
1002.171875,-3.154365,-11.206644,-13.393427,-15.977941
1002.175781,-9.306118,-10.176741,-0.937346,-6.730789
1002.179688,-18.842875,-10.917011,-2.111628,-13.686249
1002.183594,-10.866663,-6.693001,-13.922055,-11.371904
1002.187500,-10.673200,-6.559394,-4.288341,-8.853126
1002.191406,3.011384,-7.417000,-6.454501,-7.832449
1002.195312,-2.842023,1.081522,2.647912,-1.150350
1002.199219,2.458313,-4.914227,3.860736,1.172526
1002.203125,-6.836282,3.836200,0.100990,-6.630786
1002.207031,-1.351430,7.349165,11.114552,-0.664042
1002.210938,9.266744,6.635446,9.000896,4.114204
1002.214844,11.174417,8.889622,7.008255,10.761350
1002.218750,5.760892,7.360123,5.810131,9.801333
1002.222656,8.748643,11.379080,11.381278,4.473733
1002.226562,8.106339,7.212170,12.173392,7.387039
1002.230469,12.348707,3.282998,13.395896,9.208303
1002.234375,1.666782,12.184619,4.372079,6.017811
1002.238281,11.659742,0.470467,6.501919,-1.351029
1002.242188,1.340273,-2.346509,2.931766,1.669920
1002.246094,3.802940,15.644837,0.755256,1.547578
1002.250000,-0.126550,6.231318,-0.367128,-1.523044
1002.253906,1.533897,-2.969683,-3.581366,2.043297
1002.257812,-4.016198,-0.773455,-4.085646,-5.681691
1002.261719,-4.882693,-12.134211,0.654158,-4.110604
1002.265625,-10.843839,-15.548382,-12.033777,-0.944726
1002.269531,-5.305959,-9.758201,-12.130865,-8.599207
1002.273438,-22.084415,-10.101520,-9.841799,-9.028019
1002.277344,-12.327945,-11.856156,-9.652254,-6.495983
1002.281250,-13.211118,-15.554236,-5.488243,-11.447801
1002.285156,-6.872182,-12.134370,-11.570930,-10.662087
1002.289062,-7.645915,-4.062029,-12.140863,-4.715375
1002.292969,-3.638991,4.117220,5.720415,-3.348604
1002.296875,-2.880396,4.427431,-4.888026,-2.128155
1002.300781,1.241229,1.887085,-1.983389,-1.012497
1002.304688,4.783819,5.978755,1.074250,5.693707
1002.308594,5.647799,3.543940,6.552633,3.470866
1002.312500,8.185177,7.002903,9.673218,11.962348
1002.316406,7.840855,0.576978,3.632451,8.959245
1002.320312,14.265624,8.650514,5.585812,9.405270
1002.324219,2.904993,7.630282,0.682867,6.191375
1002.328125,7.290676,15.092876,7.169645,2.050257
1002.332031,15.025292,11.128618,8.738358,10.746816
1002.335938,11.910907,4.416979,4.849609,12.792646
1002.339844,-0.455151,4.348896,5.844939,15.229436
1002.343750,6.758034,5.898243,7.433501,-0.938247
1002.347656,3.895803,1.905542,5.767937,8.231929
1002.351562,1.320276,4.775814,-2.617234,3.907339
1002.355469,-12.627950,-5.635744,-3.215922,-1.432020
1002.359375,-5.451622,-7.518506,-2.033182,-6.517783
1002.363281,-1.977766,-7.172341,-9.055370,-3.747359
1002.367188,-15.930749,-14.556825,-5.095204,-9.748568
1002.371094,-8.360856,-6.755308,-6.131462,-2.888993
1002.375000,-3.436235,-10.633812,-10.987210,-10.640969
1002.378906,-12.010388,-10.211379,-10.596316,-9.180102
1002.382812,-12.867724,-8.332446,-4.702641,-10.190903
1002.386719,-12.549954,-6.939957,-10.546259,-9.224147
1002.390625,-6.001321,-11.413005,-0.332596,-11.407635
1002.394531,-3.943521,-10.147985,-9.140083,-1.846184
1002.398438,-2.916581,-3.307114,-3.922349,-11.284590
1002.402344,1.409970,-0.437059,3.210798,-0.699687
1002.406250,2.228910,7.825967,-4.410507,1.844037
1002.410156,0.149754,4.231635,6.231812,10.328438
1002.414062,0.087000,18.203765,5.879857,3.710393
1002.417969,8.050390,8.392216,6.278143,6.404916
1002.421875,11.755841,6.389169,12.257143,14.140493
1002.425781,7.735390,13.745498,11.389307,12.257683
1002.429688,7.143449,7.598333,6.926368,7.340108
1002.433594,9.062262,9.461161,5.762079,3.928096
1002.437500,9.103335,10.497085,7.068467,6.643208
1002.441406,7.688986,9.236337,-2.319559,3.952348
1002.445312,-3.067908,-3.333035,-2.606440,3.987862
1002.449219,-8.571748,5.573977,-3.389992,7.127754
1002.453125,-0.327143,3.794502,0.984985,-5.111367
1002.457031,-10.276236,-7.112995,-4.038309,-4.500409
1002.460938,-13.071579,1.745497,-9.190593,-7.775828
1002.464844,-5.174445,-11.117784,-7.091705,-5.630164
1002.468750,-12.059679,-10.820913,-8.174558,-5.258581
1002.472656,-12.134384,-10.298505,0.529403,-20.062172
1002.476562,-20.048580,-5.839769,-6.596066,-14.926291
1002.480469,-11.317650,-11.315860,-4.398174,-13.638218
1002.484375,-12.913493,-3.514322,-14.858195,-4.707041
1002.488281,-0.743937,-6.365768,-2.866296,-10.144038
1002.492188,-6.009878,1.962046,-2.557717,-0.313173
1002.496094,2.107466,-3.067162,4.754771,-2.632587
1002.500000,-3.802186,-7.386400,-2.098519,1.342400
1002.503906,2.806269,1.715073,3.003806,0.678320
1002.507812,1.348053,5.754594,6.917841,5.491277
1002.511719,11.859838,7.034277,9.435948,7.707604
1002.515625,14.249084,11.046965,4.939391,-0.068878
1002.519531,6.112351,7.241493,11.747127,12.470380
1002.523438,12.132308,8.130375,8.221279,9.526101
1002.527344,15.809636,10.244726,8.590263,6.975401
1002.531250,11.861828,10.390670,3.597725,6.837860
1002.535156,11.180386,2.648301,5.081888,9.125336
1002.539062,1.921720,4.405307,8.735819,17.209700
1002.542969,2.745889,6.413248,8.859172,2.567743
1002.546875,1.160212,8.422939,2.028371,7.425892
1002.550781,2.914560,-3.024659,1.283937,0.432416
1002.554688,-3.418775,-0.780221,-3.869144,4.534771
1002.558594,-5.405498,-13.162275,-9.528504,-12.414684
1002.562500,-11.015455,-13.254305,-8.305955,-7.040006
1002.566406,-13.102990,-2.946018,-16.035981,-12.942171
1002.570312,-11.477722,-13.897806,-7.888110,-5.680475
1002.574219,-6.458176,-7.015560,-6.334552,-8.245599
1002.578125,-7.538359,-6.474549,-5.382308,-15.058855
1002.582031,-12.112780,-9.946262,-14.199763,-5.729593
1002.585938,-9.018666,-12.858436,-7.452240,-9.900993
1002.589844,0.265076,-7.469469,1.866237,-8.347600
1002.593750,3.567398,-4.788499,-4.124303,-12.700762
1002.597656,2.608196,-1.063242,-8.738534,-3.981356
1002.601562,5.455273,8.880970,3.162384,-1.417198
1002.605469,5.706569,0.995227,1.973479,3.378321
1002.609375,7.839264,9.788147,9.213287,9.950601
1002.613281,4.616094,7.296617,15.411592,7.554079
1002.617188,9.621147,2.400764,10.610437,11.177947
1002.621094,14.319681,13.179611,6.416105,16.856688
1002.625000,16.692326,6.799667,11.398573,6.592861
1002.628906,7.254771,8.249546,7.173534,14.476409
1002.632812,7.168248,12.056508,12.272524,5.161763
1002.636719,5.356185,8.522322,1.532931,13.737212
1002.640625,7.525302,0.163279,7.180044,7.375832
1002.644531,0.581094,4.949851,3.370481,-0.648617
1002.648438,-0.736999,3.258412,-5.926877,-0.110739
1002.652344,-11.775077,-5.762052,-1.979011,-6.781943
1002.656250,-7.041517,-1.409394,1.542114,-4.027254
1002.660156,-11.377360,0.976608,-12.856067,-14.414225
1002.664062,-2.110838,-15.265539,-2.404769,-7.760680
1002.667969,-13.438714,-11.940608,-5.269452,-10.655599
1002.671875,-7.088428,-7.250957,-11.138295,-13.102536
1002.675781,-10.289005,-7.683909,-11.967569,-11.909654
1002.679688,-2.723102,-8.109754,-10.658856,-5.470849
1002.683594,-12.993683,-11.747344,-14.605138,-7.527725
1002.687500,-3.060299,-1.707685,-4.640787,-12.696754
1002.691406,-7.175832,-3.199551,-0.733549,-3.739861
1002.695312,-10.894971,-1.927371,-3.483812,-3.976425
1002.699219,6.230594,-3.937973,9.867048,3.691404
1002.703125,-0.849983,-6.287095,-3.696070,1.861033
1002.707031,5.168068,1.690526,6.690471,9.701228
1002.710938,10.232453,5.256721,8.544026,12.492299
1002.714844,4.322109,0.968427,8.569954,7.479032
1002.718750,4.072172,6.304490,6.678752,11.413584
1002.722656,4.359646,9.322255,8.070603,9.952834
1002.726562,11.232433,6.157853,17.744414,7.575698
1002.730469,9.143309,10.786309,6.414584,10.950216
1002.734375,9.522659,3.143914,4.840557,-1.018192
1002.738281,2.132707,7.303369,8.398158,8.660353
1002.742188,7.874606,6.664443,4.038527,7.718760
1002.746094,6.725800,4.046319,6.228657,3.711940
1002.750000,-0.764082,3.592744,11.671259,2.730166
1002.753906,-5.391722,-6.097953,-7.461406,-1.537105
1002.757812,-8.855754,1.716396,-7.163358,-2.762537
1002.761719,-13.692961,-5.178706,-6.980754,-0.898568
1002.765625,-6.968964,-14.385011,-8.654421,0.456804
1002.769531,-20.372851,-8.068644,-15.692594,-5.935201
1002.773438,-4.010113,-5.890311,-11.463288,-10.179083
1002.777344,-11.603086,-6.540294,-7.159622,-5.547452
1002.781250,-11.303050,-10.290943,-7.960125,-2.996345
1002.785156,-7.330849,-8.886413,-7.734918,-2.403711
1002.789062,-11.411789,-0.942522,-4.775268,-5.806251
1002.792969,-1.758445,-4.457495,-5.435840,-4.600132
1002.796875,-2.470005,-7.423438,4.624265,2.901617
1002.800781,5.902107,0.497218,-4.025635,4.334283
1002.804688,-1.583819,0.806172,1.747937,0.741344
1002.808594,8.543926,4.148317,1.234459,6.191160
1002.812500,9.092773,3.510275,9.841025,15.490696
1002.816406,10.400052,0.199294,7.406833,10.074877
1002.820312,3.092170,6.331231,14.855021,0.278667
1002.824219,8.038221,14.190532,3.179258,7.663364
1002.828125,10.537846,10.709777,11.955172,11.796583
1002.832031,9.362363,-0.912033,12.834431,14.229006
1002.835938,6.770512,7.461148,4.162604,4.125113
1002.839844,1.439727,3.839503,8.743743,15.701767
1002.843750,4.147978,1.323000,1.852129,6.623072
1002.847656,-1.988714,2.050154,-0.715680,-2.770970
1002.851562,0.315849,-1.043815,-3.195903,5.049253
1002.855469,-3.986605,-3.348345,-1.331910,3.724434
1002.859375,-5.512008,-9.414984,-4.965647,-5.179799
1002.863281,-8.231843,-8.555103,-4.663150,-5.847779
1002.867188,-11.416965,-10.330618,-8.687348,-7.670294
1002.871094,-4.783383,-8.434733,-6.650078,-7.641549
1002.875000,-13.671360,-7.078308,-5.718064,-9.402060
1002.878906,-12.889002,-8.380358,-10.569863,-17.096000
1002.882812,-9.252275,-5.616638,-10.951714,-8.681894
1002.886719,-0.723448,-6.409418,-11.474004,-9.690870
1002.890625,2.862789,-5.533770,-11.740033,-4.838816
1002.894531,1.842993,-5.692976,2.466023,2.104715
1002.898438,-2.644354,5.348215,0.504100,-1.004455
1002.902344,5.004989,1.280730,-0.626732,-0.837229
1002.906250,-0.882406,11.072354,6.112231,0.168011
1002.910156,3.711137,1.281471,11.285000,17.220929
1002.914062,5.398332,18.783422,0.496192,10.450151
1002.917969,7.314836,10.452059,10.321763,10.266943
1002.921875,7.918308,9.358971,12.284153,6.502764
1002.925781,12.264417,13.366290,10.061541,7.147687
1002.929688,0.333596,0.589397,10.956757,2.335276
1002.933594,8.815361,5.183865,5.920573,16.781445
1002.937500,11.727675,11.274783,11.035623,4.246083
1002.941406,8.757257,8.639329,-0.288353,0.104840
1002.945312,4.488462,-0.364753,4.014253,4.923503
1002.949219,-4.104186,1.256666,0.479180,7.302717
1002.953125,-6.743718,-9.682868,3.097473,-1.448199
1002.957031,-0.833138,-4.054952,-6.211418,0.429067
1002.960938,-4.883372,-5.317760,-1.452899,-1.873113
1002.964844,-13.801813,-7.402365,-3.877138,-7.064205
1002.968750,-5.664004,-9.222828,-2.878434,-9.207230
1002.972656,-15.450606,-8.525927,-15.014086,-15.149162
1002.976562,-4.129090,-14.210445,-15.223809,-21.038175
1002.980469,-14.355538,-12.894662,-12.622116,-6.607820
1002.984375,-8.741917,-7.357787,-9.506153,-8.233713
1002.988281,-6.483383,-4.487059,-10.031560,-13.145032
1002.992188,-0.369208,-4.804325,-3.668115,-4.736395
1002.996094,-3.335250,9.423191,-3.896391,-7.631548
1003.000000,-0.473421,-5.226166,-4.008458,-2.695344
1003.003906,1.372935,5.253110,-2.175033,2.843292
1003.007812,5.234870,5.943901,7.228704,7.886210
1003.011719,-4.371060,7.369332,5.885098,9.398924
1003.015625,2.684238,7.151303,6.764935,14.660118
1003.019531,2.228405,12.842516,2.354236,4.943699
1003.023438,10.218119,11.171492,5.421392,9.398764
1003.027344,11.710034,12.438823,11.250322,15.369614
1003.031250,11.116805,11.938207,20.119890,12.630282
1003.035156,6.237587,4.092878,3.359334,2.639860
1003.039062,7.764387,5.772312,10.729292,7.368260
1003.042969,5.594568,9.809261,1.463725,7.071894
1003.046875,5.075983,3.509799,3.608595,7.951439
1003.050781,-1.701283,6.817590,5.427052,7.053584
1003.054688,3.269457,-1.977873,-4.814709,1.123750
1003.058594,-4.528436,1.648222,-0.299334,-6.743849
1003.062500,-7.279775,-10.561431,-6.394332,-7.894393
1003.066406,-8.699045,-15.589116,-5.811315,-6.939915
1003.070312,-14.903464,-5.600332,-9.790170,-14.942038
1003.074219,-9.248489,-12.712406,-13.492597,-12.955368
1003.078125,-15.465980,-10.671266,-12.260589,-10.157972
1003.082031,-13.080769,-3.398611,-4.946065,-13.690152
1003.085938,-12.303655,1.060168,-1.220213,-13.446401
1003.089844,-10.581061,-16.153540,-12.637673,-4.108072
1003.093750,-0.982543,-4.643596,1.829010,-1.169359
1003.097656,0.236003,-1.238298,-1.300659,-3.693703
1003.101562,-1.312204,-1.687667,-3.997925,3.790472
1003.105469,5.192540,0.252635,7.148963,-0.362663
1003.109375,5.656166,8.143424,10.664138,-0.765319
1003.113281,3.980413,6.539492,15.852694,5.863946
1003.117188,14.427808,11.949579,11.078955,8.900145
1003.121094,8.518457,7.509472,15.237322,5.002285
1003.125000,8.437468,9.314253,9.838793,6.908560
1003.128906,11.002645,4.785806,3.252168,6.759195
1003.132812,9.932347,5.897239,9.372606,7.787279
1003.136719,11.099314,3.177876,5.674589,8.780852
1003.140625,8.926855,2.331138,9.520034,4.879774
1003.144531,3.341571,6.667882,-2.692979,3.332751
1003.148438,-2.825696,-1.285026,-1.903565,-0.771281
1003.152344,3.247886,0.049130,-2.484061,-2.453216
1003.156250,-1.734731,-4.416407,-5.310202,-11.001749
1003.160156,-9.029065,-8.361455,-6.391115,-9.969895
1003.164062,-9.104342,-11.192372,-12.907976,-1.667776
1003.167969,-12.340042,-11.044873,-4.130992,-16.723030
1003.171875,-3.436003,-5.369410,-12.675614,-15.271636
1003.175781,-11.824917,-10.617902,-11.065285,-12.164035
1003.179688,-15.197165,-12.361915,-12.677790,-14.358249
1003.183594,-10.514976,-0.392154,-9.709878,-10.459756
1003.187500,-6.618574,-9.515887,-1.785555,-6.654357
1003.191406,-6.113161,-5.295398,-13.577799,-8.739974
1003.195312,-4.020142,0.191637,-2.419995,0.139764
1003.199219,4.331744,-0.351690,4.948568,-1.614407
1003.203125,6.689805,4.398535,6.244539,0.449115
1003.207031,-1.938044,2.248905,5.428423,-2.156490
1003.210938,1.692326,13.809546,8.615488,3.772204
1003.214844,8.178037,11.823078,9.354680,6.559864
1003.218750,1.693981,7.908661,15.500306,6.352006
1003.222656,8.278029,8.770265,11.663784,10.404277
1003.226562,13.535656,14.249181,8.644662,12.170714
1003.230469,6.403933,11.718819,10.737959,2.800812
1003.234375,4.923200,3.337050,8.553180,9.090577
1003.238281,13.047953,11.180256,12.331368,8.149652
1003.242188,2.796373,10.026827,1.648288,6.121752
1003.246094,1.029281,2.503207,4.532540,-1.955097
1003.250000,-0.333229,5.642079,5.783532,1.147622
1003.253906,-1.947207,-2.802461,-5.401981,-3.343459
1003.257812,-0.846746,-2.822549,2.698106,-4.743059
1003.261719,-8.182488,-7.052767,-3.390998,-8.473176
1003.265625,-6.035255,-8.468298,-7.967780,-8.500485
1003.269531,-11.694587,-17.908388,-9.901156,-16.166977
1003.273438,-17.141248,-3.771154,-9.488875,-10.732711
1003.277344,-5.714540,-12.932125,-19.331238,-10.895560
1003.281250,-9.255849,-5.946091,-4.271728,-6.870764
1003.285156,-7.335581,-3.693196,-7.332150,-13.151872
1003.289062,-5.233034,-9.433342,-0.203108,-4.432135
1003.292969,-4.641363,-3.982928,-0.507739,-9.848148
1003.296875,7.150673,-0.017839,-12.094640,5.038968
1003.300781,2.516244,-4.014473,-3.531941,-0.134245
1003.304688,4.554941,5.751058,1.683210,6.080641
1003.308594,3.644527,5.981260,6.585258,4.140252
1003.312500,5.120901,6.539342,13.697923,11.519617
1003.316406,8.643549,8.719457,7.879908,10.356929
1003.320312,11.737740,10.269396,8.134751,12.604101
1003.324219,6.048370,6.159874,6.005485,7.091523
1003.328125,8.408676,14.717890,2.440600,9.362442
1003.332031,12.563776,1.618555,3.687643,4.304363
1003.335938,1.686152,2.582332,7.144304,13.994169
1003.339844,1.304640,7.507865,5.343918,10.348337
1003.343750,3.692729,2.438618,4.374889,-1.640017
1003.347656,-2.040263,4.170786,0.936165,6.243132
1003.351562,0.706821,7.890955,4.838836,-1.003063
1003.355469,1.618856,-6.012054,3.533324,-5.417709
1003.359375,-6.088672,-3.060236,-8.050456,-6.536316
1003.363281,-9.167315,-4.598788,-9.338114,-3.045176
1003.367188,-11.661329,-9.016566,-5.934147,-11.918923
1003.371094,-8.843936,-5.902097,-14.369186,-12.349545
1003.375000,-6.468593,-6.245465,-17.937206,-4.130993
1003.378906,-13.723342,-4.744049,-10.272215,-8.226917
1003.382812,-7.872117,-15.461080,-11.377623,-12.118860
1003.386719,-8.071365,-11.777493,-7.706722,-6.696094
1003.390625,0.888539,-4.988900,-7.134602,-4.214994
1003.394531,-1.292661,-1.666629,-8.332195,-6.226292
1003.398438,-9.991252,3.884257,1.719815,-0.543932
1003.402344,1.179202,1.410018,9.622761,8.890473
1003.406250,3.351080,7.933412,0.657044,2.419627
1003.410156,1.526268,3.169704,12.047888,6.933937
1003.414062,7.670337,9.595997,9.583432,-0.925459
1003.417969,8.587532,-0.098180,7.028386,10.989732
1003.421875,11.236489,9.886417,9.737833,7.647775
1003.425781,7.641361,5.288994,15.088555,17.415310
1003.429688,13.977140,14.566482,3.232339,13.309636
1003.433594,6.725793,5.953414,9.955264,8.983065
1003.437500,-0.318143,10.939036,8.616179,11.648766
1003.441406,0.280504,7.096435,5.379177,2.249079
1003.445312,6.790006,3.770726,1.408823,2.132315
1003.449219,-1.747875,7.391072,14.197139,2.142619
1003.453125,-2.638202,1.027946,-0.510146,1.355108
1003.457031,-1.599203,-6.485114,6.444688,3.544615
1003.460938,-7.176975,-9.146911,-5.533695,-11.381176
1003.464844,-4.664734,-5.795848,-4.787483,-15.871754
1003.468750,-4.693845,-13.368081,-9.032020,-6.537231
1003.472656,-10.270979,-11.537840,-12.576340,-9.125790
1003.476562,-11.770671,-9.394576,-8.399245,-4.446255
1003.480469,-15.903997,-4.585895,-6.772446,-12.191947
1003.484375,-10.558185,-7.211052,-6.608531,-10.485000
1003.488281,2.316556,-3.182632,-2.881829,-2.695573
1003.492188,0.619468,-2.909260,-6.591274,-1.794554
1003.496094,-5.617536,0.078499,-9.731744,5.089066
1003.500000,3.082252,1.784353,-0.344196,-1.792743
1003.503906,1.154952,-0.089996,-3.362429,8.451116
1003.507812,1.152300,0.821039,5.402838,3.194652
1003.511719,8.086134,8.788865,4.567428,8.922300
1003.515625,4.433998,4.159998,6.159632,3.447059
1003.519531,10.429565,14.688400,7.397460,11.911694
1003.523438,6.905520,11.063010,8.873885,10.016911
1003.527344,10.043527,8.764445,10.594883,10.542779
1003.531250,4.860924,9.878576,7.943271,5.403471
1003.535156,11.187320,11.979247,-1.452208,8.687071
1003.539062,2.937529,3.219658,5.690099,3.091762
1003.542969,3.496805,-0.785098,8.935708,4.220310
1003.546875,-1.632575,1.817791,-0.401787,7.007032
1003.550781,-3.907320,-6.851574,2.670486,-0.484004
1003.554688,-4.637531,-5.721820,0.202233,-3.814101
1003.558594,-5.413270,1.169675,-11.510656,0.925207
1003.562500,1.128989,-2.895028,-10.289329,-4.612772
1003.566406,-10.101757,-6.581667,-5.062599,-9.465588
1003.570312,-8.517308,-9.014541,-9.953791,-6.825628
1003.574219,-10.578976,-8.091017,-7.927830,-12.759367
1003.578125,-6.813785,-2.250723,-8.901986,-10.353301
1003.582031,-13.097935,-5.521641,-13.372525,-10.384904
1003.585938,-11.733618,0.173781,-4.379097,-7.502493
1003.589844,-4.262897,-4.740049,-8.319641,-5.322825
1003.593750,0.921529,-5.414611,-3.428673,-8.856595
1003.597656,1.816162,-2.781729,-1.102971,-7.876191
1003.601562,-0.156318,-3.027964,7.431554,3.759476
1003.605469,8.436306,5.741617,-0.568747,-3.740395
1003.609375,4.598668,5.203579,9.667718,11.504504
1003.613281,7.762664,12.002068,3.502208,6.946642
1003.617188,9.170826,4.077717,10.169957,8.602504
1003.621094,7.208175,10.428800,6.522239,14.368183
1003.625000,12.849626,8.482622,4.383476,7.312096
1003.628906,9.341101,17.158171,-0.540617,14.831191
1003.632812,11.946820,6.617356,7.734510,3.641748
1003.636719,5.799998,11.428480,6.512983,3.725375
1003.640625,4.724063,9.237742,6.591707,12.282719
1003.644531,0.624288,5.043314,4.134514,0.631932
1003.648438,0.816377,0.650066,-4.064393,1.918024
1003.652344,-3.132464,-2.467713,0.569390,-1.030513
1003.656250,-10.624075,-4.066609,-2.747793,-4.692092
1003.660156,-5.239703,-9.083463,-8.795898,-1.752432
1003.664062,-1.924175,-9.767750,-0.486124,-9.427380
1003.667969,-8.748343,-8.723092,-11.103281,-12.168306
1003.671875,-9.563175,-7.104534,-12.369070,-5.545276
1003.675781,-5.185876,-16.756337,-6.246958,-10.782275
1003.679688,-5.360834,-11.948910,-14.609634,-10.449805
1003.683594,-13.507881,-6.273648,-1.121047,-10.463095
1003.687500,-13.095179,-9.013314,-6.940909,-6.722183
1003.691406,-2.517214,-5.063598,-7.064729,-1.142206
1003.695312,-2.826860,-3.606424,-5.105309,-7.618944
1003.699219,0.307969,0.166623,-2.599724,-4.370598
1003.703125,6.589249,1.908473,-2.718424,3.666912
1003.707031,6.410679,8.909944,-5.594448,7.640366
1003.710938,2.396603,6.350745,8.137053,13.077990
1003.714844,6.549675,17.620211,5.679668,9.580163
1003.718750,10.697452,5.966920,10.240127,12.975228
1003.722656,14.907731,12.233391,15.753355,11.894080
1003.726562,10.525644,6.905693,12.440594,12.290122
1003.730469,10.924751,14.337060,5.149751,5.565693
1003.734375,12.319479,10.717788,11.779179,7.052809
1003.738281,11.487779,3.808083,8.833558,7.543911
1003.742188,2.633221,10.345352,3.512069,2.890329
1003.746094,11.328551,7.763882,2.847723,9.955502
1003.750000,-0.379093,1.824800,1.476300,-5.556616
1003.753906,-1.930399,0.645264,-0.368277,-5.074744
1003.757812,-2.854795,-5.083674,-4.551112,-3.428284
1003.761719,-9.682497,-1.553289,-3.702458,-8.704487
1003.765625,-7.781567,-14.455308,-5.743551,-8.477890
1003.769531,-12.513488,-20.237615,-15.347406,-6.069126
1003.773438,-9.444887,-20.309826,-10.186358,-6.923524
1003.777344,-10.709462,-16.505046,-0.378427,-5.695050
1003.781250,-11.634852,-5.515712,-6.331283,-11.493024
1003.785156,-6.770547,-5.121771,-8.588898,-6.834215
1003.789062,-9.484509,2.704533,-4.829704,-3.556858
1003.792969,-2.606659,-4.937808,-0.418583,-3.401017
1003.796875,3.097558,-4.747171,2.268179,-0.917123
1003.800781,-2.403886,-3.561730,1.788913,-0.052480
1003.804688,0.575921,1.764306,9.397399,2.808906
1003.808594,14.173548,5.287289,3.193120,6.866050
1003.812500,8.201373,6.362770,1.543328,7.298144
1003.816406,7.244790,8.292561,3.880580,12.968198
1003.820312,17.399352,11.521474,12.919257,9.424467
1003.824219,5.619260,12.715386,7.105085,11.670235
1003.828125,20.783343,13.004855,10.310255,6.993093
1003.832031,3.681304,7.604887,9.261719,4.109527
1003.835938,11.686489,9.616446,6.142318,13.692610
1003.839844,6.421835,0.356952,11.313260,2.226271
1003.843750,2.234675,3.056249,4.104022,-3.714453
1003.847656,-5.408693,1.958585,0.929392,4.033118
1003.851562,3.442223,-2.584966,1.731300,0.743862
1003.855469,4.093708,-9.473851,-6.121321,-1.348012
1003.859375,-7.011146,-1.765410,-5.713349,-8.109334
1003.863281,-7.626092,-4.071129,-3.086447,-6.585962
1003.867188,-4.956903,-13.728065,-9.125387,-9.440466
1003.871094,-14.016100,-11.815663,-7.581086,-8.982407
1003.875000,-4.374725,-7.444475,-6.467450,-9.645071
1003.878906,-5.501377,-5.522867,-5.513078,-9.075821
1003.882812,-6.762767,-7.150308,-6.513809,-10.790146
1003.886719,-8.370786,-6.402674,-5.481485,-11.652718
1003.890625,-11.015492,-1.314006,-11.369350,-0.933655
1003.894531,0.448301,-3.882606,-1.193524,-5.188566
1003.898438,-1.358569,3.042998,0.723692,-10.566888
1003.902344,-5.914873,2.248482,-0.983801,6.124593
1003.906250,3.343249,9.596814,5.864894,3.583724
1003.910156,8.055394,2.313853,6.372726,4.044949
1003.914062,6.155046,12.582327,10.520536,5.768510
1003.917969,16.158927,4.951702,8.811917,6.707418
1003.921875,10.416445,11.825811,11.195591,14.128020
1003.925781,9.200970,10.986523,8.640801,8.083803
1003.929688,15.865810,14.440104,10.245872,8.765673
1003.933594,6.923922,9.293535,7.369346,9.422908
1003.937500,3.914172,11.580232,8.136284,3.466153
1003.941406,5.765274,8.920695,5.896147,2.228839
1003.945312,8.797931,0.130681,1.390254,9.643479
1003.949219,-1.013948,0.437856,-1.345895,2.894718
1003.953125,-10.471029,-7.169533,2.761579,-1.805987
1003.957031,-0.791064,1.605188,1.581487,-5.317883
1003.960938,-4.059363,-12.609591,-8.950977,-3.467331
1003.964844,-9.891664,-6.193581,-9.531510,-17.958771
1003.968750,-17.905711,-14.416680,-9.456343,-7.013001
1003.972656,-4.332282,-8.593241,0.450375,-16.538661
1003.976562,-12.038368,-6.270788,-13.020616,-13.572738
1003.980469,-16.384539,-11.511128,-10.834164,-9.621900
1003.984375,-13.906942,-11.049205,-16.026944,-8.229996
1003.988281,-10.505316,-7.060030,-7.279246,-4.161461
1003.992188,-3.829836,-8.915560,-6.098598,-11.342212
1003.996094,-5.057833,2.330024,-0.521852,-1.628885
1004.000000,-1.857676,-3.857740,-5.611027,-0.742240
1004.003906,-1.454636,4.474416,1.808188,2.398737
1004.007812,8.563467,5.301457,5.618111,5.443637
1004.011719,8.542887,15.601686,-0.010196,-2.101313
1004.015625,7.844089,9.849379,4.617395,7.285830
1004.019531,8.216282,15.492461,14.671194,3.510581
1004.023438,12.359918,8.346057,2.986618,10.421704
1004.027344,11.772675,8.469726,1.142952,12.069855
1004.031250,8.415963,0.877614,6.672972,12.659256
1004.035156,9.987047,4.886061,4.239284,9.230703
1004.039062,-0.417477,12.180942,10.168402,4.752298
1004.042969,0.997197,6.664865,1.786311,11.678669
1004.046875,1.066561,3.464864,13.291387,5.209763
1004.050781,-5.174237,3.850064,1.938692,-1.502971
1004.054688,-3.000162,-2.674102,-4.908279,-7.329888
1004.058594,-0.887351,-4.888614,-5.185152,-2.332529
1004.062500,-7.803087,-3.619202,-0.316346,-10.335321
1004.066406,-12.938426,-4.339996,-11.825159,-15.283994
1004.070312,-2.757454,-9.610334,-13.155519,-13.121120
1004.074219,-5.780396,-10.420722,-7.808297,-7.040275
1004.078125,-5.647035,-10.993952,-15.140316,-4.326170
1004.082031,-13.943315,-6.493406,-8.482845,-9.350707
1004.085938,-11.366680,-13.260784,-6.764964,-12.112071
1004.089844,-1.154062,-1.680808,-3.439453,-4.803357
1004.093750,-6.318219,-9.180493,3.192832,-5.493390
1004.097656,2.452501,-3.043451,-3.820073,-0.238111
1004.101562,1.699624,-5.011391,0.300916,10.204187
1004.105469,0.242412,4.269835,1.632759,9.537652
1004.109375,9.665654,-0.151044,15.880705,7.401841
1004.113281,8.633114,2.846633,0.592948,6.137144
1004.117188,4.339489,10.323652,4.067505,15.166639
1004.121094,11.649399,12.969587,9.101514,10.643663
1004.125000,10.402218,6.956593,12.698614,9.208670
1004.128906,13.690731,8.661475,7.901499,13.192784
1004.132812,6.334911,8.056750,6.154543,8.815667
1004.136719,7.057865,5.489125,9.392902,2.325062
1004.140625,8.254574,6.125101,3.629209,7.340708
1004.144531,-2.087790,6.783048,5.129160,0.272756
1004.148438,3.949023,-4.673060,3.764120,1.271512
1004.152344,3.285056,6.319760,-2.562346,-2.451164
1004.156250,0.053223,-6.449570,-8.574897,-5.533228
1004.160156,-9.153394,-8.569105,-1.785689,-1.210435
1004.164062,-13.716394,-11.568466,-1.458905,-7.379142
1004.167969,-5.058575,-8.148820,-9.184578,-11.230152
1004.171875,-7.595845,-13.405830,-5.164156,-2.776483
1004.175781,-13.363491,-14.513987,-6.053578,-7.032282
1004.179688,-9.797056,-11.367906,-10.017381,-10.673315
1004.183594,-7.161290,-10.345659,-10.594208,-8.015557
1004.187500,-18.316290,-2.935963,-5.735002,-4.679722
1004.191406,-0.250374,-8.833666,-8.432544,1.064700
1004.195312,-11.431239,-4.803007,-3.208174,-1.409388
1004.199219,-5.277778,-0.127361,0.492888,1.694943
1004.203125,10.930818,4.226602,2.426114,3.343507
1004.207031,5.101742,5.695619,-0.217602,6.233145
1004.210938,4.785809,10.072225,9.570954,13.427255
1004.214844,7.105606,4.660406,5.384902,12.605413
1004.218750,10.588370,0.389023,6.935361,8.875112
1004.222656,5.639903,14.316350,8.869940,9.817416
1004.226562,12.848513,15.646791,12.324611,4.073041
1004.230469,4.473140,6.745900,5.686764,12.887188
1004.234375,7.385773,12.844592,7.917532,14.699067
1004.238281,8.226763,10.944386,1.809298,8.450489
1004.242188,0.195847,6.193660,6.989805,3.738470
1004.246094,-2.042187,6.014386,-3.197762,-0.754059
1004.250000,-4.011775,-4.490603,-0.455931,0.248095
1004.253906,-7.661836,-2.408064,1.749024,-0.700329
1004.257812,0.818667,-9.588842,-10.790886,-4.480075
1004.261719,-10.819860,-5.443711,-5.707942,-9.534056
1004.265625,-14.147046,-9.603338,-2.440090,-5.027749
1004.269531,-14.335934,-0.966282,-16.228497,-9.324912
1004.273438,-11.684285,-9.912016,-12.322037,-13.651457
1004.277344,-8.894748,-5.979420,-5.503556,-11.857649
1004.281250,-6.763494,-2.352877,-9.766895,-9.354620
1004.285156,-4.859593,-14.974573,-6.730075,-7.222094
1004.289062,-5.925668,-14.409902,-9.360007,-10.406727
1004.292969,-10.533404,-8.047017,2.926932,-12.024281
1004.296875,-4.873765,1.595259,-1.256562,-2.691361
1004.300781,-3.260345,-3.645482,4.687581,0.946084
1004.304688,0.065897,7.243640,6.818423,2.571083
1004.308594,4.292864,6.756585,4.963705,8.440360
1004.312500,8.640356,11.026832,4.543452,9.358433
1004.316406,-2.825478,11.967244,9.013502,8.982243
1004.320312,8.775874,6.000057,13.048181,4.513559
1004.324219,9.201008,7.049024,5.874026,10.502930
1004.328125,12.951814,4.502439,5.995361,11.395028
1004.332031,13.599720,10.084825,10.527042,11.617793
1004.335938,8.423749,4.082068,12.438566,-3.514001
1004.339844,2.232499,9.748469,1.283641,13.339424
1004.343750,2.020589,9.761900,5.200085,5.127769
1004.347656,-0.623080,3.088061,5.118047,0.718218
1004.351562,-3.860472,-0.864363,1.285565,2.076584
1004.355469,-6.272185,-6.387053,-4.451280,-5.799597
1004.359375,-6.748098,-6.001355,0.918092,-14.485835
1004.363281,-3.431961,-11.473166,-10.366098,1.930803
1004.367188,-13.764680,-7.272581,-6.935891,-10.742230
1004.371094,-12.612688,-14.800049,1.605818,-5.678191
1004.375000,-10.760476,-13.062389,-8.357531,-10.544130
1004.378906,-8.540432,-8.300232,-9.336042,-15.526089
1004.382812,-14.687867,-8.683160,-10.758676,-8.314146
1004.386719,-4.361720,-7.464421,-7.532556,-13.363582
1004.390625,-11.457752,-10.797460,-4.706708,-3.911895
1004.394531,-4.469841,3.003967,-0.824498,-8.346819
1004.398438,4.344512,-4.799061,-9.090061,-0.148715
1004.402344,-1.092827,-0.981052,3.377968,-0.978223
1004.406250,3.291448,2.979932,-1.747945,4.166506
1004.410156,4.144186,12.761532,8.118934,-2.065663
1004.414062,9.558448,6.884951,13.093111,2.615576
1004.417969,16.198160,11.411595,8.828687,4.933534
1004.421875,7.635607,10.960833,6.575030,10.593157
1004.425781,11.528587,15.722664,17.196927,11.128444
1004.429688,11.442467,14.404979,4.132214,13.238945
1004.433594,5.104429,4.144068,8.967417,13.214689
1004.437500,7.428084,10.399061,4.396958,-0.990423
1004.441406,5.782620,4.122834,-1.336825,4.671373
1004.445312,-0.584079,3.617444,-0.123201,5.992111
1004.449219,-3.879898,4.075035,3.448202,-0.317739
1004.453125,5.467906,-2.579871,-7.917423,2.332545
1004.457031,-1.051932,-5.146631,-1.138182,0.681797
1004.460938,-8.133994,-7.991189,-12.067295,-2.395008
1004.464844,-16.195169,-11.524576,-2.166457,-7.784903
1004.468750,-12.075019,-5.613012,-9.374215,-11.055257
1004.472656,-16.814821,-5.578263,-12.216443,-11.362916
1004.476562,-18.404777,-14.167369,-8.045574,-6.957269
1004.480469,-8.557869,-4.347561,-4.301128,-6.736953
1004.484375,-9.239848,-8.367193,-15.735450,-7.679445
1004.488281,-9.896018,-7.231226,-4.859581,-2.043571
1004.492188,-2.755671,-5.353539,-1.522435,0.868940
1004.496094,-5.000157,-0.730619,3.562222,-5.738994
1004.500000,-3.336993,3.095522,-3.204180,9.280308
1004.503906,-3.565841,3.156891,8.045548,-2.229209
1004.507812,3.491407,6.218538,6.623436,6.070324
1004.511719,4.721917,3.138129,8.063091,5.911021
1004.515625,15.301892,3.606012,-0.965218,8.604273
1004.519531,9.470389,10.784774,10.862721,9.100613
1004.523438,11.442495,8.716274,11.534138,9.110097
1004.527344,16.263585,9.148736,7.476485,4.265498
1004.531250,3.129395,5.031217,8.829314,12.781233
1004.535156,9.080499,8.226156,9.607306,6.217326
1004.539062,5.573512,8.556286,1.660241,8.157483
1004.542969,7.395955,1.541695,3.801028,3.359312
1004.546875,8.744910,-2.050070,-2.319157,12.688201
1004.550781,-1.282765,0.196233,-0.735993,1.584707
1004.554688,1.736496,-1.455716,-6.243033,-3.733393
1004.558594,4.407728,-3.006916,-6.097450,1.551029
1004.562500,-6.060733,-13.740726,-9.159833,-6.496255
1004.566406,-11.857389,-6.417609,-1.390306,-5.131476
1004.570312,-10.924365,-11.871011,-12.819578,-14.873909
1004.574219,-10.008913,-16.052333,-12.851159,-13.194194
1004.578125,-5.664111,-11.740536,-6.881374,-12.990361
1004.582031,-14.175208,-6.907087,-3.750754,-7.038846
1004.585938,-9.317438,-11.468076,-6.450727,-5.593769
1004.589844,-7.728729,-3.546988,-0.514574,-0.183452
1004.593750,-5.782911,-3.477210,-11.758795,2.256593
1004.597656,-1.796991,-3.066130,-6.073112,2.120880
1004.601562,5.257697,1.956741,4.600583,2.250845
1004.605469,0.462375,-1.529275,4.976117,11.506064
1004.609375,6.121699,5.154334,-4.159504,5.630420
1004.613281,6.972585,4.241752,5.482446,0.236632
1004.617188,11.801019,1.509663,8.024967,11.161809
1004.621094,9.779798,12.720590,3.336668,11.971701
1004.625000,8.669414,11.775033,8.316291,3.362176
1004.628906,11.264331,3.641394,10.532433,7.290791
1004.632812,11.453649,15.193087,11.781729,15.592348
1004.636719,2.754396,2.914450,-0.581434,2.103430
1004.640625,-0.113716,1.324250,7.724039,-2.183340
1004.644531,4.659479,-0.997153,-0.770253,9.838462
1004.648438,4.038752,-6.866284,5.570751,0.597302
1004.652344,-2.769513,-1.609900,-8.505191,-1.767320
1004.656250,-7.533538,-10.924853,0.148724,-6.000901
1004.660156,0.062182,-7.751045,-10.167747,2.951224
1004.664062,-9.630122,-17.157572,-11.468697,-3.772627
1004.667969,-7.632838,-5.732909,-12.537627,-5.159904
1004.671875,-16.438497,-7.664281,-8.665336,-9.935140
1004.675781,-3.952507,-14.365800,-6.918077,-5.909862
1004.679688,-12.593739,-15.354601,-13.092430,-4.027114
1004.683594,-16.255692,-8.440479,-9.951874,-5.245431
1004.687500,-7.735081,-10.143168,-10.063698,-10.099616
1004.691406,-5.093207,1.154620,-4.926535,-6.636986
1004.695312,-4.251993,-5.691335,-8.867883,-4.961505
1004.699219,-4.340226,-5.188606,2.560101,2.053229
1004.703125,1.992423,6.052179,-3.248815,8.141074
1004.707031,7.250930,6.896595,-0.164344,6.820448
1004.710938,9.813625,8.579839,7.365771,10.654594
1004.714844,13.580780,9.160452,6.762924,14.853481
1004.718750,9.621511,4.227497,15.150078,9.041249
1004.722656,16.195401,9.451999,12.346576,3.973830
1004.726562,2.529655,11.053221,14.446553,9.178738
1004.730469,5.978999,12.678275,7.465118,10.904975
1004.734375,8.188617,7.375669,11.862810,5.671332
1004.738281,2.339032,4.783477,9.354871,0.949606
1004.742188,7.426885,10.163219,6.456770,6.965970
1004.746094,12.136069,2.506750,-2.681752,-0.966074
1004.750000,-2.664856,-4.890583,9.866824,-2.580129
1004.753906,-1.983356,5.700288,5.888072,-8.936392
1004.757812,-3.818038,-1.580689,-5.254233,-8.936714
1004.761719,-8.466116,-9.951160,-1.645452,-2.432439
1004.765625,-10.303717,-5.060283,1.538877,-12.973219
1004.769531,-10.391083,-4.197142,-7.203325,-10.705788
1004.773438,-10.159679,-7.583464,-13.216379,-10.452385
1004.777344,-1.316171,-5.597983,-17.412296,-11.903243
1004.781250,-2.924586,-13.340482,-12.295193,-11.605110
1004.785156,-8.116533,-10.082670,-10.614012,-4.761552
1004.789062,-6.428652,-1.067762,-8.329353,-5.952984
1004.792969,-3.362285,-5.779251,-10.381707,-5.266316
1004.796875,-7.398254,-1.783385,4.624902,-7.774023
1004.800781,0.015737,-0.167378,-5.731186,-3.485199
1004.804688,5.139005,-0.632322,3.384490,0.974918
1004.808594,7.418626,4.545381,4.263414,6.472411
1004.812500,10.717307,4.450337,0.807516,5.130297
1004.816406,9.190157,11.860562,14.497643,10.705832
1004.820312,12.614481,10.022227,17.559313,2.948184
1004.824219,7.427751,10.819056,5.249137,10.054084
1004.828125,11.226982,18.399084,10.557070,11.409742
1004.832031,7.301885,3.656811,5.176169,9.287973
1004.835938,1.133898,13.830969,6.052743,11.191960
1004.839844,8.276423,5.700634,3.285448,9.048348
1004.843750,3.252252,1.225894,9.496566,4.467006
1004.847656,-0.895892,-1.032428,3.056373,-0.207547
1004.851562,-2.829274,2.332268,-5.927487,-10.215219
1004.855469,-3.877249,2.436822,-9.293346,-8.960183
1004.859375,-3.395503,-8.928711,-3.857678,-10.609947
1004.863281,-3.051137,-9.838050,-11.490374,-13.110865
1004.867188,-5.191254,-1.240442,-9.774000,-11.328536
1004.871094,-6.926285,-7.354787,-5.379953,-11.629997
1004.875000,-7.774081,-12.275889,-12.900291,-13.936974
1004.878906,-6.086418,-8.993009,-5.973414,-11.198712
1004.882812,-6.778660,-7.653113,-6.581821,-11.031142
1004.886719,-11.639716,-11.341159,-3.191827,-11.877382
1004.890625,2.228771,-1.929708,-7.481005,-7.545833
1004.894531,-1.371007,-7.807233,-5.877683,-7.079811
1004.898438,0.917342,-3.816659,-0.220289,-4.419640
1004.902344,0.169109,-4.470704,-5.413323,1.411474
1004.906250,3.078106,6.412908,0.559198,1.812664
1004.910156,5.767306,6.851590,4.111077,10.301065
1004.914062,11.851573,9.351746,4.610775,13.023701
1004.917969,6.992150,11.437481,8.525511,10.626830
1004.921875,13.923237,2.011286,16.093570,8.501823
1004.925781,6.759396,11.602952,5.576802,14.447817
1004.929688,9.288308,6.809854,12.164975,4.188998
1004.933594,-1.087331,11.647117,5.505911,7.244720
1004.937500,6.195064,4.983779,12.194997,1.063441
1004.941406,5.254808,7.210416,2.614755,-1.213048
1004.945312,1.005777,-5.889661,1.437271,-0.899247
1004.949219,15.118622,-6.286785,-0.494559,3.772346
1004.953125,-0.171532,-8.574794,-6.586998,-5.694189
1004.957031,-5.621107,1.349372,2.863590,-3.585238
1004.960938,-4.562252,-7.008967,-4.605992,-4.024961
1004.964844,-8.112667,-2.753730,-11.249988,-11.592454
1004.968750,-4.483076,-13.787545,-8.315087,1.380728
1004.972656,-14.005911,-17.814945,-9.229127,-5.353792
1004.976562,-8.450182,-4.660514,-9.671640,-13.536788
1004.980469,-8.774200,-7.721558,-12.492418,-16.594801
1004.984375,-10.738811,-7.231924,-7.384030,-13.153359
1004.988281,-7.395214,-7.391432,-7.514244,3.781578
1004.992188,-6.658897,-5.390718,-5.009697,-7.990662
1004.996094,-7.968189,-1.356084,1.880319,-0.446647
1005.000000,0.669191,-7.466153,-9.076624,-4.232676
1005.003906,-1.527667,-3.081645,1.486206,11.564572
1005.007812,2.312986,11.109119,10.066431,4.395629
1005.011719,5.067773,-0.422114,11.632156,9.343820
1005.015625,3.527676,13.718352,5.372855,12.250682
1005.019531,8.420702,5.010932,13.072687,11.502755
1005.023438,12.884742,14.379926,5.968763,6.004074
1005.027344,6.463394,12.412850,6.343485,10.691117
1005.031250,9.844435,5.457442,9.885397,16.936093
1005.035156,8.194067,11.205191,12.946982,7.029014
1005.039062,1.704604,2.292138,3.652444,3.100637
1005.042969,-1.693129,6.679905,6.093440,1.193510
1005.046875,-4.569617,0.720844,4.618759,3.193265
1005.050781,-0.398374,-8.043114,-1.852427,-1.896485
1005.054688,-4.615952,0.563823,-0.056978,-6.969840
1005.058594,-11.630824,-0.593560,-9.229743,-8.341244
1005.062500,-11.137563,-1.776449,-4.648516,-1.774464
1005.066406,-9.325713,-8.225132,-15.467156,-7.525327
1005.070312,-16.292452,-12.036865,-9.614065,-10.052296
1005.074219,-10.039363,-0.075147,-7.438768,-13.609523
1005.078125,-5.138254,-11.891708,-10.584819,-14.996254
1005.082031,-12.403498,-11.336422,-6.295724,-16.967008
1005.085938,-5.670016,-13.401525,-9.449654,-5.061808
1005.089844,-9.756580,-8.300829,-12.157687,-9.985979
1005.093750,-1.384208,-2.902008,-0.946386,-0.513190
1005.097656,-0.961138,0.692481,-4.052911,-6.702803
1005.101562,-4.047605,6.320917,8.361512,3.422376
1005.105469,1.753138,4.462043,2.596460,3.454182
1005.109375,3.686459,8.624846,3.588931,9.875017
1005.113281,8.574672,13.010709,8.107446,3.025131
1005.117188,13.310864,10.059773,5.515849,11.400968
1005.121094,4.370585,10.584759,6.497301,12.496435
1005.125000,9.165711,0.723578,9.629027,13.518298
1005.128906,14.660590,3.176279,14.757836,15.365175
1005.132812,16.986716,15.011207,11.511465,6.379810
1005.136719,6.082615,7.112081,9.190228,9.500015
1005.140625,2.230905,9.858807,-0.229159,13.486459
1005.144531,5.692676,4.731240,6.046574,7.202163
1005.148438,-7.484213,3.672837,-0.936236,6.789479
1005.152344,-3.318466,-4.062794,-3.259885,2.662625
1005.156250,-1.522764,-1.919094,-3.686936,-8.200930
1005.160156,-12.778798,-4.255634,-11.668781,-2.594722
1005.164062,-8.171920,-8.224378,-3.633717,-8.066358
1005.167969,-13.899306,-4.597559,-3.148095,-5.624266
1005.171875,-8.598803,-7.907575,-11.556586,-9.658891
1005.175781,-10.572054,-6.987437,-15.835960,-10.582526
1005.179688,-2.858530,-3.232021,-11.661658,-15.300174
1005.183594,-11.401906,-13.713785,-6.572881,-12.452544
1005.187500,-5.691269,-4.268795,-8.816945,-3.525936
1005.191406,-7.515465,-0.543014,-4.837661,-8.179364
1005.195312,2.792442,-2.614368,-3.450500,-2.491385
1005.199219,4.735520,-0.279377,-2.098484,-0.319471
1005.203125,6.952364,-1.849092,-1.594070,0.514283
1005.207031,4.866412,5.291560,10.756051,3.259850
1005.210938,14.479735,13.747160,13.393378,6.377047
1005.214844,5.757927,10.546742,12.371271,6.077885
1005.218750,6.378388,9.799086,5.577035,9.496982
1005.222656,8.342607,4.871177,17.403883,13.193775
1005.226562,14.279328,4.473487,10.364533,12.505355
1005.230469,6.614542,5.653272,14.021768,6.107501
1005.234375,6.142821,5.771177,7.310573,8.423764
1005.238281,9.651615,4.703029,11.668997,6.539021
1005.242188,5.971853,0.804162,4.608753,-2.630357
1005.246094,10.350049,2.276498,6.860651,9.557044
1005.250000,0.495564,-5.445538,3.987470,2.086332
1005.253906,-1.920952,-12.964813,-2.125422,-5.313175
1005.257812,-10.635401,-7.943065,-7.559520,-11.903513
1005.261719,-4.552756,-7.510095,-3.730714,-7.753033
1005.265625,-12.103099,-8.176051,-3.945712,-11.152957
1005.269531,-5.565005,-7.026778,-10.677496,-8.742159
1005.273438,-11.972529,-10.101653,-9.756444,-15.760856
1005.277344,-8.866192,-11.366087,-13.144676,-11.682942
1005.281250,-7.508733,-13.880516,-11.552553,-12.577985
1005.285156,0.274003,-11.319312,-7.417214,-2.755959
1005.289062,-5.331355,-7.679438,-2.245644,-13.346727
1005.292969,-7.702581,3.926111,-5.516966,-7.031087
1005.296875,2.203675,1.183823,-7.130840,-4.181371
1005.300781,-1.852502,-0.791561,-3.663013,2.132739
1005.304688,8.335567,1.586127,-2.625010,-1.689649
1005.308594,11.565106,0.701064,5.700005,12.874688
1005.312500,4.540372,4.829198,10.257619,5.430149
1005.316406,9.033754,1.386620,8.842386,6.738898
1005.320312,11.452223,11.599650,2.378824,9.248656
1005.324219,10.124211,7.424831,10.662820,13.695286
1005.328125,14.379681,6.554177,4.213033,16.000892
1005.332031,7.591734,10.107072,13.879290,8.650686
1005.335938,7.790938,-0.195419,13.041503,9.422068
1005.339844,0.933677,6.881079,5.597253,4.522355
1005.343750,5.058599,-5.749884,2.163156,1.080844
1005.347656,-0.407300,2.271945,3.464894,-2.467936
1005.351562,2.166434,-3.108028,-2.637487,1.658255
1005.355469,-12.226395,-3.439602,-4.132964,-4.637324
1005.359375,-6.053923,-5.526027,-10.918573,-5.728204
1005.363281,-7.921096,-7.521759,-3.844865,-9.925588
1005.367188,-9.222958,-6.967387,-8.219721,-10.904017
1005.371094,-3.243047,-7.414921,-8.659620,-11.096245
1005.375000,-16.346733,-9.424318,-2.885824,-6.115165
1005.378906,-9.361358,-9.293786,-9.184156,-12.804822
1005.382812,-3.860260,-11.820369,-16.212370,-5.329949
1005.386719,-13.106902,-14.243627,1.330767,-9.081324
1005.390625,0.363184,6.916067,-5.916053,-9.838002
1005.394531,-8.012199,0.437694,-1.908363,-3.061248
1005.398438,1.199944,-6.570680,-1.889801,0.560736
1005.402344,-0.756547,3.574214,1.214458,-1.397633
1005.406250,6.052415,9.235771,4.425324,1.135731
1005.410156,3.248094,2.929559,9.407117,-2.113118
1005.414062,9.488230,6.737167,7.281800,10.230836
1005.417969,1.742031,11.664982,7.525048,4.422660
1005.421875,19.735129,9.803816,9.777687,6.591763
1005.425781,11.033968,13.444499,15.073320,13.098137
1005.429688,8.890089,-0.853505,10.959071,1.146485
1005.433594,9.498658,15.844059,7.047351,11.433359
1005.437500,10.993199,6.863849,6.436625,8.591468
1005.441406,12.259774,5.528437,7.164704,-0.299817
1005.445312,8.978937,0.708548,7.048610,-7.776156
1005.449219,3.754180,3.629233,5.853253,6.326769
1005.453125,-1.593219,-5.662741,-0.417142,-4.547915
1005.457031,1.242669,-5.141819,-5.378473,-9.414469
1005.460938,-8.409140,-7.989696,-10.301148,-4.992996
1005.464844,-9.342674,-10.939364,-6.723229,-11.758292
1005.468750,-2.730447,-7.493184,-13.806825,-11.650928
1005.472656,-4.886041,-8.282105,-3.742880,-10.173640
1005.476562,-4.551685,-8.071864,-13.188382,-13.463295
1005.480469,-2.093130,-10.085831,-10.003998,-10.797666
1005.484375,-5.965437,-7.950233,2.148847,-11.045331
1005.488281,-4.408563,-8.979294,-2.664324,-7.975217
1005.492188,-2.592257,-5.896612,-5.670210,-3.087802
1005.496094,-3.102898,-3.674419,-4.508992,-6.866004
1005.500000,-1.475936,1.301564,-3.697084,-3.236486
1005.503906,7.863528,1.006239,0.308139,-0.970653
1005.507812,2.949203,4.330547,-4.115812,-4.720021
1005.511719,4.604679,3.757311,10.820889,2.022499
1005.515625,10.136988,10.309077,10.130986,14.652921
1005.519531,9.978870,8.486001,10.670723,10.249679
1005.523438,8.411799,12.165369,13.169639,9.059463
1005.527344,5.508815,8.980541,15.150757,-2.611056
1005.531250,5.735756,2.248498,8.822371,10.846722
1005.535156,7.287273,11.656418,8.216654,15.576201
1005.539062,12.676791,1.698403,-0.049520,7.982861
1005.542969,0.324274,11.065400,7.937100,11.034508
1005.546875,-1.206155,6.704175,6.289188,3.589719
1005.550781,-1.464176,-5.087262,3.014253,1.549797
1005.554688,2.769442,-3.684995,-5.620130,-0.013267
1005.558594,3.870099,-3.456748,-3.905758,-10.401764
1005.562500,-8.939230,-0.697293,-14.993317,-4.504318
1005.566406,-10.412234,-12.810587,-6.677047,-7.484210
1005.570312,-11.027541,-6.114042,-11.365794,-14.908363
1005.574219,-5.023451,-6.063405,-11.523736,-10.079979
1005.578125,-16.819494,-11.209668,-11.972015,-13.879532
1005.582031,-7.958561,-6.201485,-7.479441,-9.305663
1005.585938,-5.364212,-14.504971,-9.509669,-10.136512
1005.589844,-6.021793,-7.517001,-7.239218,-4.607451
1005.593750,-11.071770,-1.569814,-4.824599,-3.255671
1005.597656,-0.143872,0.507138,0.230479,-2.364009
1005.601562,-0.315028,-2.887973,-2.744583,-3.157309
1005.605469,7.561689,4.875099,-0.142228,2.619172
1005.609375,12.610090,5.770802,5.564409,2.144892
1005.613281,1.012371,6.076069,9.681515,7.905921
1005.617188,9.431447,5.624965,1.538178,6.845653
1005.621094,12.162048,17.597568,7.287285,8.627924
1005.625000,-0.144974,11.205663,9.588064,12.646349
1005.628906,6.857998,2.870265,5.607634,15.024738
1005.632812,3.888710,7.310124,13.880749,7.881951
1005.636719,8.547565,0.559449,12.417638,6.951393
1005.640625,3.420762,5.924574,4.798025,1.987010
1005.644531,7.023139,-0.910102,5.859113,5.658355
1005.648438,2.304912,-11.947573,-4.424108,1.100453
1005.652344,-0.155678,3.380509,-4.164584,-4.979830
1005.656250,-7.856524,-5.258653,-0.704254,-4.099333
1005.660156,-3.753573,-0.286110,-3.960116,-11.379453
1005.664062,-9.665209,-5.310358,-6.345361,-2.558833
1005.667969,-14.176877,-11.405825,-11.588786,-10.184407
1005.671875,-13.909817,-13.496159,-6.107737,-9.454258
1005.675781,-9.679842,-17.025045,-6.351106,-10.517438
1005.679688,-7.732535,-8.475903,-12.852525,-12.340576
1005.683594,-5.658769,-10.436981,-9.626499,-9.624470
1005.687500,-0.698034,-5.889478,-8.969865,-1.412848
1005.691406,-4.428685,-10.545185,-3.453045,-4.273614
1005.695312,-7.269968,-0.881898,-4.598431,-2.915331
1005.699219,2.432047,-5.988665,4.993959,-0.786562
1005.703125,7.443068,7.165965,0.588236,-2.834016
1005.707031,2.488303,4.854424,5.847002,4.979372
1005.710938,11.011329,6.097409,3.785488,12.415520
1005.714844,10.586322,4.716305,12.909678,6.306055
1005.718750,8.846354,13.813882,13.799902,16.802410
1005.722656,11.933567,8.417461,11.041036,8.080113
1005.726562,13.407622,9.304153,12.694152,2.516671
1005.730469,13.143376,7.670218,5.288838,3.639366
1005.734375,5.712248,3.228305,10.206932,2.070668
1005.738281,8.320088,1.933395,7.632055,17.577220
1005.742188,12.335668,0.325952,7.526133,3.814884
1005.746094,0.547216,4.863026,0.149261,3.940348
1005.750000,-1.591603,2.339868,-0.400186,-0.059440
1005.753906,3.296888,3.027301,-7.455222,-1.985683
1005.757812,-7.443367,-8.429847,-7.765396,-6.708752
1005.761719,-10.783186,-1.732278,-0.283073,-10.006236
1005.765625,-2.716208,-10.839699,-8.915658,-10.629556
1005.769531,-13.070453,-11.729649,-2.825872,-10.074156
1005.773438,-14.721266,-9.300032,-13.363681,-6.346368
1005.777344,-9.462655,-7.293178,-5.005052,-13.972630
1005.781250,-9.005635,-3.786018,-9.207971,0.337949
1005.785156,-11.802673,-13.232985,-6.590755,-12.538220
1005.789062,-6.583349,-5.925320,-2.278294,-2.793450
1005.792969,-4.574068,-3.954178,-9.544177,-2.534830
1005.796875,0.873533,-4.281117,-8.443607,-6.191579
1005.800781,-0.914091,4.018773,0.362452,0.433592
1005.804688,5.921412,3.494737,-0.263003,5.749951
1005.808594,8.342231,-3.227407,13.654701,6.080070
1005.812500,4.104493,9.024873,9.127794,-0.344302
1005.816406,2.735570,10.883438,5.456061,9.641694
1005.820312,9.323662,5.219056,10.468208,10.423252
1005.824219,13.697722,6.499166,14.797845,19.767453
1005.828125,16.985508,10.896084,9.414807,15.066398
1005.832031,13.868810,8.566939,4.814783,11.407513
1005.835938,11.263226,4.573953,-0.562091,2.776700
1005.839844,7.683287,4.810714,10.055887,5.301828
1005.843750,5.768546,0.463101,11.682753,-1.342524
1005.847656,-3.745613,-0.545334,0.580920,6.383611
1005.851562,2.284720,-4.824047,-1.032206,-0.209485
1005.855469,-14.153071,-4.124231,-10.295000,0.060005
1005.859375,-7.783064,-8.046156,-7.004916,-1.660392
1005.863281,-0.649441,-11.964274,-6.909364,-13.340420
1005.867188,-8.280222,-5.519556,-13.321949,-16.316559
1005.871094,-10.756744,-9.705893,-13.297178,-11.603059
1005.875000,-16.208795,-6.770784,-9.493138,-8.633693
1005.878906,-15.522277,-14.225196,-19.538046,-11.070931
1005.882812,-4.545494,-10.636335,-2.823626,-10.515172
1005.886719,-10.902317,-3.183847,-12.257068,-8.356464
1005.890625,-10.486587,-8.558564,-6.852515,-10.002061
1005.894531,-5.635581,-8.668671,2.902315,-1.751043
1005.898438,-2.104200,2.622325,-7.155667,-6.063692
1005.902344,-2.542330,-11.121076,3.782493,-10.707914
1005.906250,6.589622,0.607842,2.564053,0.941638
1005.910156,6.869838,10.803940,10.253828,5.500801
1005.914062,3.735827,6.910835,13.893304,4.771998
1005.917969,11.725011,8.331647,12.138868,10.354341
1005.921875,10.270645,10.927302,15.256963,11.595242
1005.925781,9.544684,11.607349,10.944102,10.599714
1005.929688,13.646175,11.401976,8.538469,-0.872918
1005.933594,11.551062,9.291755,13.373526,9.823423
1005.937500,10.056192,1.576929,11.836435,5.233263
1005.941406,-0.094096,4.858071,0.507619,8.969960
1005.945312,0.992035,7.145247,-0.612401,-2.678140
1005.949219,-6.627332,-3.872714,-2.293418,5.381860
1005.953125,7.096714,3.309854,1.824134,1.362391
1005.957031,-8.174113,-5.672047,-0.824822,-7.884464
1005.960938,-8.213274,-0.266630,-10.101900,-5.087216
1005.964844,-3.603108,-7.580528,-8.367903,-15.399727
1005.968750,-10.897569,-12.063389,-10.008373,-4.963504
1005.972656,-9.985530,-3.685188,-17.049042,-9.743102
1005.976562,-9.128318,-10.587345,-4.253016,-7.115815
1005.980469,-7.534933,-13.599822,-6.389173,-8.262888
1005.984375,-8.164444,-10.459201,-8.388625,-4.283196
1005.988281,-6.660278,-9.335125,-12.266211,-3.484052
1005.992188,-2.376831,-10.964633,-1.658470,-2.862218
1005.996094,-2.350841,-9.549512,-6.776161,-4.334164
1006.000000,-0.159540,1.752970,1.784451,-7.044503
1006.003906,3.458699,-3.736620,-1.644534,1.547590
1006.007812,4.403996,-5.234871,-5.109646,7.959069
1006.011719,9.978510,9.220800,0.567555,11.475149
1006.015625,8.053322,4.705803,-0.914317,6.778080
1006.019531,0.760198,11.029144,7.061410,9.502402
1006.023438,11.182977,15.099574,9.640291,14.067703
1006.027344,9.593473,14.220307,7.226202,13.839344
1006.031250,14.593315,12.706596,1.673690,11.635234
1006.035156,10.952173,13.701467,8.089776,4.781591
1006.039062,3.190798,1.998416,8.835477,7.966699
1006.042969,7.334838,6.583378,4.810500,2.397431
1006.046875,5.232382,0.937186,1.958516,0.860161
1006.050781,-1.063574,-7.238322,5.789352,-2.636898
1006.054688,-5.356988,1.581116,-6.070758,-3.489604
1006.058594,-7.866197,-6.144930,4.424946,-11.413524
1006.062500,-4.431634,-11.006827,-6.458122,-3.697232
1006.066406,-11.223359,-8.706324,-3.066461,-4.252200
1006.070312,-2.894594,-13.554775,-11.501717,-8.402274
1006.074219,-7.500216,-8.951724,-9.390668,-15.023398
1006.078125,-6.699088,-8.959818,-10.787415,-12.512375
1006.082031,-2.224486,-10.536347,-12.185554,-7.344730
1006.085938,-7.677935,-5.616957,-7.873155,-4.518854
1006.089844,-4.103691,-7.554355,-5.242483,-1.001079
1006.093750,3.348122,-0.342602,-7.523775,-4.247982
1006.097656,4.233785,1.721970,-1.609546,-0.839069
1006.101562,2.177629,-1.378447,-4.118168,3.225291
1006.105469,0.438964,4.830643,3.626621,-1.759745
1006.109375,3.961766,8.350129,-0.569993,9.447998
1006.113281,0.768368,13.395518,6.008585,5.597754
1006.117188,13.253827,3.875813,10.300081,6.773316
1006.121094,6.871003,7.294049,9.562207,13.573564
1006.125000,9.077426,4.819988,10.956524,9.830770
1006.128906,13.379706,11.623999,6.417274,12.904899
1006.132812,5.807502,8.164894,10.648700,7.628774
1006.136719,9.291087,11.226697,10.329303,3.311831
1006.140625,7.183621,6.611779,4.416566,3.830992
1006.144531,11.084210,6.907912,5.411177,0.014164
1006.148438,1.295777,0.951329,5.111865,4.944720
1006.152344,3.320838,-1.067136,-1.040696,0.154521
1006.156250,-8.604649,0.432858,-3.268302,-4.245137
1006.160156,-5.983759,-10.336538,-3.149547,-11.504530
1006.164062,-6.919429,-11.142342,-9.104039,-8.047698
1006.167969,-3.708305,-2.546605,-9.005143,-7.318910
1006.171875,-13.316015,-10.900888,-7.886744,-14.433111
1006.175781,-3.212400,-11.620459,-9.058785,-14.463704
1006.179688,-9.257440,-5.228268,-6.399167,-10.051543
1006.183594,-14.647104,-10.121976,-2.383975,-14.768127
1006.187500,-4.163347,-10.881677,-12.440714,-8.966835
1006.191406,-3.852460,-3.250978,-9.819238,-1.467198
1006.195312,-1.462088,0.722055,-8.851112,-5.276968
1006.199219,0.966597,1.692722,-1.408082,0.057961
1006.203125,1.675785,2.493603,5.970346,7.491955
1006.207031,3.436314,-0.012744,4.683226,1.772219
1006.210938,2.544115,-2.777132,0.927646,11.810073
1006.214844,7.045699,11.981106,7.730645,5.944475
1006.218750,5.273250,12.847125,15.601231,13.401563
1006.222656,14.911804,7.620865,6.316437,15.204261
1006.226562,10.367497,5.624646,6.706446,4.382369
1006.230469,9.405092,11.344840,3.516587,-0.398022
1006.234375,5.728807,8.994469,0.195618,2.563013
1006.238281,7.148052,6.139911,-3.493351,1.894899
1006.242188,2.005536,4.467195,0.120520,2.336166
1006.246094,0.596870,0.915176,-1.757662,2.722734
1006.250000,-3.328738,-0.975419,-5.145427,-1.833686
1006.253906,-3.860355,0.328412,-3.938132,2.565656
1006.257812,-4.063037,-8.819605,-10.471163,-8.914882
1006.261719,0.149274,-6.876939,-11.242650,-3.859720
1006.265625,-9.343648,-7.345621,-7.661758,-5.780509
1006.269531,-8.452401,-0.512593,-11.744835,-8.907298
1006.273438,-9.652712,-10.222170,-11.677153,-4.654188
1006.277344,-13.877402,-8.572416,-15.338430,-9.580384
1006.281250,-7.197929,-15.081121,-11.057974,-7.070157
1006.285156,-12.944858,-12.388046,-6.121529,-9.359195
1006.289062,-7.779151,-3.402155,-12.094187,-4.685370
1006.292969,-5.129187,-2.046993,-4.447567,-6.974814
1006.296875,-7.376212,-6.768953,-2.932615,2.202097
1006.300781,1.000064,2.413485,0.251160,-4.679204
1006.304688,-1.830443,8.030411,8.199327,4.688701
1006.308594,12.195769,4.112712,2.578164,4.101168
1006.312500,4.124663,10.393180,5.506886,5.841216
1006.316406,10.193451,10.635965,5.795358,14.720879
1006.320312,10.983159,12.653928,3.568349,8.551111
1006.324219,18.208443,9.695426,9.352291,6.233805
1006.328125,10.198701,7.600628,10.273729,3.465096
1006.332031,13.033391,7.975631,5.901944,14.345290
1006.335938,8.123559,12.645002,8.595385,13.052966
1006.339844,14.304239,5.404117,8.531130,4.734479
1006.343750,10.700867,4.314631,3.499869,8.249078
1006.347656,2.741034,1.977741,0.571156,-0.217569
1006.351562,1.416982,0.914634,-2.913700,-6.255073
1006.355469,-3.904889,0.810721,-3.708047,4.709961
1006.359375,-6.434916,-2.078181,-6.420602,-8.097025
1006.363281,-9.579591,-6.727091,-7.630608,-9.387389
1006.367188,-9.941203,-14.438768,-14.246476,-7.373222
1006.371094,-6.839862,-7.424820,-4.029507,-21.629226
1006.375000,-12.131662,-14.365824,-15.644755,-13.287929
1006.378906,-13.948193,-11.252997,-14.137372,-14.201054
1006.382812,-9.388575,-5.876114,-10.204340,-2.629340
1006.386719,-8.913024,-5.770608,-6.837388,-1.212541
1006.390625,-1.859755,-1.976489,-6.519280,-4.020254
1006.394531,-6.236505,-6.746896,-1.897447,-5.268522
1006.398438,0.470049,0.821282,2.839545,0.442865
1006.402344,-1.779939,4.684538,0.952724,3.468944
1006.406250,4.210218,4.557484,0.885072,2.299443
1006.410156,5.069815,0.961896,4.814084,10.831848
1006.414062,10.950076,8.123716,9.657622,9.760199
1006.417969,6.575961,6.156176,7.642133,5.284175
1006.421875,15.977387,8.257643,13.799917,13.583565
1006.425781,5.177732,4.536318,8.876021,11.129811
1006.429688,4.395253,13.742435,13.466564,5.320044
1006.433594,1.146689,4.233594,11.214532,6.422096
1006.437500,7.782585,6.748558,12.213723,12.265453
1006.441406,5.584435,9.520165,6.057772,0.702344
1006.445312,0.288602,4.075179,-4.697037,7.148496
1006.449219,3.955385,4.358634,-0.315557,7.115959
1006.453125,-2.818125,-0.066387,-6.625063,-0.350969
1006.457031,-5.668097,-11.825476,-5.386329,-3.381555
1006.460938,2.331782,-7.267252,-3.912450,0.287392
1006.464844,-10.003907,-14.611593,-10.373744,1.965902
1006.468750,-9.524975,-5.840492,-7.086862,-13.036352
1006.472656,-9.561854,-11.544830,-7.862978,-14.629461
1006.476562,-1.941801,-11.197485,-10.379597,-12.570331
1006.480469,-13.932200,-7.899008,-12.540226,-4.592370
1006.484375,-13.910663,-6.426178,-9.965871,-5.228207
1006.488281,-9.588447,-0.507130,-11.762992,-7.957421
1006.492188,-13.516865,-11.732468,-3.343491,-5.141607
1006.496094,-7.406634,-0.621112,-2.729917,-8.784448
1006.500000,-4.262201,10.963715,-0.881699,3.724615
1006.503906,2.751394,-5.841871,2.143914,1.320035
1006.507812,4.275948,7.933261,9.442461,3.183113
1006.511719,12.823594,5.156597,12.086714,7.215804
1006.515625,2.385908,3.656434,7.626601,15.376410
1006.519531,11.720621,8.875769,7.917146,10.261600
1006.523438,5.421940,12.785854,7.028457,6.775764
1006.527344,13.074634,10.213948,11.339592,8.807081
1006.531250,9.758639,15.246317,18.492556,12.499920
1006.535156,6.297167,3.889869,14.537242,15.056877
1006.539062,4.195477,3.343060,4.598215,8.511572
1006.542969,3.539679,4.341945,4.599130,0.815574
1006.546875,7.009910,-0.484356,2.669981,0.999831
1006.550781,0.593069,-7.800753,1.534453,1.312526
1006.554688,-9.313384,3.307796,-2.050675,-6.922599
1006.558594,-13.832392,-7.234734,-13.041689,-0.413550
1006.562500,-2.028406,-10.726725,-3.120213,-15.240695
1006.566406,-11.869629,-12.283945,-9.783085,-7.728406
1006.570312,-18.101263,-10.462905,-9.202209,-16.462067
1006.574219,-4.291931,-5.473129,-12.411209,-8.662269
1006.578125,-12.907094,-5.360535,-11.819910,-6.688093
1006.582031,-13.293799,-13.220870,-8.056506,-11.123553
1006.585938,-7.908046,-3.482635,-11.471057,-12.880081
1006.589844,-3.575918,-9.888011,-5.323818,-6.177657
1006.593750,-7.502924,0.170925,4.616929,-1.824137
1006.597656,1.244774,3.788813,-8.533868,-0.547424
1006.601562,7.095299,7.937551,1.636825,2.097606
1006.605469,0.793987,5.647785,2.339560,-5.418691
1006.609375,5.696534,7.808470,8.466560,3.845918
1006.613281,8.432358,4.221544,9.243296,1.498945
1006.617188,7.763611,10.073161,9.109651,12.881837
1006.621094,8.113733,9.938174,8.236680,9.153693
1006.625000,11.817872,11.110241,8.846823,18.744444
1006.628906,14.954920,9.125194,15.160912,10.137388
1006.632812,6.051504,11.032093,10.466350,9.613101
1006.636719,8.240296,-1.753264,14.917976,10.423162
1006.640625,0.229234,8.461760,9.695813,2.718217
1006.644531,-0.686661,10.212978,1.616876,2.210630
1006.648438,5.183493,-3.108305,5.642051,-0.129021
1006.652344,-0.524737,-6.732599,-0.831587,3.286061
1006.656250,-8.636370,-7.044140,-7.720549,-5.179349
1006.660156,-11.759308,-2.787305,-7.673483,-2.823361
1006.664062,-6.398443,-5.987314,-7.145982,-10.561748
1006.667969,-12.622300,-6.707098,-13.078251,-9.206485
1006.671875,-6.530706,-5.570849,-14.419365,-9.346033
1006.675781,-7.822997,-10.332282,-13.145632,-5.555358
1006.679688,-8.861308,-10.909844,1.282257,-11.149501
1006.683594,-7.698919,-3.552100,-18.124044,-7.857521
1006.687500,-10.931643,-8.727952,-12.105676,-4.015891
1006.691406,-4.790499,-3.889906,-13.391801,-6.810516
1006.695312,0.034116,0.418368,-8.638706,-9.813613
1006.699219,-0.727901,6.400592,-0.182741,-3.786504
1006.703125,0.858551,-0.008694,9.613246,3.000557
1006.707031,-1.711305,4.217568,8.679418,9.005929
1006.710938,11.453003,5.069308,5.601997,12.271934
1006.714844,6.330556,4.688291,11.206769,10.681619
1006.718750,14.641645,4.674006,8.549194,10.928141
1006.722656,3.348897,12.151790,16.394355,10.856583
1006.726562,7.738235,11.177196,4.538716,10.189139
1006.730469,8.052899,14.612344,15.008016,7.985756
1006.734375,7.237668,0.898308,7.894889,12.145742
1006.738281,5.910249,11.120244,11.693527,6.141265
1006.742188,5.899761,7.411825,3.195285,4.646438
1006.746094,5.235707,4.743081,3.364543,-1.231768
1006.750000,-7.593375,-0.395087,0.526743,1.874606
1006.753906,-10.155581,-4.751349,-9.502434,-2.115718
1006.757812,-8.699683,-2.393854,-7.587390,-8.459436
1006.761719,-6.743202,-3.715612,-8.005252,-8.195713
1006.765625,-11.358240,-3.216624,-14.068904,-6.985391
1006.769531,-11.818831,-14.088702,-4.950238,-7.816621
1006.773438,-8.904116,-10.784659,-11.902676,-9.220618
1006.777344,-2.870821,-6.669757,-10.149114,-4.463006
1006.781250,-10.022896,-11.489056,-14.215526,-6.702475
1006.785156,-14.792237,-12.774105,-8.274285,-7.497327
1006.789062,-1.483177,-3.579597,-12.781938,-4.810244
1006.792969,-1.693883,-8.608471,-6.144035,-3.608472
1006.796875,-1.742541,-7.644397,2.193006,4.915757
1006.800781,4.660606,-7.247132,-2.131899,5.711350
1006.804688,4.230258,2.242904,-4.398637,1.237509
1006.808594,6.511765,-2.648856,0.344097,2.206854
1006.812500,-1.694601,7.839022,11.133600,6.546914
1006.816406,10.352843,4.374075,9.641404,12.714604
1006.820312,12.426569,13.845030,7.128896,6.547871
1006.824219,9.714531,10.197446,15.152252,9.893329
1006.828125,12.532568,5.633663,15.443730,8.582543
1006.832031,12.211221,11.063231,10.987758,6.565564
1006.835938,2.143894,15.577307,1.811582,4.044592
1006.839844,8.903035,11.556416,7.017341,6.018449
1006.843750,3.328447,-4.362876,6.517969,-1.079605
1006.847656,-5.071746,1.294341,-5.321705,6.137015
1006.851562,0.305495,-7.164945,-3.309142,-4.113664
1006.855469,-9.591412,-5.545876,-1.551707,-1.547936
1006.859375,-6.380559,-0.266233,0.589137,-3.851738
1006.863281,-7.289122,-8.558247,-7.447669,-5.658887
1006.867188,-7.276671,-1.338561,-5.588987,-10.249541
1006.871094,-6.248697,-10.438919,-11.582161,-9.222109
1006.875000,-15.570607,-9.614944,-8.411634,-11.775463
1006.878906,-11.143324,-4.331481,-12.476311,-11.735517
1006.882812,-9.857710,-8.173245,-2.341521,-8.957783
1006.886719,-13.425625,-6.045268,-8.645710,-9.281966
1006.890625,-9.373549,-7.851080,-8.045414,-8.631361
1006.894531,-2.304531,-1.942875,2.484780,-4.834908
1006.898438,2.070172,-0.625254,5.783847,-5.470359
1006.902344,2.984578,-2.693838,3.115254,1.621925
1006.906250,0.445689,5.042495,0.079906,1.150277
1006.910156,12.093076,5.183036,3.340362,10.869733
1006.914062,2.893638,8.229110,4.080338,6.541459
1006.917969,2.126859,8.640883,7.023197,7.385992
1006.921875,8.154475,5.332691,3.362509,14.424469
1006.925781,12.493903,8.308217,12.771252,6.454198
1006.929688,7.859422,9.754854,15.391017,9.504561
1006.933594,16.193733,9.352795,3.027664,11.593688
1006.937500,14.125769,11.117367,9.653946,13.066839
1006.941406,10.078179,1.901623,4.198427,3.798710
1006.945312,1.176827,4.002144,6.229335,3.825669
1006.949219,-2.739874,6.105949,-0.260273,0.939466
1006.953125,-7.232507,-5.045769,-7.971655,-4.750194
1006.957031,1.324060,-2.704632,-1.861401,-7.626574
1006.960938,-9.639489,-3.837918,-10.358240,-7.315404
1006.964844,-5.928535,-5.420872,-5.715386,-7.617365
1006.968750,-9.620464,-6.437229,-4.338043,-14.991685
1006.972656,-8.601089,-3.481067,-0.899621,-2.621872
1006.976562,-7.359185,-3.017353,-11.839182,-12.079631
1006.980469,-4.484021,-14.914271,0.044784,-5.662011
1006.984375,-11.820982,-6.173000,-11.191255,-15.171736
1006.988281,-7.132026,-6.035625,-5.447342,-10.165207
1006.992188,-4.747238,-2.592847,1.892099,-7.004877
1006.996094,1.029460,2.978433,2.040194,-3.855885
1007.000000,-4.502696,-5.860827,2.730434,-0.113646
1007.003906,5.464596,4.028317,1.157057,7.482577
1007.007812,0.413149,7.154325,1.279125,7.584240
1007.011719,17.016252,3.602089,9.684106,2.709216
1007.015625,14.810888,16.169428,4.248659,8.886906
1007.019531,10.360172,13.509449,6.826983,4.613925
1007.023438,8.584124,13.738803,9.012897,5.387026
1007.027344,10.015609,20.463236,20.771870,10.450693
1007.031250,8.816303,7.298652,5.274360,12.731235
1007.035156,7.829269,5.692141,9.552077,5.501425
1007.039062,3.312291,7.516514,10.753630,4.908736
1007.042969,5.704200,3.186144,0.669953,5.264941
1007.046875,1.296520,0.396215,-3.141153,-2.016599
1007.050781,-2.999677,0.959864,1.433127,-4.861572
1007.054688,-3.269031,-4.652326,-9.190768,-6.892048
1007.058594,-2.825349,-2.053057,-0.861305,-4.426395
1007.062500,-1.349369,0.711008,-1.332808,-1.878199
1007.066406,-5.953672,-2.528219,-10.523780,-7.627303
1007.070312,-8.506169,-8.575759,-5.580419,-9.501081
1007.074219,-2.501944,-10.525163,-18.411529,-12.863414
1007.078125,-8.563834,-9.814596,-7.197293,-10.603364
1007.082031,-10.449082,-11.871012,-8.746469,-7.172391
1007.085938,-3.614864,-9.840243,-1.661915,-14.100074
1007.089844,-9.387196,-0.736924,-8.390162,-3.470453
1007.093750,-9.054268,-6.315689,1.443524,-3.771983
1007.097656,3.515314,3.318593,2.409635,-6.387655
1007.101562,4.618942,2.319249,-2.261795,-0.968217
1007.105469,1.614227,1.733774,6.053904,3.712600
1007.109375,2.944803,1.801311,3.455452,16.214718
1007.113281,6.608337,5.777082,14.309833,5.511196
1007.117188,10.161236,6.614779,8.392871,4.898827
1007.121094,15.136589,5.387152,14.843848,5.043647
1007.125000,7.725147,13.208768,15.551791,13.241365
1007.128906,15.635810,10.478361,14.348652,0.515670
1007.132812,10.524598,11.050377,15.586140,-1.859466
1007.136719,10.461463,4.516523,6.935954,7.164823
1007.140625,13.537558,4.154004,-1.314765,4.343402
1007.144531,4.139470,0.886515,-4.480491,-3.128616
1007.148438,8.119460,-0.478805,12.966400,6.214667
1007.152344,-5.037181,5.365319,1.875001,-6.984903
1007.156250,-6.010491,1.880118,-1.128477,-5.356136
1007.160156,-7.632858,2.695178,-0.672795,-13.372039
1007.164062,-11.640619,-5.862167,-4.594526,-4.774005
1007.167969,-10.638100,-4.552200,-5.808211,-8.079237
1007.171875,-9.235373,-15.992910,-6.656773,-4.109294
1007.175781,-14.801843,-9.671939,-13.621427,-10.618590
1007.179688,-11.288965,-12.220047,-13.059953,-10.714146
1007.183594,-7.284601,-10.218391,-11.377434,-5.784747
1007.187500,-11.734622,-0.688326,-3.470565,-1.736288
1007.191406,-2.678729,-10.159833,-3.657221,-1.376004
1007.195312,-5.667647,-4.315313,-7.150088,5.675107
1007.199219,5.265204,1.288462,3.102059,4.960387
1007.203125,2.309634,6.709021,2.674091,7.953873
1007.207031,7.243654,8.594961,7.434281,0.993410
1007.210938,14.431290,4.976015,5.573612,2.501514
1007.214844,5.255470,18.293973,13.832419,8.168826
1007.218750,12.803208,12.870803,6.772525,10.282412
1007.222656,7.704022,12.033169,16.532686,10.908149
1007.226562,9.026778,9.757733,6.179334,10.299467
1007.230469,9.852010,14.678531,11.439174,5.922442
1007.234375,8.674783,7.509523,8.033688,2.696893
1007.238281,-0.061118,12.881770,1.915425,7.646831
1007.242188,6.496239,18.242497,10.972941,-0.953916
1007.246094,-0.363291,5.525654,4.579060,-3.575239
1007.250000,3.414027,5.248377,0.725807,1.233236
1007.253906,0.187317,2.578187,-5.983688,-7.802949
1007.257812,-12.743916,-5.584669,-6.567258,-6.275795
1007.261719,-3.941669,-8.197712,-12.043729,-0.997371
1007.265625,-13.125041,-11.057311,-9.972012,-0.497918
1007.269531,-12.114079,-10.094149,-5.744779,-1.306635
1007.273438,-7.640815,-9.096857,-8.213980,-8.783215
1007.277344,-14.010518,-11.269175,-7.397375,-14.382108
1007.281250,-13.298324,-13.397851,-5.973160,-8.598360
1007.285156,-9.427019,-6.694421,-10.968075,-14.221562
1007.289062,-8.707509,-2.869579,-8.703714,-8.787726
1007.292969,-3.083542,-3.647333,-1.193009,-6.128700
1007.296875,0.586487,2.490157,3.263769,-3.312569
1007.300781,-0.409335,-1.660108,4.838646,8.008491
1007.304688,8.615818,0.191834,4.732010,3.607101
1007.308594,0.104200,5.038017,4.781346,8.361554
1007.312500,7.393883,3.496566,8.820557,20.026851
1007.316406,8.931136,8.143037,14.717339,9.276494
1007.320312,7.271281,6.637681,12.948425,5.382633
1007.324219,8.498411,15.371553,13.854481,10.038420
1007.328125,16.156397,7.611498,13.960170,9.936940
1007.332031,8.545061,11.867246,8.545034,5.078732
1007.335938,12.165281,2.150536,6.585820,5.836919
1007.339844,6.115856,5.970963,7.732440,7.086073
1007.343750,2.670880,-0.214069,-4.316049,0.114276
1007.347656,-3.704494,-3.855922,-3.594188,1.713914
1007.351562,-2.512105,5.364283,-0.125002,-3.468013
1007.355469,-6.365874,-0.991130,-8.173971,-3.991322
1007.359375,0.833835,-9.645373,-4.791449,-9.243325
1007.363281,-9.414445,-4.948636,-0.872513,-9.568197
1007.367188,-4.764701,-2.636132,-12.058064,-3.470802
1007.371094,-11.204754,-5.863359,-6.699937,-15.538193
1007.375000,-13.180921,-13.473770,-7.786310,-12.947308
1007.378906,-10.346970,-12.759151,-6.108163,-17.630231
1007.382812,-12.549430,-8.762126,-10.793498,-10.253823
1007.386719,-7.389209,-10.071548,-13.583335,-11.079695
1007.390625,-5.981452,2.639061,-13.195986,-6.377932
1007.394531,-8.395197,-7.356457,5.429123,-11.586599
1007.398438,-0.426276,-10.446998,2.328681,-4.318847
1007.402344,0.606495,-0.171188,4.304680,7.914033
1007.406250,4.768692,6.991506,2.864591,0.052100
1007.410156,8.992478,1.743938,5.359682,-2.225825
1007.414062,6.442916,12.872548,6.800005,7.709790
1007.417969,13.199991,12.312868,4.466742,10.904526
1007.421875,11.889935,7.446569,4.498541,5.649047
1007.425781,12.662180,4.521897,11.346295,5.610529
1007.429688,0.010420,11.779064,14.913935,10.699344
1007.433594,9.209159,6.058771,7.025092,13.308394
1007.437500,3.605207,5.898345,7.165745,12.195904
1007.441406,6.183858,7.278210,6.514553,5.822467
1007.445312,3.637804,0.205338,3.724385,-0.996757
1007.449219,-1.630025,1.209176,-1.072086,7.866376
1007.453125,-4.284826,-1.955365,-4.228635,-6.176767
1007.457031,-5.850793,-0.502426,-7.436863,-1.564866
1007.460938,-4.338142,-7.745517,-3.042066,-9.544867
1007.464844,-8.973149,-2.693348,-4.362619,-9.196242
1007.468750,-7.212274,-7.063094,-12.514872,-7.046470
1007.472656,-8.836198,-13.718239,-16.688387,-17.229195
1007.476562,-12.971590,-6.088274,-10.211993,-2.674791
1007.480469,-8.374902,-9.506708,-14.533304,-8.694393
1007.484375,-11.985345,-5.426442,-0.374698,-11.634688
1007.488281,-12.037953,-6.906137,-12.801507,-7.836074
1007.492188,0.298909,-12.771918,-9.492386,0.325569
1007.496094,-3.376009,1.550226,-8.596214,-0.925002
1007.500000,1.175619,-2.983178,-0.094673,-5.917928
1007.503906,-3.408966,6.014884,-0.169754,5.878727
1007.507812,6.328860,4.136296,11.273335,6.031616
1007.511719,7.029708,6.081829,-1.265135,7.103275
1007.515625,13.954422,4.732363,5.602885,9.688201
1007.519531,4.122502,-1.704925,6.586608,11.483552
1007.523438,3.258612,1.713877,2.041837,16.506959
1007.527344,19.102069,7.766564,10.893568,7.607491
1007.531250,13.380090,11.985588,6.426475,6.143074
1007.535156,10.382699,6.500553,4.140510,4.449234
1007.539062,1.256881,2.493551,-0.753499,5.721301
1007.542969,4.732459,11.194875,1.641089,6.588797
1007.546875,-1.280160,2.084144,1.231198,0.466989
1007.550781,1.737409,8.623567,-0.795574,-2.765383
1007.554688,-3.993514,-14.627245,-7.471893,1.153588
1007.558594,-5.062821,-11.238994,-7.142613,-3.096845
1007.562500,-6.614216,-6.909695,-5.989955,-10.501436
1007.566406,-15.039914,-15.403249,-7.339435,-6.144396
1007.570312,-6.280291,-8.876889,-2.964176,-12.379351
1007.574219,-13.200920,-5.606626,-9.966657,-11.743654
1007.578125,-9.132206,-8.891069,-10.599494,-6.993814
1007.582031,-8.384809,-14.330574,-11.893563,-5.039705
1007.585938,-5.986400,-8.784221,-13.228716,0.210180
1007.589844,-7.290387,-8.620073,-5.492875,-8.242962
1007.593750,-11.549261,-8.109510,-0.520867,-9.939064
1007.597656,-4.714372,2.837710,0.958195,1.100343
1007.601562,3.644960,-6.319185,-3.062854,-0.293454
1007.605469,4.301650,10.489568,2.971475,5.812640
1007.609375,3.041151,7.596247,-0.013905,6.406604
1007.613281,4.312174,7.263510,4.467141,11.736414
1007.617188,10.114323,4.957343,14.151961,7.318989
1007.621094,15.456744,7.144766,16.910152,5.024669
1007.625000,2.158133,11.745607,9.927333,9.582157
1007.628906,14.189224,6.851206,7.652356,5.766915
1007.632812,11.864198,10.221988,2.029977,5.635105
1007.636719,1.344019,10.708014,13.250126,10.155849
1007.640625,8.726243,3.938731,1.803058,9.029615
1007.644531,4.377228,1.772208,9.283156,10.461136
1007.648438,-0.278710,0.861693,-0.524360,0.901635
1007.652344,0.273190,1.209192,-3.469577,-1.180068
1007.656250,-5.509768,-5.513927,-2.286931,-5.362565
1007.660156,-5.382711,-8.371910,0.533119,-4.506254
1007.664062,-2.512079,-10.932823,-6.669704,-2.991155
1007.667969,-8.398412,-12.149648,-18.026088,-2.269290
1007.671875,-3.305800,-10.862915,-13.013774,-1.491737
1007.675781,-14.984454,-10.901393,-9.018165,-12.884091
1007.679688,-15.182712,-10.613108,-10.401507,-5.016899
1007.683594,-10.429857,-14.811470,-4.720126,-8.491696
1007.687500,-10.915645,-9.537080,-6.497262,-6.134150
1007.691406,-8.082871,-15.004367,-6.931900,-5.649012
1007.695312,-4.761074,9.234605,-9.185044,-5.934365
1007.699219,2.962552,-0.876944,6.264421,-3.053228
1007.703125,2.345591,-1.528250,1.194530,0.663886
1007.707031,5.492389,7.989423,-2.788553,4.057830
1007.710938,6.418676,14.650834,7.739671,-3.837094
1007.714844,6.213942,5.954965,10.553594,6.428911
1007.718750,9.024255,7.826971,12.037877,12.805869
1007.722656,7.313523,7.865560,10.630492,7.243002
1007.726562,5.029497,7.762912,10.698897,7.816949
1007.730469,11.869623,8.375548,15.024410,8.614392
1007.734375,7.864383,5.906219,8.675335,10.729022
1007.738281,-0.682071,15.886285,4.334097,0.035984
1007.742188,6.061625,-3.920118,11.995402,6.101718
1007.746094,1.588894,0.522182,7.902955,0.460384
1007.750000,2.656980,-4.278943,-1.719152,-8.058215
1007.753906,3.233342,-4.100755,-7.891614,-1.264706
1007.757812,-2.428792,-3.519427,-4.314277,-14.497263
1007.761719,-9.561860,-10.456706,-10.464282,-5.577873
1007.765625,-7.144123,-9.424926,-7.576732,-10.993737
1007.769531,-17.750755,-7.969016,-10.228184,-5.739728
1007.773438,-5.546369,-10.283470,-14.388042,-12.376563
1007.777344,-10.408211,-5.698362,-11.884856,-10.283074
1007.781250,-10.338645,-7.922129,-7.928166,-6.596856
1007.785156,-10.211829,-9.136483,-9.169794,-0.688995
1007.789062,-0.872158,-8.711427,-1.821676,-6.818495
1007.792969,-4.232709,-3.615090,-9.746666,-4.910496
1007.796875,-8.447998,-7.246367,-5.776922,-3.312793
1007.800781,3.306535,-2.938838,4.594211,1.922322
1007.804688,4.712170,0.707787,3.430800,-4.431652
1007.808594,12.203448,6.083937,7.708648,15.768448
1007.812500,5.843373,4.050827,8.599882,10.053307
1007.816406,5.792166,8.992339,9.933053,5.750254
1007.820312,11.365826,11.101243,6.452172,13.934160
1007.824219,10.589546,5.902136,15.510218,12.024278
1007.828125,11.353324,18.031990,18.624019,19.724862
1007.832031,8.486429,8.215031,3.990029,16.482569
1007.835938,7.787700,11.554551,3.691976,10.195032
1007.839844,6.639273,2.886070,4.807283,0.605833
1007.843750,7.831482,4.362261,3.851158,5.161924
1007.847656,0.484969,-4.085748,1.535767,5.550549
1007.851562,1.925457,-7.186629,8.834567,-4.803890
1007.855469,-0.796629,-6.853893,-10.045693,-6.353602
1007.859375,-9.930250,-6.611410,-10.910960,-2.339739
1007.863281,-7.120107,-9.828555,-13.964101,-4.203192
1007.867188,-6.386274,-4.884162,-5.057931,-8.595620
1007.871094,-13.580702,-8.854990,-6.020515,-7.925264
1007.875000,-7.713604,-10.422844,-10.378399,-4.870491
1007.878906,-7.660405,-8.303829,-6.189136,-16.788989
1007.882812,-12.267727,-1.838868,-3.664787,-5.650605
1007.886719,-0.993533,-15.272789,-8.551711,-8.165280
1007.890625,-0.315307,-9.447478,-7.512363,-7.099493
1007.894531,-1.601899,-7.903058,-4.759976,-4.709400
1007.898438,-1.807435,3.618327,-1.091355,-0.047664
1007.902344,1.437220,-1.805458,0.201792,-4.221309
1007.906250,-0.363812,-7.773310,1.051032,-1.100641
1007.910156,1.030250,9.543519,-5.639874,4.432054
1007.914062,13.983074,3.107696,8.066237,3.630099
1007.917969,7.217086,15.265563,17.559756,9.738933
1007.921875,9.800869,14.141419,11.008184,13.011120
1007.925781,7.883031,13.992033,15.831891,11.025194
1007.929688,16.434193,6.601539,6.851923,12.401416
1007.933594,10.866810,8.546104,8.641040,7.231670
1007.937500,12.354603,5.880148,6.238727,11.988973
1007.941406,4.839493,3.752587,-0.241077,4.633975
1007.945312,5.025780,-1.826560,-0.589881,0.085422
1007.949219,-0.063431,1.386275,-5.624331,-2.175512
1007.953125,8.748094,-2.291511,0.071132,4.519153
1007.957031,1.947461,-4.028870,-5.284787,-1.311326
1007.960938,-5.951460,-3.327828,-13.432582,-5.469717
1007.964844,-12.464660,-14.063791,-2.843897,-10.852937
1007.968750,-12.298251,-10.888708,-14.070490,-14.569690
1007.972656,-16.347297,-8.538844,-3.970520,-2.824222
1007.976562,-4.773239,-12.025303,-14.276639,-12.405597
1007.980469,-18.221538,-7.843501,-3.953582,-4.348667
1007.984375,-11.662950,-6.683132,-7.647693,-12.022715
1007.988281,-2.119096,-10.618535,-3.665036,-11.808577
1007.992188,-5.821541,-4.885960,-2.044798,-6.683626
1007.996094,-5.829792,6.355755,1.707472,4.089427
1008.000000,3.149569,2.963394,-3.655639,-4.776181
1008.003906,4.667281,6.462810,3.841030,-0.888156
1008.007812,5.147283,1.824055,3.949031,10.005493
1008.011719,7.894450,9.701628,5.484626,6.051393
1008.015625,9.392429,6.853000,6.010212,8.317433
1008.019531,8.916601,7.118558,8.595169,9.399785
1008.023438,8.399644,13.224097,5.523172,4.080668
1008.027344,15.865437,6.761442,6.561634,4.679386
1008.031250,7.199879,12.236292,9.034846,11.835409
1008.035156,10.093714,5.358674,5.517214,5.971088
1008.039062,-0.236588,4.487100,7.672469,8.019867
1008.042969,0.982363,1.066133,4.640536,3.047078
1008.046875,7.535020,2.388689,5.534209,0.486845
1008.050781,1.659760,1.968637,1.696449,-2.348409
1008.054688,2.271782,-4.101886,-1.853478,0.143766
1008.058594,-6.004366,-10.782613,-8.331523,0.165183
1008.062500,-3.853896,-7.988772,-9.350137,-5.327698
1008.066406,-6.484196,-6.971826,-6.900435,-11.326559
1008.070312,-7.786153,-16.210664,-4.796691,-11.564465
1008.074219,-4.390938,-4.655604,-3.993502,-9.749676
1008.078125,-10.053084,-9.235845,-6.158850,-13.772195
1008.082031,-17.370014,-15.137577,-8.386269,-9.717423
1008.085938,-12.156324,-9.976461,-11.347993,-6.197084
1008.089844,-10.017927,-4.865736,-0.764147,-2.378788
1008.093750,-6.668645,-14.022642,-4.221203,-3.993566
1008.097656,3.040814,-2.996506,-2.372638,-5.940658
1008.101562,-6.568729,3.438414,6.892481,1.378044
1008.105469,4.144501,6.537876,2.345010,4.978694
1008.109375,-2.374591,4.842842,10.820267,18.361380
1008.113281,13.158488,2.805187,4.644518,10.985562
1008.117188,14.071535,10.780250,5.607307,7.724362
1008.121094,8.693085,11.275132,7.377190,7.009992
1008.125000,9.968137,8.288148,6.927862,6.728766
1008.128906,8.414629,10.967614,14.955571,10.434868
1008.132812,16.762763,7.514225,12.521253,8.021790
1008.136719,10.994313,9.530399,14.881637,10.288062
1008.140625,4.448273,-0.207826,7.403721,7.876962
1008.144531,4.718637,10.379607,5.006010,10.140150
1008.148438,1.839133,6.666512,0.782258,4.730578
1008.152344,-6.732476,-6.353818,-6.538104,1.214291
1008.156250,-0.553610,0.373394,-3.827056,-6.396079
1008.160156,-0.919992,-9.086296,-9.470859,-3.416473
1008.164062,-13.007324,-5.545825,-10.365135,-11.132374
1008.167969,-2.845329,-4.596415,-12.984434,-7.502150
1008.171875,-7.342108,-7.183919,-10.429119,-8.383540
1008.175781,-8.244201,-13.630142,-14.724503,-12.301678
1008.179688,-8.361677,-13.294449,-12.437806,-15.451998
1008.183594,-5.409084,-10.878913,-9.105477,-14.957759
1008.187500,-5.534989,-4.328556,-9.267322,0.185226
1008.191406,-0.601131,-1.516408,-0.245966,-8.208258
1008.195312,-3.016077,-3.259719,-6.523096,-2.489660
1008.199219,-1.025464,5.517303,2.566278,-6.242769
1008.203125,6.578318,-1.507546,3.207490,-3.385867
1008.207031,-0.499445,4.106372,0.287353,0.441335
1008.210938,6.648932,6.900325,5.851621,2.964663
1008.214844,12.325929,9.531508,14.525718,1.015357
1008.218750,13.853277,16.027133,3.956999,4.668313
1008.222656,8.570437,10.881409,12.548436,8.242174
1008.226562,11.066768,10.004031,10.966933,12.815161
1008.230469,12.066168,13.696623,13.638582,8.691491
1008.234375,0.648648,11.121503,11.334078,2.746757
1008.238281,17.789314,9.012093,6.596499,6.806953
1008.242188,11.199530,10.916069,2.520999,7.178448
1008.246094,3.143843,2.408437,9.515372,3.458591
1008.250000,-4.792002,7.778710,1.204733,2.545527
1008.253906,-5.353467,2.813242,4.138012,-5.111558
1008.257812,-0.514503,-2.245414,-3.783036,-1.986190
1008.261719,-3.681538,-7.397522,-11.124259,-8.767568
1008.265625,-12.045409,-14.740610,-9.770200,-3.462768
1008.269531,-11.759273,-14.221475,-6.997547,-6.117639
1008.273438,-16.085736,-11.357168,-10.878321,-6.183044
1008.277344,-12.788985,-12.305774,-6.569956,-14.334917
1008.281250,-10.584318,-12.864769,-4.758220,-2.689291
1008.285156,-10.393719,-7.975451,-8.425492,-6.188154
1008.289062,-3.852253,-6.386522,0.538938,-11.317895
1008.292969,-1.607562,-1.584177,-1.215187,-3.221566
1008.296875,-0.737974,-4.379271,2.348950,5.411198
1008.300781,2.398990,2.165461,0.001793,1.764955
1008.304688,0.016466,5.154069,-4.579933,11.103218
1008.308594,3.103611,4.442729,0.708245,-2.763161
1008.312500,11.210059,9.718953,1.894627,4.227277
1008.316406,9.460383,7.144851,7.849639,8.192158
1008.320312,9.120559,7.786966,8.695583,13.964704
1008.324219,16.800844,12.519821,7.759489,8.113822
1008.328125,19.383568,9.129827,6.866473,11.834740
1008.332031,7.410312,17.587603,6.852403,6.379281
1008.335938,6.663995,5.057442,8.785048,3.470017
1008.339844,10.569040,4.378470,0.970936,3.878412
1008.343750,3.102111,2.253464,2.118972,0.530982
1008.347656,0.347420,7.625363,0.930590,-2.399752
1008.351562,-5.406455,-1.852341,-0.524362,2.022746
1008.355469,-7.673337,-6.860129,-1.049044,-9.001855
1008.359375,-2.581368,-4.678634,-7.751999,-4.259255
1008.363281,-5.630686,-8.011152,-7.536382,0.769315
1008.367188,-10.627015,-14.107534,-10.003238,-12.078002
1008.371094,-9.792621,-17.305021,-8.019025,-17.084850
1008.375000,-17.527669,-8.386911,-15.352516,-15.526238
1008.378906,-12.368738,-7.288314,-10.834700,-12.033999
1008.382812,-14.928136,-14.602770,-11.522988,-8.547686
1008.386719,-12.225673,-5.494775,-3.943399,-7.337385
1008.390625,-6.149162,-4.147266,-2.204447,-9.677300
1008.394531,-5.263661,-3.124839,-7.681908,-7.637208
1008.398438,-1.028109,-0.359622,2.831748,-0.291351
1008.402344,1.715211,0.493608,-6.495777,2.953932
1008.406250,6.058189,-1.558887,8.747561,7.512380
1008.410156,5.814208,6.312915,4.233568,15.407250
1008.414062,9.637331,6.730472,10.496437,11.131524
1008.417969,9.268256,16.072544,5.987026,5.699725
1008.421875,3.850007,12.475989,16.004760,10.128235
1008.425781,10.554644,10.187139,5.049056,8.680608
1008.429688,6.449392,3.042700,8.922348,8.032830
1008.433594,1.256684,6.964126,10.012723,4.184384
1008.437500,2.448026,6.021028,9.278389,3.427740
1008.441406,3.967167,-0.897506,6.486298,3.674007
1008.445312,0.689286,2.365771,0.889878,-1.826177
1008.449219,-7.774595,4.202426,-2.024011,-0.918199
1008.453125,8.092587,-5.980083,4.128829,-2.733419
1008.457031,-1.428830,-2.647034,-3.488214,-0.633789
1008.460938,-7.620839,-9.206178,-3.590851,-3.470847
1008.464844,-4.342767,-11.027536,-4.906527,-9.551667
1008.468750,-10.033052,-9.928608,-4.817786,-7.213077
1008.472656,2.279086,-7.130209,-7.069547,-9.231585
1008.476562,-8.463735,-6.845510,-8.712053,-13.860977
1008.480469,-11.059591,-12.584673,-19.984627,-7.467932
1008.484375,-11.705785,-2.142272,-10.756982,-5.987304
1008.488281,-8.141327,-13.027640,-14.919158,-5.004453
1008.492188,-0.264199,0.606580,-6.825362,-1.354715
1008.496094,-2.173642,-4.405147,-8.006158,-6.820398
1008.500000,-0.026873,-8.917231,-2.525519,6.105132
1008.503906,-1.164689,5.431652,3.555179,1.740737
1008.507812,0.322532,2.574650,4.670627,1.150002
1008.511719,1.202628,5.383005,10.953556,12.226506
1008.515625,11.435220,3.312595,10.156151,12.330985
1008.519531,4.406065,4.982607,11.555914,10.798905
1008.523438,12.425045,11.459607,6.945982,11.800743
1008.527344,16.844927,12.800306,11.921052,10.575648
1008.531250,10.940071,12.286521,8.280208,19.493307
1008.535156,11.062485,12.747528,9.565636,6.293708
1008.539062,11.634070,6.376574,11.750878,9.634510
1008.542969,3.949897,-4.976639,2.252141,-2.223565
1008.546875,0.544258,-0.222600,6.056857,3.990670
1008.550781,-0.145908,-4.060956,-1.005745,-4.754634
1008.554688,5.375278,-3.327868,-4.446745,3.350726
1008.558594,-11.355583,-7.125496,-7.234008,1.264281
1008.562500,-4.992507,-3.179640,-4.680385,-7.377672
1008.566406,-12.244861,-5.989749,-5.742873,-9.824049
1008.570312,-2.581413,-3.428304,-13.212571,-7.856068
1008.574219,-8.802118,-10.065662,-12.314107,-6.571167
1008.578125,-10.953592,-12.522414,-10.014702,-1.861664
1008.582031,-4.851994,-12.830474,-13.962118,-3.903804
1008.585938,-9.594120,-10.726355,-10.689402,-8.296421
1008.589844,-5.451607,-5.411857,-8.719644,-5.025667
1008.593750,-1.383931,-1.779989,-1.904616,-5.997877
1008.597656,5.806766,-5.919725,1.920125,-0.897984
1008.601562,1.342427,-3.220862,-1.540426,-2.502358
1008.605469,2.661915,-0.903177,-0.111301,1.651594
1008.609375,5.318722,8.065170,2.660950,6.533922
1008.613281,9.236577,4.154337,13.457324,0.126007
1008.617188,13.674912,15.196989,7.974280,12.203474
1008.621094,15.270992,8.262275,5.711649,7.596632
1008.625000,14.938946,10.727318,9.262817,8.414850
1008.628906,3.924971,10.940417,14.833177,17.622844
1008.632812,2.059416,11.821513,5.736415,11.458326
1008.636719,9.455394,10.842127,3.532276,7.241639
1008.640625,6.476856,6.780153,5.908959,5.004171
1008.644531,2.384276,3.829668,6.041487,5.774313
1008.648438,4.624293,-0.710538,-2.238158,8.233158
1008.652344,3.515349,6.858102,-4.256556,0.977080
1008.656250,-5.997560,-11.903675,-5.616761,-4.157812
1008.660156,-2.880552,-7.619527,-3.388069,-6.971495
1008.664062,-4.224941,-10.567950,-10.140624,-8.209452
1008.667969,-9.729869,-11.795673,-8.963141,-8.542547
1008.671875,-6.232063,-7.849596,-13.967789,-9.805747
1008.675781,-10.968097,-11.656059,-9.015162,-12.447459
1008.679688,-14.135614,-3.669807,-5.104015,-2.622283
1008.683594,-5.254674,-5.498826,-10.657516,-6.092491
1008.687500,-7.417453,-15.322161,-7.475309,-6.884585
1008.691406,-5.491233,-5.526295,-14.378219,-6.596408
1008.695312,-2.365160,-1.509324,0.697221,-1.431802
1008.699219,5.996842,0.232584,2.579663,3.329337
1008.703125,-1.388986,-1.398372,5.950650,2.360005
1008.707031,2.543755,6.038023,4.926153,4.657302
1008.710938,12.167169,5.343020,11.910631,-4.946055
1008.714844,5.627634,7.739115,10.001420,5.002479
1008.718750,8.119641,8.816869,6.417192,7.777945
1008.722656,0.594990,15.179718,11.750896,15.760065
1008.726562,11.661504,-1.368524,14.402505,10.386073
1008.730469,15.258489,11.285028,6.631015,8.400786
1008.734375,5.619214,4.246776,3.007262,0.273169
1008.738281,3.400160,11.028942,12.942242,12.081801
1008.742188,-1.540911,-3.726062,1.635254,0.100600
1008.746094,1.470226,2.087627,-4.362006,10.924270
1008.750000,-4.514136,-2.981770,0.876675,0.085744
1008.753906,-4.814471,-5.759042,-1.642480,-2.973683
1008.757812,-5.217960,-8.886157,-5.507199,-6.138998
1008.761719,-5.914192,-7.097479,-6.136877,-10.827619
1008.765625,-5.416412,-15.489601,-9.796215,-11.522693
1008.769531,-7.988035,-8.464012,-10.466427,-10.316007
1008.773438,-4.782876,-7.194652,-18.924627,0.422293
1008.777344,-4.606734,-7.459163,-14.755976,-9.503069
1008.781250,-5.147124,-8.850900,-9.848014,-9.245144
1008.785156,-12.554403,-1.499184,-17.800131,-9.232784
1008.789062,-2.345187,-8.403702,-3.680621,-3.882156
1008.792969,-9.572890,-2.557213,-1.405640,-8.655529
1008.796875,-0.710822,-3.997852,-2.059257,-6.619379
1008.800781,3.310750,-3.334086,-2.651818,9.622911
1008.804688,3.665445,1.700777,0.095439,0.468811
1008.808594,5.405852,9.064589,3.341431,-3.965267
1008.812500,3.996749,6.540985,5.343777,17.585653
1008.816406,7.902515,12.245433,5.674687,3.958008
1008.820312,5.619662,11.277414,15.978303,9.093474
1008.824219,9.676934,17.212866,6.856531,10.956431
1008.828125,16.636783,16.209729,11.502527,7.163556
1008.832031,12.865271,11.192733,11.092860,10.073515
1008.835938,9.619916,8.365455,3.567541,2.130311
1008.839844,3.651036,0.746157,3.916266,8.003741
1008.843750,4.861164,1.341411,8.940345,8.122044
1008.847656,5.520780,0.007445,-0.181836,-2.495029
1008.851562,-4.955515,-0.244103,3.990301,-4.039237
1008.855469,-1.256834,-7.402530,-3.491294,-0.829077
1008.859375,3.052236,-12.261265,-2.083663,-2.987162
1008.863281,-7.878779,-8.541688,-8.612546,-7.831590
1008.867188,-11.240552,-6.186291,-5.896132,-8.078041
1008.871094,-11.417174,-3.243369,-8.612982,-15.530261
1008.875000,-6.804149,-10.983650,-13.789904,-12.883361
1008.878906,-10.261879,-9.283155,-19.866107,-2.547964
1008.882812,-11.517497,-1.838210,-7.985277,-10.439691
1008.886719,-10.455942,-5.586562,-7.523045,-12.039635
1008.890625,-4.635026,-6.502115,-9.229712,-8.600034
1008.894531,-8.557039,4.116298,-1.222607,-4.992481
1008.898438,-1.954473,-1.463511,-4.099959,4.490318
1008.902344,-0.215592,7.287434,-3.148549,3.644672
1008.906250,1.284895,13.359704,7.147376,-1.777271
1008.910156,8.922262,7.416645,6.715333,6.049731
1008.914062,1.946216,5.840347,5.993742,12.611649
1008.917969,7.784936,11.421505,9.398377,12.376928
1008.921875,8.088943,5.823042,5.138304,7.074053
1008.925781,15.683461,11.354766,11.550042,12.568676
1008.929688,15.475214,11.161777,3.686698,3.478329
1008.933594,4.624274,8.517304,9.351300,6.950522
1008.937500,13.086872,11.872675,12.739098,7.264909
1008.941406,0.646645,4.278768,-2.546710,5.953381
1008.945312,3.897531,5.851604,2.967496,6.532374
1008.949219,-2.058923,0.259870,1.372862,2.244891
1008.953125,4.428694,2.808746,-4.655112,-4.810314
1008.957031,-0.770019,-7.610774,-9.291862,-10.890694
1008.960938,-8.660543,-7.607755,-14.717842,-9.596611
1008.964844,-8.957568,-11.902836,-14.783519,-13.479795
1008.968750,-3.336616,-10.200540,-9.704118,-18.581763
1008.972656,-9.299001,-16.548790,-10.165688,-12.768530
1008.976562,-7.246730,-15.180587,-9.545314,-10.134983
1008.980469,-11.488923,-8.305109,-8.270687,-14.183866
1008.984375,-1.191814,-13.464184,-4.925700,-5.877670
1008.988281,-11.768119,-7.189432,-0.958683,-5.111636
1008.992188,-8.688240,-7.910011,0.339575,-1.354666
1008.996094,-2.393443,0.731980,2.492594,0.721245
1009.000000,3.351604,0.202250,-1.747857,-3.943996
1009.003906,-0.344731,-0.203685,3.170531,-0.793970
1009.007812,9.297230,4.617372,-3.314997,6.628467
1009.011719,13.326936,6.412259,2.631392,10.909836
1009.015625,8.881070,6.894844,6.911835,8.079785
1009.019531,8.550897,11.105985,8.609662,8.435181
1009.023438,3.760316,10.606480,6.709431,14.754164
1009.027344,4.833203,0.712820,17.979026,5.552575
1009.031250,11.495918,8.675958,14.959476,17.903889
1009.035156,5.484539,6.686618,2.851897,8.004571
1009.039062,4.525962,-1.490214,8.251206,8.076290
1009.042969,11.809667,12.684174,2.527198,7.434186
1009.046875,2.275667,-0.575802,-2.525676,8.722676
1009.050781,-6.181195,0.585631,3.459634,1.721363
1009.054688,-2.472369,-6.406945,-7.125060,-10.538397
1009.058594,-6.691150,-7.738257,-10.916170,-2.016690
1009.062500,-9.207355,-12.139198,-16.543948,-11.336325
1009.066406,-11.970046,-9.167323,-8.706022,-13.417278
1009.070312,-6.186834,-8.845839,-10.409674,-12.248546
1009.074219,-10.352836,-8.599174,-11.053020,0.626980
1009.078125,-13.333931,-8.150125,-13.581996,-12.940989
1009.082031,-2.001009,-15.612435,-9.976841,-8.059833
1009.085938,-11.137524,-7.911924,-2.471886,-15.112458
1009.089844,-8.010995,-7.134786,-4.852859,-6.437645
1009.093750,-13.584329,0.723859,-4.558343,-0.864331
1009.097656,0.068113,-5.707475,0.960224,-9.884859
1009.101562,0.018234,4.737528,-2.243493,8.506530
1009.105469,1.513984,0.032931,-0.561460,4.006768
1009.109375,8.626088,8.366886,-0.575666,8.769395
1009.113281,9.413554,13.840677,9.015107,0.467728
1009.117188,11.453263,7.102017,10.018531,11.889891
1009.121094,11.505373,10.561582,9.579338,16.824286
1009.125000,12.317375,4.849437,15.498580,3.134020
1009.128906,15.667324,16.142128,13.625088,9.687054
1009.132812,5.095053,8.048049,12.880690,14.103947
1009.136719,7.136678,14.296377,10.472627,3.188742
1009.140625,1.437547,9.190787,7.366027,3.336823
1009.144531,5.389876,4.929310,4.316432,1.999057
1009.148438,-4.055164,-1.914295,-3.470295,5.976772
1009.152344,-8.297484,2.804748,2.985284,-0.468318
1009.156250,-7.139881,-8.796516,-0.565996,-5.680729
1009.160156,2.823057,-10.620954,-13.468126,-2.943171
1009.164062,-14.195905,1.915663,-1.910952,-0.435938
1009.167969,-18.182693,-3.398979,-5.628527,-9.337047
1009.171875,-7.498703,-10.496985,-10.863877,-11.761976
1009.175781,-9.344043,-12.858733,-12.528411,-3.025529
1009.179688,-12.900076,-18.365416,-8.760247,-12.391782
