timestamp,TP9,AF7,AF8,TP10
1000.000000,-2.669381,-3.044637,0.134797,-6.669679
1000.003906,-5.765805,6.930928,-3.512023,3.167621
1000.007812,16.325385,5.130715,3.056697,4.051263
1000.011719,11.029804,12.429343,3.250965,0.191419
1000.015625,4.748892,3.206548,9.181045,9.235982
1000.019531,6.701875,18.749554,8.033766,4.936136
1000.023438,8.483908,5.840475,3.124748,9.175359
1000.027344,7.860615,9.818892,9.562802,13.102038
1000.031250,5.875617,11.708359,4.475900,13.750946
1000.035156,10.540759,8.319806,16.589923,9.468828
1000.039062,7.778738,4.657917,4.220552,-1.168466
1000.042969,4.796593,6.866155,0.031681,9.434296
1000.046875,-1.910232,-1.900832,7.084351,-2.347496
1000.050781,-1.143807,4.277667,4.351061,1.764614
1000.054688,-10.136877,-3.622540,-2.932666,-3.617089
1000.058594,1.338243,-3.433409,-4.204875,-9.045859
1000.062500,-12.274743,-7.864155,-9.559004,-5.775501
1000.066406,-8.635727,-12.009348,-9.904649,-11.407114
1000.070312,-7.210677,-5.423067,-2.809377,-10.050741
1000.074219,-11.221948,-12.294280,-6.633151,-7.359346
1000.078125,-5.370734,-8.835226,-12.255016,-12.952079
1000.082031,-11.722163,-14.748074,-7.841769,-8.545146
1000.085938,-16.813834,-9.994248,-7.231269,-7.443758
1000.089844,-7.339630,1.103596,-11.909050,-11.704808
1000.093750,2.210621,3.219810,-3.147888,-8.804411
1000.097656,-6.290736,-5.765980,2.685614,-2.609055
1000.101562,-6.407927,2.447773,-9.276457,3.343157
1000.105469,1.999542,5.497562,3.948996,0.259200
1000.109375,10.524359,7.708263,2.529270,8.687204
1000.113281,3.821072,9.123335,10.662561,11.262432
1000.117188,3.368390,13.727405,4.174794,10.374096
1000.121094,9.753871,4.499095,8.103709,12.065525
1000.125000,13.251994,7.396931,13.800549,8.641101
1000.128906,14.975474,8.629786,14.727014,6.755092
1000.132812,3.167357,7.637198,9.507536,14.759599
1000.136719,13.263849,6.256339,10.486796,5.789121
1000.140625,3.073319,10.059473,3.745428,11.662340
1000.144531,4.573370,0.243885,8.516726,7.154711
1000.148438,6.503285,4.596085,-2.004728,4.098200
1000.152344,0.420280,-2.366989,-6.628259,0.349896
1000.156250,-3.575290,-8.036226,-2.606877,-1.588108
1000.160156,-9.099849,-3.425783,-3.644839,-12.018192
1000.164062,-9.455638,-10.310173,-8.650320,-4.471320
1000.167969,-6.903506,-12.971860,-15.095385,-9.549307
1000.171875,-3.065838,-12.994684,-9.759660,-16.465195
1000.175781,-8.278702,-6.510262,-11.832484,-2.956846
1000.179688,-12.428542,-9.658498,-9.895440,-11.704102
1000.183594,-9.308182,-2.115354,-4.297438,-7.660467
1000.187500,-8.777978,-3.714363,0.013987,-3.779055
1000.191406,-8.007186,-18.071332,2.556405,-6.421319
1000.195312,-8.866532,-10.399165,2.831605,-0.225050
1000.199219,0.789567,1.491227,-4.995520,-2.533126
1000.203125,3.965719,-1.230170,8.764240,-2.178239
1000.207031,1.437930,13.379641,-9.712622,0.338570
1000.210938,3.354008,8.180841,-7.494918,10.404191
1000.214844,8.376711,0.541470,8.388414,7.411781
1000.218750,6.970864,9.095465,11.884893,6.328020
1000.222656,16.762792,15.514738,14.501983,6.532383
1000.226562,12.569020,12.946914,16.869604,10.064702
1000.230469,11.756067,15.923133,8.965376,9.579249
1000.234375,10.319305,12.192297,5.940099,11.849082
1000.238281,11.608846,14.309692,3.922838,8.914593
1000.242188,3.909234,3.110025,1.153290,9.759996
1000.246094,10.762373,1.875232,-5.630296,0.230873
1000.250000,0.897779,0.060508,3.180728,5.118212
1000.253906,-2.089441,-3.979507,0.754359,-9.679609
1000.257812,-5.687246,-4.132185,0.232440,-2.604555
1000.261719,-7.334158,-8.180912,-9.897992,-10.977760
1000.265625,-9.421426,-10.664452,-10.218021,-9.381338
1000.269531,-13.754762,-12.803773,-5.984658,-9.603907
1000.273438,-10.754527,-12.472503,-8.366046,-5.578894
1000.277344,-13.027437,-4.608346,-10.600386,-22.722564
1000.281250,-4.710668,-4.581356,-17.179934,-10.073535
1000.285156,-14.129808,-7.697838,-6.217486,-11.527496
1000.289062,-5.253508,-9.610553,-8.002657,-5.432182
1000.292969,-6.913852,-3.970543,-0.752254,-5.413423
1000.296875,-6.443460,-1.972309,-0.991114,-7.982159
1000.300781,-0.056505,0.893304,0.644276,0.000509
1000.304688,1.097004,4.782710,-2.779605,-1.119825
1000.308594,2.547153,10.016066,7.939916,11.528392
1000.312500,7.429276,6.756608,6.687562,8.856964
1000.316406,8.472260,12.046723,1.150962,7.193596
1000.320312,10.155671,9.960736,8.154285,6.519071
1000.324219,9.125101,13.427502,7.278595,13.016166
1000.328125,11.773686,9.885112,9.057565,4.457066
1000.332031,9.039263,6.627176,9.720128,5.202696
1000.335938,13.721148,8.200581,6.805316,14.135811
1000.339844,5.876457,12.094394,2.868546,13.096451
1000.343750,3.009252,4.930831,7.598876,10.158022
1000.347656,6.111479,-3.052396,-1.482990,3.715071
1000.351562,-6.961023,-0.325935,-0.945648,-1.890408
1000.355469,-6.876906,-1.264317,-11.017114,7.358078
1000.359375,-9.125972,-8.514012,-3.454479,-2.813386
1000.363281,-7.419115,-8.084121,-2.120876,-5.551690
1000.367188,-2.965321,-4.045618,-6.199647,-3.290856
1000.371094,-9.121963,-11.187862,-10.026757,-12.096068
1000.375000,-15.833317,-9.399743,-5.450535,-16.922350
1000.378906,-5.328856,-12.504221,-9.913489,-6.531175
1000.382812,-20.668315,-0.067970,-7.244064,-10.173039
1000.386719,-3.411220,-10.536289,-13.001986,-5.757886
1000.390625,-6.194744,-13.743536,-5.032128,-7.458118
1000.394531,-6.224094,0.792097,-1.883485,-4.522261
1000.398438,4.994018,-8.645536,1.380386,-0.664128
1000.402344,6.463048,8.067894,-3.659310,5.651053
1000.406250,5.328214,-3.958020,2.921338,9.442458
1000.410156,0.819714,7.027508,7.217968,5.165582
1000.414062,3.731748,6.731886,10.705165,9.519537
1000.417969,2.751301,1.636449,20.904721,11.832866
1000.421875,12.320895,10.201244,4.423197,13.358395
1000.425781,4.645283,13.710276,14.266074,11.594862
1000.429688,6.542366,12.113658,6.070881,6.984334
1000.433594,6.783991,8.909786,8.025490,9.203296
1000.437500,6.369501,8.616501,8.184500,10.330795
1000.441406,-5.571240,-0.043730,9.808495,2.039788
1000.445312,3.093233,1.284250,1.191000,-2.589580
1000.449219,-2.376975,-4.330678,3.837492,3.630908
1000.453125,-1.845410,-4.657290,-4.693588,-3.534077
1000.457031,0.280281,-4.818020,-6.774675,0.986430
1000.460938,-10.841391,-7.184236,-9.160110,-1.691652
1000.464844,-9.595590,-12.296211,-6.184200,-5.813980
1000.468750,-10.539013,-1.585848,-9.431912,-4.092856
1000.472656,-11.274129,-5.732625,-6.748103,-15.928037
1000.476562,-3.242493,-11.248510,-10.755269,-13.677186
1000.480469,-9.502241,-3.158872,-11.095659,-5.248571
1000.484375,-3.525689,-1.874678,-0.342581,-2.256932
1000.488281,-0.583932,-8.453480,-5.996682,-6.464895
1000.492188,-0.599979,-7.753345,-1.757908,-7.197263
1000.496094,2.897868,5.669954,-4.537629,-7.193140
1000.500000,-0.223336,1.574646,1.351156,2.302927
1000.503906,8.650221,4.851794,6.761701,-1.510148
1000.507812,4.062982,0.581736,7.741879,0.287296
1000.511719,4.995407,10.002307,9.265166,9.372487
1000.515625,15.512443,9.134332,13.430761,10.750544
1000.519531,10.053639,12.564710,12.492895,10.310847
1000.523438,9.175657,13.883894,12.437750,8.215153
1000.527344,8.872070,14.429222,7.772507,8.198420
1000.531250,8.469132,14.337272,10.337565,2.391356
1000.535156,6.970648,11.864435,3.850794,4.548349
1000.539062,-1.013573,1.767834,6.397734,6.113657
1000.542969,4.697467,9.029138,2.104612,8.224392
1000.546875,2.422572,-0.242724,1.956652,0.050037
1000.550781,-4.671317,-2.433239,-0.976827,5.278786
1000.554688,4.758584,3.518514,-3.669173,-6.277566
1000.558594,-5.266039,-6.209548,-3.624762,-5.364762
1000.562500,-3.484889,-7.276819,-1.006981,-4.047733
1000.566406,-7.044772,-11.098014,-11.800978,-4.426592
1000.570312,-9.453176,-10.629858,-6.446231,-12.403516
1000.574219,-9.915144,-7.458882,-12.500969,-14.431354
1000.578125,-8.335462,-9.801802,-4.820469,-7.606007
1000.582031,-9.201961,-9.748927,-10.942467,-7.664741
1000.585938,-6.007504,-9.444237,-7.489153,-10.163307
1000.589844,1.020528,-0.065577,-2.973080,-5.729667
1000.593750,-7.313111,-4.990279,-0.403052,-7.353065
1000.597656,0.878430,1.842620,2.671099,3.760114
1000.601562,2.026553,-1.843452,7.378679,-1.612194
1000.605469,6.482340,5.703994,3.346700,5.816600
1000.609375,4.298920,8.727960,5.327736,11.616719
1000.613281,12.048734,-0.613805,9.119705,-0.306765
1000.617188,5.710036,2.029066,7.524413,1.854420
1000.621094,7.474760,16.165113,10.316881,10.824810
1000.625000,11.119508,12.616105,7.756398,6.972389
1000.628906,11.090163,9.745975,18.506397,9.348869
1000.632812,12.350025,18.352440,11.938240,6.422979
1000.636719,10.489104,10.118110,10.061734,12.907545
1000.640625,8.797241,9.582287,4.485560,3.202495
1000.644531,0.982161,5.522323,3.848420,9.690294
1000.648438,-5.288213,0.886664,5.299867,3.212278
1000.652344,2.341303,0.396112,-14.993759,-1.212164
1000.656250,1.915229,-8.760414,-1.571864,-2.777118
1000.660156,-8.193764,-4.519597,1.201631,-6.246197
1000.664062,-13.193674,-8.770044,-8.013363,-15.375838
1000.667969,-7.773843,-5.656093,-2.498304,-5.986209
1000.671875,-6.560621,-10.368907,-5.489983,-6.664319
1000.675781,-9.075174,-4.276078,-8.813930,-11.556471
1000.679688,-3.463563,-14.021047,-10.077858,-13.105845
1000.683594,-6.009246,-11.081646,-6.755461,-12.742993
1000.687500,-1.445123,-7.029159,-12.107042,-2.615486
1000.691406,-4.981215,-0.567569,-7.376116,1.044356
1000.695312,-5.561139,-7.278237,-5.670407,0.454210
1000.699219,0.243828,-2.770656,-1.255357,2.129295
1000.703125,-4.450096,0.552974,7.330617,-0.252412
1000.707031,4.164722,8.600583,5.604172,13.818689
1000.710938,-2.533937,9.846616,9.356160,8.217040
1000.714844,8.373455,8.590333,8.019014,6.998610
1000.718750,10.877074,8.088488,8.468574,12.785501
1000.722656,27.000255,7.337509,13.638556,10.646322
1000.726562,10.148127,1.964362,2.258938,5.646958
1000.730469,13.943760,6.214802,12.146311,14.577790
1000.734375,10.158760,6.087338,10.162788,12.249483
1000.738281,2.355337,1.592357,10.881097,-0.603166
1000.742188,5.312719,5.225779,7.639369,9.714427
1000.746094,5.893624,-0.953046,-0.776427,-4.846419
1000.750000,5.590827,2.410202,0.214303,-1.203022
1000.753906,-1.419050,0.114748,-6.573206,1.428941
1000.757812,-13.244401,-3.095283,-6.030494,-7.579259
1000.761719,-9.918112,-4.264960,-7.582840,-11.639232
1000.765625,-3.955977,-5.925879,-12.319907,-8.626530
1000.769531,-5.183837,-9.775309,-10.627713,-3.084552
1000.773438,-3.997270,-15.709757,-10.972620,-11.008353
1000.777344,-6.087199,-9.310775,-6.815151,-15.957500
1000.781250,-11.824122,-7.457832,-3.463074,-11.220283
1000.785156,-13.498180,-7.785690,-7.882754,-6.024862
1000.789062,-5.513595,-5.913336,-1.310465,-3.662509
1000.792969,-4.595940,0.347448,0.883623,-2.718151
1000.796875,-0.556552,6.003219,3.352562,-2.035149
1000.800781,9.102065,-3.311361,1.855436,-0.186895
1000.804688,2.654346,2.975518,-2.649008,-1.269481
1000.808594,2.389445,4.328580,13.014904,3.564312
1000.812500,8.895768,8.732316,9.160396,1.648930
1000.816406,10.081429,7.200843,3.420224,5.967682
1000.820312,3.425963,5.696708,12.058885,5.140637
1000.824219,8.859738,14.008523,0.121947,11.737137
1000.828125,11.663193,7.813398,6.079991,12.316783
1000.832031,10.170560,14.723786,6.807944,14.100801
1000.835938,10.226688,8.801728,10.737541,0.702038
1000.839844,10.354853,14.092161,6.087468,-0.450640
1000.843750,11.382481,5.472811,-4.116135,4.279239
1000.847656,5.061319,-0.775279,-3.039658,-0.670388
1000.851562,2.380341,-0.299643,-0.029901,-3.246894
1000.855469,2.861892,-1.686235,-4.223961,-1.855347
1000.859375,-4.387461,-4.098510,-1.595113,-7.887776
1000.863281,-10.070399,-14.737845,-7.813167,-5.077323
1000.867188,-10.346864,-0.539034,-9.311718,-8.006224
1000.871094,-12.963182,-3.863674,-5.782267,-10.031806
1000.875000,-14.252274,-6.359296,-16.872323,-10.262752
1000.878906,-8.058605,0.287886,-5.433838,-6.573119
1000.882812,-2.498646,-4.281853,-7.346014,1.996199
1000.886719,-3.654047,-6.324953,-10.431517,-4.301818
1000.890625,-10.143974,-10.686652,-4.502411,-4.425007
1000.894531,-6.813550,-6.882191,-3.815048,-3.589796
1000.898438,-3.772772,-1.273528,-1.153619,0.494878
1000.902344,6.673362,3.280588,-2.774162,4.206875
1000.906250,2.703404,6.922837,-2.564282,4.116405
1000.910156,1.029871,14.043216,-0.468489,8.540133
1000.914062,3.501807,14.794205,12.279401,11.081714
1000.917969,7.317088,11.802213,11.629007,10.528210
1000.921875,13.920082,9.878740,9.726216,11.179892
1000.925781,16.129441,16.808486,8.460828,11.867150
1000.929688,6.596669,6.271465,8.025313,4.278816
1000.933594,4.906742,17.925272,12.319672,7.775900
1000.937500,4.540133,6.448525,5.571335,12.951991
1000.941406,-0.087263,3.379146,6.220960,1.981290
1000.945312,-0.235114,3.085306,5.106541,-1.700692
1000.949219,2.234401,-2.370365,-3.432891,3.173583
1000.953125,-0.593765,-4.984813,-2.921952,-0.500125
1000.957031,-1.707988,0.305342,1.348155,-2.324426
1000.960938,-0.926215,-13.094454,-3.958664,-3.173539
1000.964844,-5.145525,-8.558274,-9.703825,-11.715714
1000.968750,-5.755877,-5.393033,-5.852572,-7.431601
1000.972656,-11.186621,-11.375543,-2.230233,-12.926214
1000.976562,-24.969595,-13.427255,-12.294289,-7.973908
1000.980469,-6.905551,-7.828428,-7.137787,-7.048007
1000.984375,-8.060962,-10.649470,-3.995539,4.504377
1000.988281,-4.593804,-5.341909,-4.043571,-6.063853
1000.992188,-11.079822,-2.748217,-6.533537,-7.029960
1000.996094,-3.707781,-2.251661,-0.040727,4.195703
1001.000000,2.976708,1.708270,2.731809,-3.733980
1001.003906,1.328080,7.689303,0.634887,12.570567
1001.007812,5.558903,10.158057,5.166910,7.608500
1001.011719,2.586967,3.646014,9.704031,1.326382
1001.015625,7.851967,14.369226,11.721243,5.972083
1001.019531,7.895248,7.645804,7.428722,3.472046
1001.023438,12.755896,15.063903,5.589993,11.241769
1001.027344,7.901571,10.549683,9.443987,11.744045
1001.031250,11.377234,9.122330,7.696030,7.939876
1001.035156,9.464557,6.089585,9.695606,9.648585
1001.039062,9.227470,11.321318,0.897077,8.344096
1001.042969,-1.623257,1.964938,0.641809,3.392634
1001.046875,-0.506841,1.128462,-3.999931,7.476362
1001.050781,-0.249753,-0.782954,-0.622221,3.191770
1001.054688,-2.521169,-0.763578,-2.852265,-7.260617
1001.058594,-8.818970,-5.092653,-5.656235,-3.759201
1001.062500,-8.780091,-15.131270,1.468902,-2.691007
1001.066406,-14.786858,-9.070417,-5.151184,-11.075566
1001.070312,-16.441663,-8.913707,-6.996938,-13.571366
1001.074219,-13.865157,-5.892503,-13.519245,-11.273130
1001.078125,-12.729715,-14.634624,-9.546934,-7.028377
1001.082031,-9.197177,-15.528534,-13.804734,-7.042918
1001.085938,-10.125448,-4.713160,-2.710693,-7.967874
1001.089844,-4.408748,-6.188124,-4.825847,-6.733732
1001.093750,-0.895961,0.069019,-3.160504,-8.136495
1001.097656,-5.875350,-4.974567,0.787252,7.280846
1001.101562,-2.858809,-1.784154,2.283218,-1.630372
1001.105469,1.720597,1.571462,3.165340,1.538923
1001.109375,6.991852,2.164232,6.453979,7.950923
1001.113281,10.653370,12.485083,0.611405,8.963925
1001.117188,6.715451,-2.287625,7.995577,8.503434
1001.121094,11.434175,11.584052,14.401994,15.289577
1001.125000,8.583544,6.222189,8.758246,5.189631
1001.128906,9.381452,8.275990,12.807032,9.222596
1001.132812,7.765350,14.434492,7.380210,6.465393
1001.136719,15.726181,-0.584481,9.850490,8.255165
1001.140625,1.814759,2.810962,7.765546,4.869273
1001.144531,5.494190,2.671229,1.140751,5.401152
1001.148438,-0.739269,-3.596100,3.288498,4.985875
1001.152344,-0.689019,-0.850734,-8.330296,-0.378647
1001.156250,-8.885502,-4.366696,-1.332123,-8.645539
1001.160156,-7.988982,-9.697604,-10.137992,-10.386651
1001.164062,-6.961124,-6.036257,-10.561343,-14.544652
1001.167969,-6.125611,-3.968420,-6.062595,-7.912880
1001.171875,-9.683848,-8.759843,-11.739319,-16.709736
1001.175781,-3.910086,-0.373753,-10.832516,-7.198544
1001.179688,-8.312608,-5.662271,-8.527233,-11.328939
1001.183594,-6.541137,-11.973547,-11.923860,-10.624469
1001.187500,-8.801005,-6.555965,-17.891463,-10.586140
1001.191406,0.580451,-0.580139,-8.827468,-2.950004
1001.195312,-2.273726,-1.332742,-4.914119,-6.528695
1001.199219,-0.685336,0.612541,6.219189,-0.368858
1001.203125,2.471121,5.030141,2.683494,-1.202324
1001.207031,11.176935,0.739927,3.711758,7.267337
1001.210938,3.457453,7.152902,8.741695,-0.432702
1001.214844,9.909491,7.824076,8.092130,10.134673
1001.218750,12.307930,16.996088,8.404136,9.725604
1001.222656,13.608779,7.407306,5.256200,10.656742
1001.226562,7.118609,12.957326,15.724283,4.650416
1001.230469,9.693252,5.690465,6.316855,8.923312
1001.234375,6.171338,3.304357,9.793558,8.854346
1001.238281,7.716403,10.623594,7.461151,6.707375
1001.242188,3.813964,10.164313,3.554005,3.147193
1001.246094,-0.219637,-6.479277,5.688395,0.579008
1001.250000,2.684006,-3.562209,2.153329,-3.601490
1001.253906,-9.005303,-4.030509,-5.077966,-6.655246
1001.257812,-12.809378,-8.327870,-7.511352,-7.716363
1001.261719,-4.260960,-0.024887,-4.346318,-6.486357
1001.265625,-11.361000,-3.460987,-11.767048,-6.717751
1001.269531,-4.750707,-15.180557,-17.675358,-10.794173
1001.273438,-10.594323,-15.537724,-12.613253,-9.765942
1001.277344,-3.921735,-16.761034,-9.167702,-14.262281
1001.281250,-2.061935,-13.592871,-9.471595,-5.243466
1001.285156,-7.643639,-2.988277,-7.570795,-6.692381
1001.289062,-9.928007,-8.732601,-5.903320,-6.952723
1001.292969,-5.007069,-3.588714,-0.413656,-3.369112
1001.296875,-3.103301,-4.137878,-2.241791,1.385100
1001.300781,-3.992118,-10.824778,-3.079227,-3.191561
1001.304688,-3.983816,-3.058940,2.581192,4.979743
1001.308594,8.358298,4.117505,8.225159,3.271277
1001.312500,12.874964,7.596172,2.001211,15.877780
1001.316406,15.747252,4.702975,12.767962,9.461347
1001.320312,8.759963,13.110190,12.107736,13.639952
1001.324219,2.998549,10.942340,11.271489,10.506454
1001.328125,6.450020,3.905126,11.485746,11.723045
1001.332031,11.740087,5.603548,15.716065,5.165631
1001.335938,6.405721,10.639920,5.680191,8.994106
1001.339844,8.769950,8.098129,4.509728,3.413625
1001.343750,2.045112,5.456912,3.011433,1.582042
1001.347656,-1.211449,3.958638,5.143545,4.199844
1001.351562,-3.731446,1.105985,-2.789428,-2.856061
1001.355469,-3.512890,-2.836473,-8.410681,-3.280396
1001.359375,-9.124148,-10.417618,-3.074477,-7.968720
1001.363281,-0.155250,-1.111929,-4.937687,-5.747737
1001.367188,-7.219636,-9.629396,-14.593507,-12.335251
1001.371094,-12.422076,-2.633192,-17.934679,-5.953686
1001.375000,-9.330615,-1.757716,-9.294019,-15.873312
1001.378906,-5.862173,-13.583622,-9.097147,-4.918876
1001.382812,-2.320391,-7.200796,-8.457869,-6.164324
1001.386719,-6.215398,-5.754395,-1.963793,-10.068466
1001.390625,-5.206380,-11.855622,-6.745202,-4.444955
1001.394531,-2.807979,-1.442591,-6.253875,-6.826357
1001.398438,5.055214,0.554031,-6.454841,4.038532
1001.402344,-2.631093,2.547407,3.316344,-0.552701
1001.406250,3.341817,3.391103,2.695285,-0.921802
1001.410156,3.942117,7.930817,7.346354,10.027202
1001.414062,7.926004,2.087706,13.216972,4.036028
1001.417969,8.769783,9.027728,13.461346,13.361331
1001.421875,8.788440,7.699997,11.618247,4.747089
1001.425781,7.685235,8.433935,12.846161,2.510052
1001.429688,4.579751,14.158851,1.293908,10.159076
1001.433594,18.334888,10.641358,9.001501,9.145271
1001.437500,9.289228,9.363123,10.203749,8.830104
1001.441406,4.754152,5.591399,7.660970,10.151747
1001.445312,0.633955,-1.003882,0.611732,6.081459
1001.449219,2.195821,0.075885,5.826339,-2.231936
1001.453125,-1.708540,-0.816583,-4.098392,-9.128177
1001.457031,-7.979316,-1.751765,-3.097798,-5.820875
1001.460938,-6.828158,-8.706940,-11.798122,-9.172311
1001.464844,-10.626420,-5.887908,-5.115787,-6.531504
1001.468750,-11.265410,-6.117804,-8.845755,-9.578394
1001.472656,-6.281168,-5.901886,-1.897928,-10.451590
1001.476562,-9.136502,-0.775507,-5.619146,-7.677191
1001.480469,-12.551887,-16.948748,-6.429059,-10.734837
1001.484375,-8.220659,-8.995653,-11.781515,0.644493
1001.488281,-7.382599,-6.887676,-2.903182,-5.826843
1001.492188,-1.200931,-3.136534,-7.391946,-10.659394
1001.496094,-3.627949,-1.100759,-0.588363,-1.937145
1001.500000,-2.218106,0.319432,1.818320,7.438212
1001.503906,-1.004029,6.048560,1.316109,6.246644
1001.507812,4.209656,-1.244604,1.249812,0.857926
1001.511719,1.880575,12.573130,6.932369,1.254208
1001.515625,6.770292,13.211717,3.945839,7.676526
1001.519531,14.786255,6.185563,10.762504,4.330568
1001.523438,8.371562,10.407964,9.564759,5.857149
1001.527344,11.860049,0.973414,8.978018,10.935169
1001.531250,9.040783,11.325583,15.581395,13.045556
1001.535156,7.287612,14.816410,8.481281,8.945028
1001.539062,7.500454,8.569233,10.548010,-2.972184
1001.542969,4.969260,8.242337,0.319588,10.516386
1001.546875,7.301500,1.126398,-1.564565,2.946340
1001.550781,-4.694602,-3.446400,1.421828,3.362565
1001.554688,-1.212168,-5.155401,5.343737,-4.111652
1001.558594,-3.207107,2.871894,-7.163380,-4.259667
1001.562500,-1.950275,-10.714883,-3.735180,0.616417
1001.566406,-8.711285,-6.652179,-12.580495,-8.595393
1001.570312,-19.154990,-9.502132,-7.268981,-15.983459
1001.574219,-8.507960,-11.281383,-7.537084,-11.243258
1001.578125,-13.241309,-7.966288,-12.267410,-12.298022
1001.582031,-16.914389,-9.313385,-10.978144,-4.581168
1001.585938,-9.705831,-10.342389,-3.103736,-8.539244
1001.589844,-10.543340,-12.775567,-7.345133,-4.523522
1001.593750,-6.931147,-5.160234,-2.375986,0.438168
1001.597656,-10.136039,-5.553101,-10.189503,-3.666314
1001.601562,-0.511913,1.331939,-1.313838,-5.029859
1001.605469,0.750750,1.642901,2.738769,10.240159
1001.609375,2.426341,11.658161,16.162916,7.305416
1001.613281,10.557501,9.294545,12.641186,3.095159
1001.617188,11.505166,8.186735,19.047083,13.293387
1001.621094,13.184511,14.002045,5.160419,6.250867
1001.625000,13.231505,11.487666,6.769919,5.686921
1001.628906,13.418085,10.946361,13.706370,6.629450
1001.632812,10.961700,7.740950,7.249617,10.454233
1001.636719,7.966364,13.608188,9.085668,12.914617
1001.640625,11.631738,4.040850,7.398299,16.637387
1001.644531,4.187010,10.474375,4.830427,5.400969
1001.648438,-0.813375,-0.602253,0.308630,4.233876
1001.652344,-4.046267,-2.239403,-4.263646,-3.451933
1001.656250,-12.162749,-0.825022,-9.703806,1.347787
1001.660156,-6.445702,-9.003316,-8.928323,-9.782195
1001.664062,-6.012280,-14.548305,-14.062566,-7.644416
1001.667969,-8.396483,-13.434174,-6.786589,-0.022184
1001.671875,-12.082684,-7.884302,-10.184851,-1.950670
1001.675781,-10.442783,-5.795913,-18.841403,-17.823757
1001.679688,-6.852406,-1.185509,-13.170863,-5.287765
1001.683594,-6.996961,-9.841399,-5.386955,-10.862206
1001.687500,0.802517,-4.680483,-10.980413,-10.963789
1001.691406,-10.348680,-8.637151,-9.054829,-7.176310
1001.695312,-1.403712,-7.258189,-3.791924,5.276394
1001.699219,0.847446,-2.323822,6.427141,5.702506
1001.703125,2.070892,1.790855,0.894052,-1.963901
1001.707031,5.607489,1.864438,1.168504,-0.876739
1001.710938,5.462063,8.149317,7.932894,10.657834
1001.714844,10.744870,11.061438,6.109785,2.498651
1001.718750,9.848479,8.538229,8.354774,17.963107
1001.722656,10.628809,9.194263,14.275273,12.257875
1001.726562,7.578202,14.964999,12.541972,8.266186
1001.730469,9.859356,11.322012,16.347168,10.460218
1001.734375,2.079200,2.020839,8.273648,6.735880
1001.738281,5.116676,14.855500,6.623088,5.056685
1001.742188,0.475677,-2.794790,6.530843,7.410715
1001.746094,-1.337969,-0.633313,6.538747,-3.285034
1001.750000,4.393043,-5.090061,4.261510,-5.267073
1001.753906,-2.225546,-6.485623,-4.408496,-3.971325
1001.757812,-4.713622,-1.056563,-3.380306,-0.624594
1001.761719,-5.636170,-7.316639,-6.812944,-3.495102
1001.765625,-8.212713,-9.973790,-5.012050,-8.300208
1001.769531,-11.282925,-5.314709,-11.234037,-10.848935
1001.773438,-15.084190,-6.543365,-5.403578,-14.729233
1001.777344,-11.617788,-14.657981,-12.525343,-8.823754
1001.781250,-15.425922,-12.761002,-13.502614,-14.729981
1001.785156,-5.126426,-0.040137,-8.146222,-6.797891
1001.789062,-5.775310,-2.923892,-5.042606,-9.462178
1001.792969,-2.783426,-6.541629,-3.692836,-5.307640
1001.796875,-7.573725,0.715074,-2.137069,1.843839
1001.800781,-2.463659,4.000316,3.719120,1.785977
1001.804688,0.378631,2.912318,6.009160,1.845747
1001.808594,11.947186,11.587509,6.843020,8.087884
1001.812500,15.322790,5.546488,-1.226910,7.157899
1001.816406,18.158503,13.956452,14.802327,5.485094
1001.820312,4.599437,4.557304,8.555913,9.753092
1001.824219,18.040522,7.550263,10.706534,7.553280
1001.828125,9.363476,8.271084,15.816900,13.468420
1001.832031,9.787993,16.199078,14.651151,11.108228
1001.835938,3.606558,8.768357,9.135444,3.457482
1001.839844,3.776026,10.584362,6.825147,3.130919
1001.843750,5.101758,8.573762,-1.326889,-1.075613
1001.847656,4.757920,3.995029,-0.436737,-3.460433
1001.851562,-6.383752,-1.534393,-2.563558,-1.149101
1001.855469,-4.192710,1.979427,-0.309879,3.267274
1001.859375,-4.279242,-3.081287,-9.010099,-9.114911
1001.863281,-15.266941,-6.103492,-1.417013,-5.965502
1001.867188,-7.904566,-10.294856,-8.852358,-8.122480
1001.871094,-2.700159,-14.033494,-3.591316,-5.908538
1001.875000,-2.743562,-15.117194,-4.441095,-12.450080
1001.878906,-8.327840,-5.451160,-4.383834,-11.119784
1001.882812,-8.713553,-12.213953,-7.167952,-4.959844
1001.886719,-9.589926,-6.913205,-7.059474,-10.872880
1001.890625,-7.833425,-2.215046,0.338934,-2.803728
1001.894531,-9.314362,-6.314040,-10.340155,-0.760193
1001.898438,-6.145599,-2.137334,-4.986834,-4.967259
1001.902344,1.025130,2.054971,-3.241767,0.128933
1001.906250,3.022407,2.063056,4.968048,0.467229
1001.910156,8.157087,8.052663,10.752085,4.646582
1001.914062,11.103338,0.230661,7.464020,13.284432
1001.917969,10.994482,2.593983,5.160719,14.085017
1001.921875,15.690978,6.033332,13.564921,3.707952
1001.925781,12.833208,5.899503,13.548181,16.685539
1001.929688,5.172619,5.141795,5.929029,7.511441
1001.933594,9.311341,13.127087,12.714144,6.228652
1001.937500,11.701003,5.544511,11.532455,11.411077
1001.941406,3.418615,5.865107,3.733392,16.139606
1001.945312,7.879654,-2.079337,-0.700201,6.968782
1001.949219,5.085338,-2.230052,10.900593,-2.057371
1001.953125,3.654818,-2.385615,-4.645133,-7.918694
1001.957031,1.483853,-8.200974,0.540022,-5.036590
1001.960938,-8.091297,-3.294767,-9.056756,-2.451667
1001.964844,-11.624874,-12.910653,-6.828510,-8.377956
1001.968750,-13.157441,-10.749813,-2.485895,-14.666398
1001.972656,-16.233350,-8.932991,-7.490572,-6.196010
1001.976562,-20.182150,-12.282732,-15.990873,-3.952468
1001.980469,-12.655848,-9.218017,-12.908570,-16.271700
1001.984375,-7.614059,-11.085238,-4.768634,-10.304383
1001.988281,-8.948438,-6.185997,-6.167148,-2.689539
1001.992188,0.937051,-8.755348,0.215340,-6.137396
1001.996094,-5.009537,2.199836,-4.067971,-2.659434
1002.000000,1.944859,-0.711072,-3.139070,-2.876082
1002.003906,8.007563,2.670212,4.301771,7.726175
1002.007812,4.857365,1.289859,6.403905,8.642956
1002.011719,3.131966,1.313964,9.542275,2.310635
1002.015625,11.258477,5.173643,11.871000,5.812266
1002.019531,8.959910,8.234866,7.854410,17.531564
1002.023438,7.868455,7.294113,11.297489,10.431902
1002.027344,21.402184,13.189366,11.088528,16.620208
1002.031250,7.905191,4.950493,6.404307,11.194322
1002.035156,7.594456,4.860905,7.154212,7.248894
1002.039062,2.999885,7.548190,11.075734,5.571075
1002.042969,8.405677,4.567529,5.884801,5.241166
1002.046875,7.852613,3.361216,1.352517,0.773668
1002.050781,-0.023634,-3.261949,1.637216,-2.855592
1002.054688,-8.602766,-4.841481,-2.621916,3.584637
1002.058594,-4.332305,-7.919244,-3.618188,-9.134512
1002.062500,-3.104152,1.843808,-6.296710,-7.182763
1002.066406,-6.887115,-5.456418,-14.008979,-7.259226
1002.070312,-6.700389,-3.608508,-9.127843,-8.987228
1002.074219,-14.198683,-8.355570,-4.444297,-8.901320
1002.078125,-7.455248,-8.445015,-5.889455,-14.247663
1002.082031,-6.716187,-4.222978,-13.876947,-11.575666
1002.085938,-9.825401,-10.358295,-7.734706,-14.541272
1002.089844,-0.952130,-4.909907,-16.747208,-5.505736
1002.093750,2.581402,-11.480440,1.024041,-3.264246
1002.097656,-3.523298,1.203088,-5.420572,-0.370679
1002.101562,-1.649365,0.510537,1.804530,0.597724
1002.105469,7.013943,7.986041,2.767082,-3.457648
1002.109375,5.718616,3.503703,5.905136,6.530402
1002.113281,4.539655,16.498036,5.861062,7.472474
1002.117188,1.614715,7.377656,11.716380,2.996294
1002.121094,13.963455,10.576237,10.942808,10.675386
1002.125000,13.508411,13.881865,6.783374,13.098337
1002.128906,6.763316,9.905440,14.129614,6.184424
1002.132812,10.929122,6.097662,9.663251,10.609675
1002.136719,6.457859,0.198031,4.525941,4.715035
1002.140625,2.551607,8.880080,4.841937,4.590866
1002.144531,2.438349,3.937240,2.300049,2.405808
1002.148438,-0.634384,6.107428,-2.527531,3.540286
1002.152344,-0.018699,2.653668,1.061810,6.479405
1002.156250,-1.933165,-8.067207,-7.906765,-1.147149
1002.160156,-4.803288,-3.606444,-4.952754,-8.919918
1002.164062,-11.357177,-12.222997,-3.844293,-5.084256
1002.167969,-9.018453,-10.770945,-5.273367,-10.805881
1002.171875,-6.275287,-6.855815,-13.778541,-9.897031
1002.175781,-7.810743,-9.408850,-12.643331,-10.109680
1002.179688,-8.210040,-8.036536,-5.784030,-3.063022
1002.183594,-13.170661,-5.843970,-11.773984,-16.173578
1002.187500,-5.088278,-7.809501,-12.586885,-10.403783
1002.191406,-4.069436,-4.905464,-8.502933,-7.602659
1002.195312,-4.218054,-2.473388,-4.464779,-4.751801
1002.199219,-0.202161,5.912048,2.778180,-2.566245
1002.203125,4.675339,9.388487,5.047934,5.364259
1002.207031,7.484038,3.098174,2.579651,6.288555
1002.210938,3.480858,8.228709,8.433682,9.266645
1002.214844,10.191707,7.085358,10.630917,4.131674
1002.218750,6.789357,11.543268,11.695548,12.088398
1002.222656,7.913224,14.042833,4.732610,7.269836
1002.226562,3.305214,10.894634,9.340199,10.210731
1002.230469,15.531133,12.233336,10.471636,8.072150
1002.234375,15.306423,12.024164,6.591892,8.072253
1002.238281,5.952953,4.241917,2.476626,5.915476
1002.242188,7.694468,7.535356,7.627455,7.993528
1002.246094,-1.052818,1.915936,11.976484,8.544491
1002.250000,-3.586342,-4.556923,-5.436151,4.496698
1002.253906,-6.896453,-0.084493,-5.025003,2.308384
1002.257812,-0.264128,-0.746934,-5.161843,-1.632358
1002.261719,-6.375336,-3.827963,-6.447524,-11.547524
1002.265625,-9.996818,-8.472449,-7.349509,-6.655305
1002.269531,-15.809940,-1.464141,-7.342898,-8.203651
1002.273438,-13.581043,-13.127136,-6.911820,-8.210559
1002.277344,-6.437251,-11.810603,-12.068238,-9.543144
1002.281250,-12.063745,-8.641141,-13.110111,-13.086073
1002.285156,-9.788030,-6.465426,-4.380308,-10.501717
1002.289062,-11.718421,-8.220498,0.516109,-6.263578
1002.292969,-4.549703,-6.904863,-0.468681,-3.758154
1002.296875,-9.488833,-1.015184,-0.124358,-0.835041
1002.300781,3.790195,-0.636880,1.495797,-0.267834
1002.304688,3.833509,5.289868,-1.543133,3.698859
1002.308594,6.521216,6.655531,-0.021550,2.160807
1002.312500,7.041794,5.647888,-0.275719,4.082922
1002.316406,0.278521,16.057303,10.242803,5.034443
1002.320312,11.878060,8.817383,15.265832,13.291162
1002.324219,11.451378,7.007647,13.707328,8.188496
1002.328125,11.985437,1.347015,12.815940,6.526393
1002.332031,4.768589,3.831926,15.301226,5.394853
1002.335938,8.245036,20.593100,4.754271,7.334436
1002.339844,5.476441,6.615504,2.200990,2.818564
1002.343750,6.105020,2.448564,5.231588,6.021186
1002.347656,1.623171,-4.135485,-3.664643,0.856405
1002.351562,-6.569759,-4.509980,-0.002489,1.680962
1002.355469,-8.524968,-7.710972,3.796662,-6.832712
1002.359375,-13.899965,-9.154488,-3.615586,-4.955700
1002.363281,-6.744087,-8.039650,-7.816111,-13.050765
1002.367188,-11.420148,-1.397351,-17.070033,-5.263107
1002.371094,-5.655474,-14.119608,-9.710274,-13.342321
1002.375000,-7.439354,-1.948068,-6.484600,-11.796613
1002.378906,-6.376004,-10.112005,-8.388518,-8.601651
1002.382812,-3.506459,-9.762420,-17.394079,-6.200769
1002.386719,-13.970765,-9.649510,-12.483003,-12.716557
1002.390625,-6.254730,5.819168,-12.824866,3.977778
1002.394531,1.365977,-2.597582,-7.966015,-2.596850
1002.398438,0.303142,-4.879067,-12.589974,-2.984758
1002.402344,5.481780,-1.105740,10.979666,0.525173
1002.406250,6.786714,2.190651,4.447593,3.402510
1002.410156,4.829445,7.516558,3.581931,6.324250
1002.414062,-2.327395,8.813698,1.151564,4.537839
1002.417969,11.770948,9.889884,5.226884,12.423599
1002.421875,10.765048,13.260228,15.845591,6.252246
1002.425781,14.900771,11.550949,4.707678,5.683473
1002.429688,7.009170,4.838534,7.006458,12.423779
1002.433594,5.630902,11.262405,8.145030,7.444338
1002.437500,7.735825,-0.083555,7.811480,1.570681
1002.441406,1.291429,3.883083,-0.593572,1.885088
1002.445312,3.756051,6.224268,-1.352903,-1.604346
1002.449219,2.597658,-0.459968,1.939975,1.142071
1002.453125,8.592192,-0.736663,0.890252,-4.825630
1002.457031,-4.640739,-3.481773,-9.281361,-1.521929
1002.460938,0.380811,2.607399,-8.172609,-8.479245
1002.464844,-8.077103,-5.832393,-6.844353,-13.090375
1002.468750,-11.013494,-9.548569,-10.173830,-8.824331
1002.472656,-5.428745,-10.024398,-1.354910,-7.946675
1002.476562,-14.330072,-11.239419,-5.084664,-11.899013
1002.480469,-13.009775,-3.436116,-9.865065,-6.640918
1002.484375,-1.480177,-7.659703,-9.511585,-5.647153
1002.488281,-11.520877,-9.485604,-6.444331,-4.693549
1002.492188,-0.794884,-10.797998,-6.154856,-3.939358
1002.496094,1.409122,-0.326708,3.852291,-7.322317
1002.500000,3.160837,-5.910144,-0.083333,-1.088468
1002.503906,-6.349284,4.960177,4.457067,-0.453399
1002.507812,-1.911586,-1.988492,3.784967,6.508112
1002.511719,4.744125,7.739073,4.454710,4.994617
1002.515625,5.543297,5.318221,10.170833,5.446502
1002.519531,5.211455,8.363213,10.817374,7.013260
1002.523438,11.326928,15.215340,16.861773,7.805013
1002.527344,14.825097,8.510266,6.555794,11.435837
1002.531250,13.608518,4.813011,4.570421,6.633449
1002.535156,19.826496,7.956562,13.792163,5.158751
1002.539062,6.006799,5.337681,2.754610,4.918013
1002.542969,1.815082,4.171462,5.080408,0.999872
1002.546875,7.817430,2.839778,-0.227276,-6.410987
1002.550781,-2.300210,-0.314014,-5.523577,-6.169673
1002.554688,2.436777,-6.944231,-2.654521,-6.863181
1002.558594,-1.345550,-10.989838,-12.465578,-3.437504
1002.562500,-13.847645,-6.872494,-5.103358,-8.762381
1002.566406,-13.790019,-10.769461,-5.781121,-10.435011
1002.570312,-14.580776,-13.464978,-8.470854,-12.909319
1002.574219,-13.382587,-7.042463,-7.176442,-5.992422
1002.578125,-14.080543,-9.146811,-14.685990,-11.803824
1002.582031,-5.740632,-9.764286,-9.439660,-8.180347
1002.585938,-4.181174,-6.305566,-5.377220,-11.638754
1002.589844,-12.755144,-9.466523,-3.338587,0.799017
1002.593750,-5.904654,-1.760789,3.245197,1.610384
1002.597656,-1.688858,-3.770393,2.431350,-0.492183
1002.601562,-1.848444,4.779537,-0.776313,5.376691
1002.605469,7.450495,-1.081797,2.159612,2.849183
1002.609375,14.009298,1.916877,-0.262916,-1.891229
1002.613281,7.934338,11.431556,2.647601,3.128265
1002.617188,13.053481,10.129646,3.199790,13.334309
1002.621094,12.598480,17.023871,7.144061,11.515143
1002.625000,13.516634,11.978913,-1.905764,10.056328
1002.628906,8.778629,8.333959,5.175609,14.491038
1002.632812,14.529255,10.207609,12.482882,7.045448
1002.636719,8.509208,13.125879,-0.750504,3.077216
1002.640625,7.891778,12.228310,0.631747,4.536462
1002.644531,2.918557,3.521229,-0.438301,1.486002
1002.648438,-4.973881,-1.119778,1.904144,-3.501270
1002.652344,-4.179693,-4.730937,0.746130,1.703527
1002.656250,-5.688262,-3.161025,-7.408355,-3.961395
1002.660156,-1.003573,-3.130164,-12.549621,-7.582706
1002.664062,-8.845514,-8.642558,-3.869258,-14.614630
1002.667969,-9.812019,-4.951500,-20.102649,-9.414650
1002.671875,-14.847058,-14.974193,-2.413115,-7.644845
1002.675781,-6.853144,-15.270736,-0.022612,-4.985072
1002.679688,-11.223956,-10.644973,-10.003491,-3.591536
1002.683594,-11.741581,-9.643340,-8.088600,-5.367317
1002.687500,-12.237875,-4.327211,-16.388940,-7.323680
1002.691406,0.527171,-0.043165,-0.067572,-1.408686
1002.695312,-2.776706,4.210125,4.252243,-3.694982
1002.699219,4.854206,-4.044744,4.981897,0.573529
1002.703125,6.947747,2.011777,-1.137485,-1.781612
1002.707031,-1.061595,7.788620,3.787674,10.810609
1002.710938,5.156663,9.005492,8.341642,7.626369
1002.714844,12.996539,12.524991,9.955550,4.977247
1002.718750,5.921997,3.616573,5.089045,14.119257
1002.722656,9.862015,8.350947,6.145872,14.432080
1002.726562,7.457835,4.901642,13.164979,5.294493
1002.730469,7.660227,17.113632,7.191275,9.828146
1002.734375,8.164941,13.357798,10.637557,11.249070
1002.738281,6.151003,8.258682,8.509084,5.267981
1002.742188,3.384223,9.604807,6.183546,13.226418
1002.746094,9.441129,1.445604,-1.610154,2.791512
1002.750000,0.859807,-1.273710,2.672763,6.250332
1002.753906,2.094223,6.370354,-10.946474,-3.075951
1002.757812,-1.614520,-7.489040,-6.740819,-6.132706
1002.761719,-7.003008,-9.176577,-6.561934,-3.201377
1002.765625,-5.366057,-12.205906,-1.251222,-15.696741
1002.769531,-5.475593,-7.114114,-14.123303,-5.815312
1002.773438,-11.103135,-7.548751,-11.186733,-13.092768
1002.777344,-12.932649,-19.147785,-13.391646,-5.676218
1002.781250,-9.842349,-4.916914,-7.002534,-15.419155
1002.785156,-10.014620,-6.159488,-5.522764,-2.328352
1002.789062,-14.969760,-7.247621,-3.449294,-3.243476
1002.792969,-3.427249,-6.030103,-2.786422,-0.600775
1002.796875,0.147943,-0.715323,-2.977878,-1.721626
1002.800781,1.007969,3.632971,0.151417,-4.785980
1002.804688,0.098385,-0.486334,-5.347327,7.963309
1002.808594,6.067197,0.541168,8.881382,7.972602
1002.812500,2.619920,6.114856,5.458030,8.490009
1002.816406,13.381558,11.517814,5.991446,2.435638
1002.820312,7.613848,13.136208,14.159187,12.254817
1002.824219,10.758019,19.730870,5.534482,8.615035
1002.828125,18.594982,13.376597,10.643909,5.669335
1002.832031,5.199497,10.428332,6.041521,14.498636
1002.835938,7.297624,-1.568454,8.479321,5.350696
1002.839844,9.563563,1.369836,6.915858,10.802454
1002.843750,1.815674,5.520170,-0.619505,6.345059
1002.847656,-0.583305,3.209554,8.285757,-1.505151
1002.851562,3.407458,0.603089,-1.800656,4.975020
1002.855469,-3.313198,-3.798310,0.733186,-2.615493
1002.859375,-8.309850,-9.846175,-3.641182,-8.680070
1002.863281,-10.601445,-11.765307,-11.628090,-1.569536
1002.867188,-14.355841,-10.633041,-5.188638,-3.652863
1002.871094,-8.962962,-6.932580,-4.478788,-4.153873
1002.875000,-10.224263,-5.656792,-5.499587,-16.270330
1002.878906,-8.823508,-3.700260,-7.206276,-7.181043
1002.882812,-7.179372,-12.434193,-15.229422,-12.588089
1002.886719,-5.003342,-7.708869,-3.926144,-11.812901
1002.890625,-0.601698,-6.931859,1.091958,-9.780599
1002.894531,-5.165209,-4.559106,-2.800930,-14.011608
1002.898438,0.256732,2.441169,-2.071001,0.247054
1002.902344,2.321703,1.201889,6.028805,1.363846
1002.906250,1.484034,2.269253,0.825668,1.425165
1002.910156,3.884851,11.263023,4.087813,0.756897
1002.914062,7.562499,9.122876,10.897809,13.670585
1002.917969,10.611791,12.233601,14.663886,6.833138
1002.921875,9.171472,11.988413,17.502140,16.908749
1002.925781,15.810615,7.883829,9.024476,9.875358
1002.929688,4.194888,9.363454,11.367893,10.163351
1002.933594,15.573809,10.380864,8.376489,9.292542
1002.937500,8.419798,5.646918,11.696073,5.864276
1002.941406,6.744160,4.853337,1.800305,3.958754
1002.945312,2.162860,-1.145901,9.127078,2.557987
1002.949219,-9.690688,4.188386,-6.530581,1.897242
1002.953125,-3.488956,-8.031619,-3.195627,-3.360870
1002.957031,-14.159726,-2.476538,-4.422208,-7.435579
1002.960938,-5.139289,-3.818572,-15.346330,-7.311927
1002.964844,-8.940350,-8.918453,-12.517329,-5.165307
1002.968750,-3.341590,-18.467055,-9.077081,-7.655555
1002.972656,-10.459401,-6.834544,-2.675829,-8.583356
1002.976562,-16.899702,-5.943461,-7.378514,-14.221663
1002.980469,-6.075113,-13.861433,-15.776954,-9.611881
1002.984375,-9.378896,-10.588550,-8.907508,-6.617010
1002.988281,-10.374308,-13.676900,-8.726598,-4.681604
1002.992188,0.327218,-4.271001,-5.466111,-7.458988
1002.996094,-6.782749,0.765009,7.044702,-13.940661
1003.000000,0.864473,2.467830,4.667629,-2.836814
1003.003906,2.616466,1.575396,-1.681601,3.787823
1003.007812,0.419076,4.020892,1.738585,2.598267
1003.011719,5.207044,9.965290,10.085226,5.734132
1003.015625,11.825282,9.777202,1.094024,8.466615
1003.019531,6.669014,7.483352,12.037772,10.710904
1003.023438,8.493375,5.721160,16.751718,14.005893
1003.027344,11.420958,21.524404,6.008143,13.093659
1003.031250,18.822793,5.781612,2.524259,8.099960
1003.035156,0.016378,2.891925,11.757124,4.361341
1003.039062,6.376794,8.103516,9.281957,0.369181
1003.042969,6.131040,5.844054,0.865305,6.220804
1003.046875,1.835674,5.061249,-1.435945,-5.909903
1003.050781,-2.182238,-5.833484,4.178545,-5.333602
1003.054688,-2.377624,2.985274,3.503522,-2.269387
1003.058594,-6.608886,0.392782,-8.787427,-6.838682
1003.062500,-9.227259,-8.599679,-16.074692,-11.485765
1003.066406,-9.423857,-12.514150,-2.457314,-8.671767
1003.070312,-13.932439,-10.043734,-9.014650,-11.905546
1003.074219,-13.918770,-8.432282,-14.053208,-11.001580
1003.078125,-0.454755,-9.521537,-15.417771,-8.055627
1003.082031,-9.800542,-9.613629,-9.137433,-4.705932
1003.085938,-1.735116,-9.436753,-7.356849,-6.866567
1003.089844,-5.407085,-5.201145,-13.134915,-5.637997
1003.093750,-4.255267,-3.643616,-3.584187,-0.676822
1003.097656,-5.726916,-0.839493,-0.817625,-2.941219
1003.101562,3.575600,-7.164990,3.798439,-1.508190
1003.105469,-0.814895,7.378401,4.900427,2.211314
1003.109375,5.518356,0.083925,7.560375,-1.527749
1003.113281,4.280468,6.386279,13.335024,11.228669
1003.117188,8.698523,10.525819,8.388107,4.233522
1003.121094,2.580481,13.796717,13.238417,12.680788
1003.125000,12.695564,12.733907,10.920942,11.526513
1003.128906,12.559630,13.228021,9.509179,11.277670
1003.132812,8.265581,4.931238,12.736007,14.333730
1003.136719,3.751572,12.975789,9.588185,6.165413
1003.140625,0.999671,4.921181,4.737405,4.839968
1003.144531,-5.794112,-4.565923,5.766850,-0.028317
1003.148438,9.434862,11.527392,1.408218,2.606331
1003.152344,-2.829690,3.177297,-7.036052,-4.303480
1003.156250,-0.867957,-1.047910,-7.792487,-10.400641
1003.160156,2.139782,-11.308170,-8.776967,-13.204942
1003.164062,-5.402348,-12.831013,-8.451429,-9.856544
1003.167969,-9.440281,-11.424587,-9.016366,-4.060661
1003.171875,-14.620612,-7.473823,-11.872037,-0.090266
1003.175781,-6.428573,-12.683556,-5.276654,-11.034030
1003.179688,-9.783745,-2.874596,-10.367684,-13.446746
1003.183594,-6.501203,-16.058983,-10.355703,-7.559397
1003.187500,1.870607,-9.670642,-6.684221,-4.243732
1003.191406,7.090251,-4.870924,-5.081835,-4.906073
1003.195312,-6.405896,2.393532,-1.010528,0.760957
1003.199219,1.659710,-0.093908,-3.722224,-2.238215
1003.203125,3.988045,-0.570602,5.300428,-0.630478
1003.207031,4.372334,7.027835,6.583619,5.716144
1003.210938,7.803100,8.419745,3.463413,0.033480
1003.214844,7.092871,14.890513,3.031434,3.524250
1003.218750,7.108155,10.742914,7.118865,7.261023
1003.222656,11.389221,18.441091,18.528360,11.602180
1003.226562,8.644665,16.752990,-1.065633,10.982367
1003.230469,6.962357,8.444988,8.987050,6.174616
1003.234375,8.026083,4.885186,3.555771,11.220403
1003.238281,4.249546,7.830025,6.033665,2.014550
1003.242188,4.238339,1.653649,5.103731,6.826463
1003.246094,-1.194676,2.069426,9.061001,5.927162
1003.250000,0.835304,5.229021,-1.410893,-5.931343
1003.253906,-0.132076,3.179931,-1.649587,4.448908
1003.257812,-4.510524,-10.510800,-1.671777,-3.943709
1003.261719,-7.833057,-7.111376,-7.732820,-6.749297
1003.265625,-9.138769,-11.098071,-11.903412,-11.123524
1003.269531,-8.086295,-2.991401,-16.857803,-9.925517
1003.273438,-3.849483,-7.102226,-4.067170,-12.380066
1003.277344,-9.332745,-18.248972,-9.899522,-12.096711
1003.281250,-8.781054,-8.054504,-14.598077,-6.381480
1003.285156,-10.834481,-11.265528,-12.266471,-8.713931
1003.289062,-5.757498,-8.000652,-7.907229,-7.472918
1003.292969,-3.806654,-3.566737,-2.640815,0.529843
1003.296875,0.970079,5.794231,-1.750024,-0.761215
1003.300781,3.042494,2.495400,0.070479,-2.674061
1003.304688,1.539035,1.669313,1.469018,1.145038
1003.308594,9.017319,-0.190747,13.487434,8.421447
1003.312500,3.222675,7.860668,9.126508,7.604307
1003.316406,5.425487,0.619426,9.617352,13.292224
1003.320312,11.906908,15.600537,6.103907,5.160521
1003.324219,11.899457,14.590749,8.693738,9.056955
1003.328125,10.267759,15.970276,12.509831,11.514833
1003.332031,14.383954,9.618876,14.703814,7.657064
1003.335938,13.234746,8.363844,9.093271,4.933931
1003.339844,-0.185892,14.210739,3.033894,10.342264
1003.343750,1.470296,0.471586,3.889551,3.847529
1003.347656,-2.823407,1.453052,5.549928,2.469771
1003.351562,1.555151,-0.759293,0.947342,1.396287
1003.355469,1.337210,0.655726,-6.226173,-2.309525
1003.359375,-9.259490,-3.485769,-3.044597,-7.986685
1003.363281,-8.988903,-10.928314,-3.901930,-3.953560
1003.367188,-6.842165,-12.680553,-12.061931,-5.464097
1003.371094,-7.908891,-11.303931,-1.964251,-8.930231
1003.375000,-15.406410,-5.397541,-8.192079,-16.398972
1003.378906,-7.424640,-19.550423,-9.428099,-2.123652
1003.382812,-6.726444,-5.618390,-14.921263,-7.622353
1003.386719,-6.267991,0.707079,0.484932,-2.657570
1003.390625,-11.661968,-6.349316,-4.743919,-7.395162
1003.394531,2.522059,2.246433,-2.039766,-0.764143
1003.398438,-3.776509,-1.423492,-2.981760,-1.688420
1003.402344,5.218423,6.601865,0.504972,0.932804
1003.406250,2.005904,2.621753,-1.133213,5.002218
1003.410156,6.289451,3.895125,-3.466343,6.203487
1003.414062,14.292875,12.329541,14.729968,7.953862
1003.417969,8.425283,8.157875,10.872066,7.941323
1003.421875,14.507895,13.127585,17.531579,11.089383
1003.425781,14.671181,13.723329,13.231686,5.068782
1003.429688,8.287629,10.006067,11.386603,14.233736
1003.433594,6.337358,6.596907,10.288930,11.505888
1003.437500,7.149883,10.141147,6.498651,9.797794
1003.441406,-0.404847,-1.245435,5.508388,6.675864
1003.445312,15.622629,1.965234,9.019402,-1.395300
1003.449219,-0.807700,-4.281617,-3.122104,3.335453
1003.453125,-10.340932,-3.587950,0.803244,-0.848472
1003.457031,-7.733029,-4.067182,0.721316,-6.472743
1003.460938,-8.600257,0.859147,3.598905,-2.259603
1003.464844,-12.255695,-5.604294,-12.350082,-1.909911
1003.468750,-12.251551,-8.079009,-11.216788,-9.937678
1003.472656,-9.559945,-2.871647,-14.044203,-7.455709
1003.476562,-13.146701,-9.238941,-18.236847,-9.389231
1003.480469,-12.526029,-10.816310,-10.906041,-4.873543
1003.484375,-15.805616,-17.491157,-2.671664,-6.227693
1003.488281,1.130394,-6.989308,-6.149392,-10.371830
1003.492188,-6.245186,-8.103446,3.131323,-3.880560
1003.496094,-5.845112,-4.726733,0.884533,-0.786241
1003.500000,-0.102531,-7.703918,4.023635,-5.443479
1003.503906,-1.640741,3.186859,4.292064,1.477048
1003.507812,11.279734,4.580446,3.192535,4.678153
1003.511719,3.608739,2.681954,7.040132,11.316433
1003.515625,11.019368,7.467864,7.495282,7.936812
1003.519531,12.871550,5.763471,14.396861,12.128049
1003.523438,14.865836,10.333643,4.785047,3.858975
1003.527344,3.017456,8.451052,8.741105,15.370588
1003.531250,8.512250,5.800474,5.325272,12.524558
1003.535156,8.322075,6.209368,6.289545,8.987249
1003.539062,5.392434,4.873648,8.822225,10.257734
1003.542969,5.094383,8.526726,13.449703,10.431039
1003.546875,9.248248,-1.953676,-4.754711,0.057005
1003.550781,4.080289,-0.095592,5.983351,-1.634305
1003.554688,-2.746068,-7.211798,-3.767865,-1.619769
1003.558594,-6.715642,-10.018738,-5.866597,-12.278681
1003.562500,-11.280920,-10.005727,-8.264926,-8.605204
1003.566406,-11.597593,-7.482397,-11.446509,-2.839269
1003.570312,-7.498341,-4.485467,-14.305416,-16.306849
1003.574219,-9.745536,-8.051165,-12.482365,-8.061683
1003.578125,-9.686639,-8.398965,-8.469336,-10.560011
1003.582031,-7.305927,-8.292840,-9.418365,-9.349483
1003.585938,-12.591616,-8.645407,-7.295898,-7.330676
1003.589844,-14.856082,-13.178033,-6.952565,-3.783202
1003.593750,-12.639863,-10.141423,-8.954610,-0.230009
1003.597656,-4.160081,-0.405222,5.786127,3.450074
1003.601562,2.178090,1.855890,-6.071283,3.192135
1003.605469,9.215333,4.747857,2.127949,-0.585118
1003.609375,9.181889,10.529866,8.368312,1.181099
1003.613281,7.142171,8.927932,13.095152,9.261680
1003.617188,9.987108,12.611556,7.090269,4.877322
1003.621094,12.512497,9.575484,11.248569,8.173828
1003.625000,11.063342,13.469048,12.446436,13.673198
1003.628906,10.836074,21.007923,8.482477,9.005744
1003.632812,13.492301,7.899237,7.128029,9.455707
1003.636719,1.857112,11.296270,15.191849,0.827729
1003.640625,4.072172,4.475843,3.482971,1.600629
1003.644531,-2.228716,0.175465,4.987920,6.748927
1003.648438,-8.789368,1.504527,0.434713,0.182438
1003.652344,1.417074,-7.110551,1.911215,7.800277
1003.656250,-10.885539,-0.630438,-11.964513,-0.627653
1003.660156,-2.723449,1.037234,-5.877177,-3.167980
1003.664062,-9.185948,-4.739261,-11.050304,-8.165850
1003.667969,-6.439913,-6.036783,-5.100429,-8.084669
1003.671875,-4.836051,-6.801506,-12.354568,-7.724271
1003.675781,-9.896367,-9.660954,-4.645164,-4.914375
1003.679688,-10.779536,-9.701772,-0.039947,-10.919377
1003.683594,-12.517767,-6.576413,-10.487449,-3.762625
1003.687500,-0.690561,-10.253414,1.386987,-5.964900
1003.691406,-7.522112,-10.290807,-10.573702,-12.414312
1003.695312,-1.749732,-5.653279,-0.395404,-8.783857
1003.699219,-3.350413,-2.661057,-0.561941,1.863630
1003.703125,-2.647629,6.155899,0.263704,-2.472048
1003.707031,-1.491717,4.186815,3.005015,5.821676
1003.710938,-0.287097,12.151274,0.979844,11.724208
1003.714844,9.696624,2.304489,7.594648,3.061614
1003.718750,5.074964,10.186445,9.687327,11.816686
1003.722656,9.719319,18.019762,9.108682,10.469191
1003.726562,6.335987,9.146968,6.151077,7.883536
1003.730469,13.847023,3.490863,11.359907,9.270246
1003.734375,8.325448,9.637046,3.611974,8.210902
1003.738281,8.786410,8.714398,11.231917,1.695804
1003.742188,8.439484,-0.427901,10.732444,5.043918
1003.746094,-2.833488,3.343033,8.008898,-1.082513
1003.750000,1.479674,-7.720239,-3.720474,-2.596285
1003.753906,4.263834,-5.570882,-7.125769,-2.710747
1003.757812,-3.237408,-8.438259,-5.561177,-11.885475
1003.761719,-0.697301,-9.186412,-1.770330,-11.993784
1003.765625,-3.030274,-14.089952,-12.333762,-7.547472
1003.769531,-10.853556,0.162607,-14.182941,-15.440225
1003.773438,-3.243752,-17.374661,-2.697755,-11.172095
1003.777344,-8.653105,-11.590449,-5.668617,-10.663561
1003.781250,-9.525659,-10.693983,-4.816383,-7.659371
1003.785156,-6.815042,-9.142306,-10.955728,-4.665787
1003.789062,-9.260661,-5.906660,-9.645414,-5.828732
1003.792969,-5.363910,-6.328520,-1.884555,-8.846855
1003.796875,-1.060706,1.258451,-2.992525,-3.769006
1003.800781,1.757176,4.187250,2.118012,1.486820
1003.804688,1.584103,-1.081613,2.233526,0.630215
1003.808594,0.712300,10.073068,4.227385,15.658886
1003.812500,7.497544,1.198399,13.046106,11.326837
1003.816406,10.115429,4.364026,10.054147,1.776649
1003.820312,9.882456,8.573542,9.851948,4.717397
1003.824219,12.239658,4.872490,5.057563,13.728905
1003.828125,13.093739,15.120128,6.505152,10.408844
1003.832031,6.389408,18.564808,12.362627,10.472685
1003.835938,6.502793,14.562380,4.853194,5.386847
1003.839844,6.635246,-0.100505,-0.881903,4.891964
1003.843750,3.735769,2.729314,7.554658,-5.971090
1003.847656,0.571401,6.600528,11.132452,3.170816
1003.851562,-1.514369,-5.277491,-2.169506,-1.496260
1003.855469,-3.661045,4.119295,-1.363669,-5.785145
1003.859375,-7.484260,-9.679607,-2.163552,-11.564200
1003.863281,-16.730914,-15.468792,-4.602705,-7.422778
1003.867188,-1.809364,-5.794190,-12.153788,-8.030920
1003.871094,-8.719741,-5.664719,-7.738316,-13.247737
1003.875000,-14.003167,-8.168235,-5.149137,-12.777988
1003.878906,-5.902388,-12.868404,-10.618664,-4.762893
1003.882812,-9.923788,-2.050944,-0.940690,-8.044740
1003.886719,-5.066315,-9.520790,-5.016498,-5.048947
1003.890625,-9.555917,-3.630668,-13.401096,-12.820247
1003.894531,3.817244,-6.829716,-3.614893,-1.308327
1003.898438,7.581498,6.999263,-2.106112,-8.266469
1003.902344,1.761408,-2.827704,-1.145691,0.825974
1003.906250,1.853431,3.637769,5.822134,-1.495966
1003.910156,-7.423907,12.968121,3.601429,10.018591
1003.914062,2.557911,9.345292,1.887344,16.309742
1003.917969,4.529969,2.653276,3.266018,7.466872
1003.921875,8.585872,7.247474,13.018228,8.521808
1003.925781,12.757992,10.071955,8.950196,10.362466
1003.929688,7.745060,12.411204,8.626970,7.082395
1003.933594,8.897480,8.775882,10.217851,11.176224
1003.937500,9.050494,13.923511,5.145490,9.840423
1003.941406,4.026109,10.282639,4.385382,4.933693
1003.945312,6.819842,3.940180,5.643670,11.176310
1003.949219,-1.556333,-5.777477,5.846111,-5.498022
1003.953125,-3.874489,5.203226,-1.853398,-6.613835
1003.957031,-9.065423,-3.373034,-2.760097,-0.196319
1003.960938,-4.166421,-13.035339,-8.405475,-7.296602
1003.964844,-3.315179,-5.439749,-13.407351,-14.711980
1003.968750,-9.110831,-17.667055,-9.592420,-4.143829
1003.972656,-6.876696,-16.376344,-11.527984,-6.885602
1003.976562,-13.075400,-6.001152,-12.964169,-12.795180
1003.980469,-5.666744,-5.417185,-10.533807,-10.271592
1003.984375,-17.860416,-4.652786,-10.692384,-11.536176
1003.988281,0.983578,-12.422955,-10.477068,-3.887645
1003.992188,-6.340839,-3.994698,-4.964665,0.766051
1003.996094,-5.170017,-3.065423,0.346071,-4.596395
1004.000000,3.901789,5.921031,8.469929,0.304525
1004.003906,0.704172,4.747868,-3.860097,7.042552
1004.007812,8.310993,4.580886,13.154759,-1.702897
1004.011719,10.782445,9.767058,5.875308,1.257836
1004.015625,8.852574,13.748185,3.865948,8.253479
1004.019531,10.661545,9.774212,6.003292,10.232605
1004.023438,6.322762,6.809004,5.640041,4.927530
1004.027344,13.519631,11.492533,-2.617646,13.345818
1004.031250,8.529564,5.165713,7.142728,1.132502
1004.035156,4.147567,14.167682,6.489820,5.806817
1004.039062,10.672703,9.725302,9.118655,5.316095
1004.042969,4.915378,4.354223,7.329050,3.869949
1004.046875,4.215490,-1.036042,5.310081,-1.552440
1004.050781,-5.888039,-0.675495,7.185805,9.105687
1004.054688,-0.314559,-1.911420,-1.865160,1.179868
1004.058594,-7.056762,-9.357947,-0.524520,-5.740656
1004.062500,-6.282465,-10.726171,-7.274852,-11.488150
1004.066406,-8.962280,-0.034307,-15.350394,-5.634912
1004.070312,-8.433395,-2.288654,-3.870078,-11.832924
1004.074219,-16.644728,-14.878135,-6.683251,-7.313268
1004.078125,-14.798887,-6.474021,-11.898007,-8.658424
1004.082031,-9.566303,-3.785203,-9.336508,-10.409295
1004.085938,-7.201268,-7.793321,-7.789937,-8.872095
1004.089844,-5.337318,-6.972750,-2.225375,-4.356601
1004.093750,-4.803833,1.559700,-10.178403,0.120709
1004.097656,-5.683524,-2.647447,-6.203020,-1.503576
1004.101562,0.825105,7.313437,0.300661,4.757350
1004.105469,-0.041717,0.840473,1.782776,-3.902518
1004.109375,6.879027,3.878983,8.755013,7.211731
1004.113281,6.851807,11.512675,6.721728,3.850417
1004.117188,9.240701,11.055304,9.338124,6.783559
1004.121094,8.427073,7.192592,6.549602,12.907039
1004.125000,7.073923,12.146423,15.992102,17.967452
1004.128906,3.933716,11.102590,9.903011,15.125980
1004.132812,7.871579,8.141449,11.913215,15.358592
1004.136719,10.249939,8.598977,-0.015901,2.427616
1004.140625,3.708536,0.936373,11.155289,4.072767
1004.144531,6.314056,7.190264,0.226955,2.418137
1004.148438,9.157060,8.639799,-4.856481,9.008817
1004.152344,4.616613,0.265516,-5.960175,-3.846674
1004.156250,-5.544745,-2.681473,-3.733560,-5.926395
1004.160156,-4.957146,-12.137802,-1.767834,-6.681141
1004.164062,-7.992824,-4.478897,-9.853329,-5.598100
1004.167969,-10.066543,-5.540852,-2.309439,-13.818976
1004.171875,-8.795293,-9.350551,-9.015227,-13.261189
1004.175781,-11.366674,-10.677231,-5.059908,-11.971727
1004.179688,-3.441631,-6.784298,-8.371217,-13.670506
1004.183594,-5.231058,-6.477185,-7.835990,-12.724152
1004.187500,-10.698371,-1.425045,-5.705694,-7.774827
1004.191406,-5.921549,-4.601980,-0.758562,-2.472551
1004.195312,3.279057,1.667415,-3.944278,-4.238365
1004.199219,0.394662,-2.254520,-0.102322,-1.974336
1004.203125,3.076362,1.031432,-2.439196,1.624756
1004.207031,7.026157,2.555597,5.277803,-0.183395
1004.210938,3.747549,9.958896,10.881992,1.606045
1004.214844,10.559952,4.896189,2.729613,4.554608
1004.218750,14.619840,6.842815,6.428874,9.809638
1004.222656,14.525989,8.547787,6.871894,10.658392
1004.226562,3.130232,14.127325,15.903241,17.635337
1004.230469,4.449478,10.540399,5.219285,5.492307
1004.234375,1.538170,13.079460,4.919904,5.449315
1004.238281,11.534569,13.576360,7.597034,6.931408
1004.242188,-0.434112,6.181858,11.583536,6.002375
1004.246094,3.633385,0.003966,4.019483,4.182712
1004.250000,-1.916780,0.149529,2.747237,-1.066946
1004.253906,-4.001258,-3.465323,-1.325150,-2.503330
1004.257812,-7.273322,-7.037135,-3.672807,0.371369
1004.261719,-5.579402,-6.125691,-4.792025,-8.414579
1004.265625,-7.844915,-13.895074,-5.084448,-17.532151
1004.269531,-5.701622,-8.166256,-12.579246,-7.003975
1004.273438,-8.383643,-9.615672,-10.935378,-6.395750
1004.277344,-12.698719,-11.897648,-16.087007,-12.006026
1004.281250,-12.763430,-2.194753,-1.722321,-6.524660
1004.285156,-7.696100,-10.660016,-12.519592,-11.877797
1004.289062,-5.714751,-5.111444,-7.070676,-8.580639
1004.292969,-3.157186,-2.944745,-6.912019,-12.835385
1004.296875,0.085600,-2.757060,-0.784608,-3.236956
1004.300781,-5.268952,-1.993842,-6.761790,-1.265523
1004.304688,5.531285,1.610016,6.700757,-4.602574
1004.308594,11.946585,2.543163,10.844297,7.796146
1004.312500,3.505527,7.566095,12.485476,7.601206
1004.316406,6.009204,9.678505,-3.107220,13.468245
1004.320312,9.411215,10.275497,1.159237,2.386173
1004.324219,7.659566,10.925629,19.727991,12.087201
1004.328125,1.759314,7.952865,10.289526,14.323612
1004.332031,2.890203,18.463805,5.837983,2.152186
1004.335938,5.681329,14.068178,7.895056,6.126542
1004.339844,3.435141,8.136020,2.486086,6.819961
1004.343750,0.179819,1.070397,10.157951,7.343093
1004.347656,7.124567,4.867580,7.756486,5.973899
1004.351562,-2.673220,0.614063,-1.095035,1.128690
1004.355469,0.515932,-2.275721,-4.609199,-7.825032
1004.359375,-4.073061,-7.674697,-6.887105,-3.872376
1004.363281,-11.466310,1.040002,-1.719911,-5.962764
1004.367188,-12.962325,-6.959042,-9.042028,-10.748584
1004.371094,-8.650890,-11.183058,-4.820638,-9.539301
1004.375000,-6.579457,-11.604179,-10.383746,-7.892320
1004.378906,-4.637570,-6.810120,-10.276658,-8.582847
1004.382812,-12.809402,-0.678906,-10.796509,-6.554549
1004.386719,-4.825419,-4.606805,-7.987572,-7.802149
1004.390625,-6.056782,-0.938891,5.051522,-8.895981
1004.394531,4.031246,-1.611437,-5.801520,-5.698367
1004.398438,2.141600,8.514699,0.866827,-1.766978
1004.402344,1.615998,1.229794,0.365805,2.098913
1004.406250,11.512198,3.572479,4.323681,3.194518
1004.410156,-0.390870,1.787459,9.700790,6.699322
1004.414062,-6.521073,4.820686,-0.121265,8.775651
1004.417969,4.376001,6.136368,9.823720,6.500948
1004.421875,8.622242,14.247069,12.059760,10.131284
1004.425781,9.036622,10.504010,9.854133,8.630349
1004.429688,8.075674,10.461856,10.589304,15.196238
1004.433594,11.318207,15.902426,13.246924,13.406297
1004.437500,11.038493,5.245994,4.078330,13.921359
1004.441406,1.339575,-3.865723,3.365774,8.955453
1004.445312,4.644082,-6.188701,4.024389,-2.840656
1004.449219,2.226674,5.198687,1.289946,-2.467427
1004.453125,-1.842335,-1.969709,1.413846,-8.088316
1004.457031,-2.667329,-13.335810,-1.947747,-8.590400
1004.460938,-5.882914,-7.142574,-6.455443,-9.288937
1004.464844,-13.410824,-9.060701,-8.984773,-12.840730
1004.468750,-5.399270,-6.873658,-8.729468,-7.939090
1004.472656,-18.903630,-6.143011,-12.584899,-10.804413
1004.476562,-4.504775,-8.965012,-17.777324,-10.217598
1004.480469,-3.639252,-21.339792,-8.509871,-5.316699
1004.484375,-1.348164,-8.832649,-2.658697,-10.079675
1004.488281,-5.019824,-1.388927,-5.615510,-2.180954
1004.492188,-4.862487,0.039238,-1.250899,0.342839
1004.496094,-3.269782,-4.201399,-3.809140,-2.980320
1004.500000,-3.735007,9.123872,0.811683,5.227198
1004.503906,4.967868,5.464911,4.343067,4.052362
1004.507812,5.938966,6.046573,7.532747,6.186595
1004.511719,13.295178,5.949892,3.566670,0.062494
1004.515625,11.352098,14.704508,4.278510,7.864844
1004.519531,1.735584,9.434433,6.278861,8.864838
1004.523438,8.599561,7.096776,12.997304,11.707737
1004.527344,7.405721,6.816105,3.962076,12.654182
1004.531250,12.565766,4.518206,7.496459,15.856326
1004.535156,10.046761,8.534730,12.946096,15.308374
1004.539062,9.947072,13.655762,9.850059,14.591464
1004.542969,12.530173,-0.541322,2.215279,3.945583
1004.546875,-0.021958,-3.877937,2.150845,-0.664102
1004.550781,-4.682340,1.266884,-3.419132,-1.751052
1004.554688,-13.205550,1.337577,-2.403240,-1.188215
1004.558594,-3.484898,-3.803239,-4.703121,-4.046749
1004.562500,-1.938517,-1.394487,-8.565603,-2.962775
1004.566406,-4.963321,-5.676268,-11.047622,-8.661911
1004.570312,-1.952695,-12.831522,-9.181383,-4.888867
1004.574219,-2.964452,-10.061515,-16.284648,-6.798465
1004.578125,-6.460566,-11.199162,-12.137469,-12.686585
1004.582031,-6.046454,-6.480964,-5.449825,-11.526767
1004.585938,-7.380322,-4.249498,-12.076426,0.970368
1004.589844,-4.214090,-4.356905,-19.674165,-6.724110
1004.593750,-7.860691,-0.009557,0.174465,-7.108650
1004.597656,-5.222249,3.885918,-3.967588,-3.366215
1004.601562,1.258001,0.581362,-2.929395,13.214366
1004.605469,-0.460522,5.454824,-0.706570,1.455452
1004.609375,15.111563,7.214488,5.054058,5.866273
1004.613281,14.020298,2.906750,4.826221,17.187895
1004.617188,9.529602,5.337661,9.031603,-1.878523
1004.621094,13.921216,14.132222,14.396488,7.625683
1004.625000,15.966705,12.714444,8.486495,9.151582
1004.628906,10.975322,8.181012,9.995699,10.670950
1004.632812,5.838759,7.318698,4.075105,12.892072
1004.636719,7.363475,12.358475,8.162287,13.098235
1004.640625,10.492545,10.008903,14.885076,2.162196
1004.644531,2.619727,1.629127,3.265127,7.090496
1004.648438,1.299202,2.511410,1.519183,1.715509
1004.652344,-5.043701,-3.417288,-0.389460,1.571276
1004.656250,-8.368625,-2.716234,-0.952834,-5.600735
1004.660156,-7.121262,-5.730104,-7.448936,-10.572615
1004.664062,-14.581146,-9.982467,-6.010274,-14.704592
1004.667969,-6.906902,-7.062033,-5.020460,-7.679267
1004.671875,-11.904450,-6.339426,-5.399196,-13.334656
1004.675781,-4.616784,-11.175093,-10.531289,-9.472100
1004.679688,-12.271301,-7.287110,-5.586322,-10.561477
1004.683594,-10.617391,-5.402021,-9.681107,-6.121299
1004.687500,-10.666898,-7.995402,-4.617796,-7.080546
1004.691406,-3.879745,-15.404432,2.534442,-4.636649
1004.695312,1.545264,1.963868,-2.864334,-1.236292
1004.699219,-3.109113,-6.734076,2.396249,-1.779940
1004.703125,0.253370,7.255687,-2.492697,-2.254206
1004.707031,6.107717,0.931629,12.244956,8.154285
1004.710938,5.452770,6.656770,3.540738,7.856111
1004.714844,9.780727,1.835882,6.398918,16.434158
1004.718750,13.677506,7.209467,14.528373,14.237104
1004.722656,8.149132,16.512840,7.802530,13.865304
1004.726562,14.020887,5.067758,5.331965,13.994307
1004.730469,10.215610,10.337606,5.027789,8.134121
1004.734375,7.806034,10.344660,19.453334,7.303710
1004.738281,8.002364,9.282334,10.747791,8.108724
1004.742188,9.183091,11.559701,8.766315,6.304311
1004.746094,-4.469616,1.910020,0.512723,-0.148164
1004.750000,7.683468,-2.886746,-2.932135,-1.336198
1004.753906,5.608893,0.476414,1.858312,-7.708401
1004.757812,-4.581905,3.042294,1.161239,-2.241403
1004.761719,-4.371065,-6.313727,-0.948842,-2.629843
1004.765625,-6.491708,-3.097971,-8.913966,-2.271434
1004.769531,-6.619731,-15.598132,-15.030073,-9.908241
1004.773438,-9.055259,-8.874400,-8.695573,-10.755525
1004.777344,-3.830668,-5.946488,-9.839455,-8.592241
1004.781250,-10.447300,-4.200850,-15.898575,-9.206890
1004.785156,-11.836874,-4.116848,-9.356601,-6.814202
1004.789062,-7.908968,-7.597872,-9.375179,-10.202612
1004.792969,0.135647,-5.709739,-7.443027,-6.501557
1004.796875,-2.548087,-3.450097,-1.394620,-6.154978
1004.800781,1.419603,5.013242,-1.783136,-9.674307
1004.804688,0.572575,5.956719,1.323747,12.751766
1004.808594,0.456082,5.980891,4.029433,-0.896457
1004.812500,9.276906,6.214503,5.777679,9.043587
1004.816406,13.917110,7.464359,8.210101,6.668503
1004.820312,18.013365,7.163775,10.560811,11.166790
1004.824219,12.596419,11.149661,10.486812,6.141440
1004.828125,7.767298,11.481992,8.044973,10.293654
1004.832031,9.734456,5.779151,4.786393,6.559792
1004.835938,2.560992,12.577861,9.176169,9.383999
1004.839844,6.770936,-1.618629,1.835414,5.204434
1004.843750,2.728430,4.093893,4.766766,8.481843
1004.847656,-0.733976,0.976424,-2.527396,4.654142
1004.851562,-3.304767,1.766733,-1.614264,4.021628
1004.855469,2.723802,-1.952105,-9.196679,-0.395999
1004.859375,-8.200783,-0.042588,-10.243081,-2.790570
1004.863281,-11.950000,-6.031305,-15.246083,-0.965437
1004.867188,-13.396757,-8.781244,-9.787360,-9.213288
1004.871094,-2.334208,-3.423925,-7.474827,-8.889602
1004.875000,-14.179619,-3.156678,-4.861250,-11.205739
1004.878906,-9.428021,-15.626737,-13.574232,-13.338756
1004.882812,-14.141620,-13.825936,-4.509043,-3.464453
1004.886719,-5.646301,-7.492295,-6.096027,-13.792857
1004.890625,-13.771130,-10.803015,-5.367917,-1.718957
1004.894531,-4.905809,-4.124034,0.660713,-5.507447
1004.898438,0.530721,-1.189755,-3.929192,-2.148878
1004.902344,-0.716001,3.171406,2.199618,0.662597
1004.906250,11.573085,2.258296,5.878305,3.703972
1004.910156,3.301105,7.954425,5.178570,6.163301
1004.914062,4.706673,13.255900,-0.937409,6.606606
1004.917969,5.121172,4.917500,7.722594,17.642119
1004.921875,19.940599,7.948363,5.315321,3.328398
1004.925781,15.946128,12.789884,6.907530,16.323980
1004.929688,7.247874,10.095878,10.421846,8.699542
1004.933594,8.609313,5.713957,1.441541,8.660238
1004.937500,9.720123,7.267860,5.166091,10.507440
1004.941406,-0.338146,1.099364,2.294627,6.459808
1004.945312,1.747586,10.764161,3.969448,-4.224353
1004.949219,-4.138477,1.412821,3.374564,2.869138
1004.953125,-0.358185,2.783298,3.823782,0.528282
1004.957031,-11.455607,-6.793740,4.468704,-5.198993
1004.960938,-0.409457,-5.664966,-9.885307,-7.642498
1004.964844,-5.702690,-9.378712,-8.339108,-5.798597
1004.968750,-9.834168,-6.258400,-6.911777,-14.035870
1004.972656,-6.390386,-8.629098,-11.126166,-13.499019
1004.976562,-13.630034,-10.720721,-8.379816,-8.869037
1004.980469,-9.575595,-7.419265,-9.279430,-3.196692
1004.984375,-8.736898,-5.409105,-8.829988,-11.177503
1004.988281,-8.509411,-1.498099,-2.016834,3.639027
1004.992188,-8.966413,-5.782612,-4.944136,-9.139198
1004.996094,-3.661356,-0.774659,3.891049,-10.353982
1005.000000,-1.602903,1.471784,5.240199,-5.818385
1005.003906,0.523914,1.306109,4.830798,2.577871
1005.007812,7.398729,8.412021,2.630906,-1.705871
1005.011719,1.438239,8.047294,3.777151,4.748761
1005.015625,10.378330,3.495947,12.105746,14.958762
1005.019531,1.958490,11.496423,8.974232,10.456208
1005.023438,12.769218,10.876545,2.290917,9.187938
1005.027344,11.368639,6.537682,9.698788,3.886409
1005.031250,14.595334,12.821345,13.032283,10.822370
1005.035156,14.372209,9.932118,10.830870,9.168730
1005.039062,6.225891,6.634257,5.826527,10.970967
1005.042969,2.933206,4.470674,2.164175,0.166059
1005.046875,1.988761,8.338865,7.210460,3.009976
1005.050781,0.533546,6.857953,-1.533209,-2.093002
1005.054688,-3.575338,-2.419725,0.029010,2.563712
1005.058594,-2.392386,-11.694407,0.923980,-0.089319
1005.062500,-5.775149,-6.998577,-8.797558,-8.092183
1005.066406,-6.095361,-7.956466,-14.485672,-2.977247
1005.070312,-8.107621,-3.961244,-12.757028,-11.770559
1005.074219,-9.526978,-6.797728,-7.173293,-6.326796
1005.078125,-9.156992,-8.679836,-9.838670,-9.880390
1005.082031,-5.259905,-15.049897,-11.060075,-9.789850
1005.085938,-11.384020,-8.954058,-12.755932,-6.334371
1005.089844,-14.807065,-13.388506,0.701338,-6.981552
1005.093750,-12.113477,1.545928,-4.936616,-0.773118
1005.097656,-2.111789,-3.971207,1.812992,-2.994572
1005.101562,6.011694,4.057053,-9.951604,8.020167
1005.105469,7.141004,6.476792,0.471583,9.119791
1005.109375,7.867847,4.591493,0.935208,6.827819
1005.113281,17.062985,4.360543,1.182574,3.476592
1005.117188,11.456686,14.418506,10.417602,5.374512
1005.121094,10.466462,9.007951,13.760680,2.622953
1005.125000,5.647249,9.382891,6.154905,12.637814
1005.128906,7.380334,14.107656,11.714575,7.094255
1005.132812,2.442123,10.596640,15.376453,6.248761
1005.136719,5.232817,9.694191,1.881972,8.978093
1005.140625,2.634225,12.617681,10.102520,10.029292
1005.144531,11.983508,7.260791,1.552685,0.677816
1005.148438,1.188823,-1.245690,7.671598,2.362522
1005.152344,-3.789787,-0.081498,-0.142379,1.806873
1005.156250,-4.895425,-6.300404,-6.372580,-0.198741
1005.160156,-1.023387,-8.727076,-7.909385,0.748100
1005.164062,0.264059,-7.962853,-0.712085,-7.533014
1005.167969,-5.822234,-12.320438,-11.848936,-9.916261
1005.171875,-11.065182,-7.158018,-13.290362,-8.596636
1005.175781,-15.468751,-5.099345,-6.844135,-8.151947
1005.179688,-6.069982,-10.864163,-8.950445,-16.658781
1005.183594,-4.700031,-10.332053,-9.251312,-6.094773
1005.187500,-0.325206,-12.614540,-8.675169,-11.303621
1005.191406,-8.814455,-4.421241,-0.455683,-4.312658
1005.195312,-3.947904,-7.952523,-11.446692,0.097056
1005.199219,-0.081580,-6.302769,1.540449,-2.175404
1005.203125,-4.999075,0.182305,2.656489,5.485080
1005.207031,-1.793790,4.436675,1.065946,1.144621
1005.210938,8.326510,12.110589,6.316946,6.003256
1005.214844,-1.144283,10.590380,2.314573,15.123027
1005.218750,13.748636,13.451499,9.363451,8.570176
1005.222656,8.439745,6.529797,10.721726,14.069455
1005.226562,7.074192,4.638548,7.882817,9.870635
1005.230469,12.398809,0.388638,1.925442,6.381241
1005.234375,2.896087,11.379252,6.921802,18.462529
1005.238281,5.277777,0.893825,12.682456,13.508456
1005.242188,5.737485,1.943416,6.760888,5.866111
1005.246094,-3.285315,4.642341,1.161370,-0.108646
1005.250000,6.581223,3.793368,1.436408,-5.969036
1005.253906,-0.039728,-4.412797,-1.822757,-1.519205
1005.257812,1.914117,-5.404472,-2.605761,-6.737106
1005.261719,-11.508771,-10.707778,-4.709234,-7.936771
1005.265625,-10.844778,-17.051344,-9.154725,-10.584670
1005.269531,-8.615613,-4.292559,-15.260450,-7.380568
1005.273438,-4.925279,-12.240547,-7.451465,-10.134301
1005.277344,-10.511030,-8.796361,-5.252439,-10.929718
1005.281250,-8.785310,-3.420714,-14.303676,-5.349188
1005.285156,-5.705622,-10.593716,-7.693245,-7.883824
1005.289062,1.520095,-2.786792,-5.377319,-5.621130
1005.292969,-5.656022,-9.044292,-4.908474,-4.344762
1005.296875,-0.702138,-3.686744,-2.225964,-3.049258
1005.300781,6.309259,8.800286,5.037054,3.903976
1005.304688,11.251483,0.235874,2.111608,-1.152209
1005.308594,1.571105,5.035483,6.127425,2.442822
1005.312500,6.757697,4.805888,8.170087,8.984225
1005.316406,8.428649,7.566641,12.837714,7.729979
1005.320312,8.508611,11.148770,4.501238,11.850900
1005.324219,5.438463,9.354446,5.769384,5.750150
1005.328125,1.328128,5.238876,12.403939,5.712440
1005.332031,10.589289,8.603403,2.641045,10.293147
1005.335938,5.830498,13.682809,14.126663,3.771459
1005.339844,3.185920,8.963865,4.227300,7.618179
1005.343750,5.655662,-1.104869,-0.768103,6.966099
1005.347656,-2.068394,-3.057586,-8.447436,1.356474
1005.351562,2.536439,1.063746,1.843697,-2.300486
1005.355469,-12.924993,1.758153,-5.476664,-11.849081
1005.359375,-5.027614,-5.517772,-5.718173,-8.633445
1005.363281,-6.544389,-2.994539,-11.734834,-10.842643
1005.367188,-8.335689,-10.852553,-11.905535,-8.769378
1005.371094,-11.409363,-13.702035,-8.002492,-14.770323
1005.375000,-10.832817,-12.523685,-12.203970,-12.163967
1005.378906,-16.283366,-14.189101,-9.501501,-9.184240
1005.382812,-1.362732,-2.456026,-3.990481,-11.516584
1005.386719,-7.753417,-10.936297,-6.260970,-3.592781
1005.390625,-2.281201,-8.587592,-3.075988,-2.737113
1005.394531,0.305510,-2.131937,-4.667500,-6.158584
1005.398438,2.702531,-2.178959,-5.040623,5.003455
1005.402344,1.789176,2.944158,2.552022,2.692694
1005.406250,0.108409,-1.185624,2.730476,10.195398
1005.410156,6.419500,7.448347,3.804518,-5.155623
1005.414062,5.288026,3.435685,3.965607,13.832485
1005.417969,10.767940,11.770162,18.426732,0.855438
1005.421875,13.690779,4.747920,14.301300,11.852366
1005.425781,1.813046,13.262650,11.669420,11.314375
1005.429688,12.264819,4.939128,8.898925,13.335989
1005.433594,19.837709,8.297272,8.772653,-0.915817
1005.437500,6.555047,9.192048,10.721426,-1.079323
1005.441406,0.683770,-1.414787,2.200320,6.569292
1005.445312,6.484543,6.143880,8.164465,1.202500
1005.449219,0.428236,5.435038,1.239296,2.018647
1005.453125,-5.044009,-5.430408,-2.396498,5.959902
1005.457031,-2.218795,0.393608,-8.134740,-3.111750
1005.460938,-12.966701,-5.099751,-8.463281,-2.641881
1005.464844,-12.839227,-5.256312,-9.328784,-8.566964
1005.468750,-4.656725,-15.199321,-6.044280,-5.343617
1005.472656,-10.546566,-10.446891,-3.545602,-8.191621
1005.476562,-4.570691,-8.108111,-12.277537,-17.112715
1005.480469,-3.558435,-10.196566,-11.801470,-3.305789
1005.484375,-6.974178,-2.108918,-13.097398,-6.630274
1005.488281,-7.329200,-13.429057,-3.220687,-11.056073
1005.492188,-5.966943,-3.984712,-5.872521,-0.755772
1005.496094,-8.386498,-4.115597,3.906698,-4.015053
1005.500000,3.059551,-3.229249,5.166105,-2.825564
1005.503906,-0.075884,1.037740,1.353846,0.732057
1005.507812,4.636663,-1.911790,6.067150,5.506801
1005.511719,9.024606,11.719894,5.052175,2.446701
1005.515625,8.187707,3.224916,15.428211,5.911309
1005.519531,9.220728,14.883283,7.827326,6.795424
1005.523438,6.028558,3.928353,7.198194,2.287495
1005.527344,11.190138,14.882359,6.156124,11.113903
1005.531250,21.697600,15.214527,6.371480,6.185387
1005.535156,7.142281,8.195427,9.563992,12.942874
1005.539062,10.190430,10.766940,9.359453,5.290425
1005.542969,1.944617,2.241526,-4.113890,-0.396189
1005.546875,1.795028,1.448750,-0.468867,0.415215
1005.550781,1.911350,-5.224265,-6.878875,-0.895472
1005.554688,3.061726,-1.413856,1.465517,-7.236476
1005.558594,-4.661631,-3.505684,-6.434995,-9.682183
1005.562500,-13.478707,-1.698696,-9.787009,-6.595476
1005.566406,-10.351620,-5.619133,-7.132704,-13.171302
1005.570312,-10.307007,-9.571486,-7.857549,-13.075780
1005.574219,-8.656769,-9.872235,-17.345040,-6.653656
1005.578125,-9.589509,-10.802021,-9.602001,-11.811941
1005.582031,-2.858068,-6.671787,-6.568813,-8.524925
1005.585938,-12.739677,-12.601396,-6.957571,-8.373609
1005.589844,-0.792629,-12.588167,-3.845805,-9.796142
1005.593750,-9.886017,-7.918329,-2.533111,-8.693382
1005.597656,-4.594963,2.800105,5.230413,-5.213930
1005.601562,1.204340,-1.072584,-0.302899,2.062530
1005.605469,2.270124,8.962413,3.185335,2.364639
1005.609375,9.191536,7.798555,-1.633730,6.375726
1005.613281,6.356156,4.748857,7.777172,7.917240
1005.617188,12.342816,12.183662,10.472202,10.989354
1005.621094,13.833772,5.788065,5.802863,3.581522
1005.625000,6.656914,11.547091,7.670494,14.050943
1005.628906,7.343487,14.811323,10.971404,7.917558
1005.632812,8.011831,2.665370,6.328268,10.104938
1005.636719,6.139934,5.693938,0.646390,7.936722
1005.640625,10.611659,4.900746,8.855553,2.601219
1005.644531,5.552649,1.989722,3.383261,4.943611
1005.648438,3.539616,7.083336,1.236199,1.530545
1005.652344,7.198589,1.827472,-9.302246,-2.620565
1005.656250,0.209287,-8.347967,-10.296372,-6.957245
1005.660156,-0.077854,-8.261608,-3.023216,-7.198202
1005.664062,-2.885351,-8.846297,-7.494939,-0.726507
1005.667969,-6.002342,-13.954591,-16.666730,-11.905121
1005.671875,-7.850261,-1.798886,-16.994885,-5.705843
1005.675781,-14.427970,-14.278364,-11.034021,-8.214002
1005.679688,-10.675094,-11.547961,-13.097917,-10.097078
1005.683594,-3.513036,-2.989522,-9.240640,-10.815741
1005.687500,-6.994543,-8.489794,-3.745149,-7.040828
1005.691406,-12.756253,-6.482464,-9.030843,-5.296593
1005.695312,-0.062987,-5.606676,-3.539238,-7.947043
1005.699219,1.963603,-1.016115,-3.796615,3.042581
1005.703125,9.042872,-0.824126,3.978407,8.135150
1005.707031,5.543484,3.722706,2.004417,2.874767
1005.710938,9.452125,10.149191,1.690097,8.681420
1005.714844,1.810855,5.942424,10.416734,16.107327
1005.718750,5.082726,11.159650,12.152483,5.823578
1005.722656,10.375709,15.647692,6.458065,11.966543
1005.726562,7.204237,7.002916,13.025871,10.047178
1005.730469,6.812681,7.654832,9.335000,12.020124
1005.734375,5.260924,9.436259,0.887953,5.482136
1005.738281,8.044402,6.951889,9.630634,8.451577
1005.742188,7.195720,14.555472,8.115281,-1.605933
1005.746094,4.979012,-0.514736,3.259782,3.171168
1005.750000,3.707226,5.468072,-0.275756,4.603691
1005.753906,-2.891730,-2.389136,-3.039313,-2.002314
1005.757812,-3.932592,-5.163604,-8.291944,-5.058965
1005.761719,-6.618262,-6.892066,-7.514087,-8.313267
1005.765625,-0.064273,-8.913717,-2.846041,-8.393470
1005.769531,-3.320750,-11.550712,-16.533054,-3.322598
1005.773438,-5.298233,-17.353733,-11.564217,-7.947433
1005.777344,-11.349067,-15.141012,-9.300361,-5.756184
1005.781250,-10.271562,-7.984828,-10.272053,-13.948002
1005.785156,-10.163305,-13.589558,-2.253453,-0.801205
1005.789062,-7.250544,-6.223052,-8.689476,-7.567899
1005.792969,-9.146763,-11.341640,-0.610169,-5.245530
1005.796875,3.036311,-2.233998,-7.936592,-1.280839
1005.800781,0.011574,1.837109,-0.203278,-0.026278
1005.804688,4.065897,-1.832873,0.071977,3.977144
1005.808594,7.876527,7.131615,6.968139,10.741704
1005.812500,10.094199,1.137599,3.111218,2.567846
1005.816406,6.497919,7.823741,7.868406,11.625668
1005.820312,16.780748,7.378293,2.017800,14.717546
1005.824219,7.865056,4.158001,13.397386,17.128512
1005.828125,8.209893,16.150621,12.632859,11.553591
1005.832031,8.963485,6.169783,8.645202,13.565392
1005.835938,5.915195,0.556817,3.440977,12.053168
1005.839844,2.855954,2.130278,4.420853,-1.257798
1005.843750,12.964644,9.776896,6.546131,4.938544
1005.847656,0.263572,0.994390,-1.571437,2.652033
1005.851562,-4.876469,-5.677282,-0.395768,-3.124743
1005.855469,-6.403384,-8.615228,2.028560,-4.527401
1005.859375,-10.913302,-4.968906,-12.401489,-6.938595
1005.863281,-5.326169,-5.331025,-11.006566,-7.725117
1005.867188,-13.102460,-12.096915,-15.244941,-10.848497
1005.871094,-6.634058,-11.137987,-8.161742,-8.656569
1005.875000,-7.361849,-8.437660,-2.998536,-8.482180
1005.878906,-1.257212,1.301290,-12.033345,-8.395729
1005.882812,-5.614442,-8.099366,-8.881798,-12.121970
1005.886719,-4.722283,0.538904,-6.836230,-8.253001
1005.890625,-4.288029,-7.548975,-6.387089,-6.025578
1005.894531,0.324784,1.459476,0.156458,-3.129286
1005.898438,0.663282,-1.042254,-1.504284,-5.488892
1005.902344,-8.014125,3.758525,-0.649798,0.631448
1005.906250,2.095531,0.728025,-2.345165,0.832142
1005.910156,7.981395,13.646653,3.631442,2.170151
1005.914062,9.886506,10.225861,3.844209,16.349343
1005.917969,13.702383,0.582306,0.259195,11.740861
1005.921875,12.569687,6.039008,10.663803,4.726126
1005.925781,8.969108,11.678779,4.485409,10.885352
1005.929688,4.691984,14.087359,14.189431,9.257100
1005.933594,10.368829,9.836755,14.351880,10.719612
1005.937500,11.767083,3.089857,10.783133,11.399342
1005.941406,8.619977,0.328713,8.399217,7.639621
1005.945312,1.019236,8.975241,3.271779,5.506172
1005.949219,-1.062410,7.084592,2.385981,2.287757
1005.953125,-1.594052,-6.468555,2.042251,4.117262
1005.957031,-12.306493,-2.674418,4.436048,-4.618510
1005.960938,-7.869998,-4.944720,-0.084120,-2.182892
1005.964844,-11.607074,-8.907690,-8.727004,-2.242599
1005.968750,-10.723193,-10.790446,-19.631772,-5.231488
1005.972656,-10.400499,-4.396941,-11.358682,-4.530905
1005.976562,-9.986048,0.345456,-7.524158,-8.990946
1005.980469,-7.378732,-8.830138,-13.190588,-8.313376
1005.984375,-4.406903,-7.767870,-4.048174,-4.321115
1005.988281,-8.462838,-3.045164,-11.082198,-9.160549
1005.992188,-2.199997,-5.109218,-8.831933,-8.471602
1005.996094,-5.725737,-1.306786,-11.866399,-4.302026
1006.000000,-1.319830,-1.011782,6.217813,9.209103
1006.003906,1.092681,-0.200423,5.206602,9.766007
1006.007812,0.464443,4.825770,4.159105,0.179224
1006.011719,7.183606,8.786894,5.037790,2.275910
1006.015625,4.269598,6.431844,6.010448,5.451207
1006.019531,0.153870,6.235515,4.283635,9.388464
1006.023438,12.491599,14.870269,18.804886,7.179401
1006.027344,4.057107,15.092955,0.932286,15.904057
1006.031250,7.639693,12.253741,13.568614,9.429358
1006.035156,11.774760,6.818278,2.936863,3.611921
1006.039062,3.043012,7.103735,8.754762,3.452029
1006.042969,7.503285,7.479905,4.164421,7.870669
1006.046875,5.004050,6.104834,8.728366,1.076261
1006.050781,1.272437,1.975604,0.509110,-3.704063
1006.054688,0.031291,-6.821904,-9.259846,3.418493
1006.058594,-8.500202,-7.764454,-7.854723,-9.778336
1006.062500,-6.801007,-6.602286,-2.326785,-3.444173
1006.066406,-9.122308,-7.345242,-8.997159,-11.174514
1006.070312,-12.052042,-5.884271,-6.171202,-11.267911
1006.074219,-9.908570,-9.577678,-13.974457,-9.319111
1006.078125,-8.793275,-6.073175,-16.226083,-10.687889
1006.082031,-4.727308,-7.184443,-8.394771,-8.328629
1006.085938,-9.173565,-7.432779,-13.415117,-1.720075
1006.089844,-4.294003,-7.092102,-6.295181,-7.654362
1006.093750,3.978221,-5.998690,-1.214806,-5.155850
1006.097656,-0.675663,-4.800805,-4.876038,-3.309778
1006.101562,-4.075246,2.227023,1.569976,1.073261
1006.105469,2.380230,-0.136385,3.128473,2.780780
1006.109375,7.346132,5.780724,5.910531,7.117020
1006.113281,9.257325,14.845926,8.458853,11.866163
1006.117188,11.414941,7.257778,9.011144,12.116048
1006.121094,13.995858,4.471497,12.764211,8.953745
1006.125000,10.606875,7.630064,9.982725,7.446508
1006.128906,2.888789,3.744371,5.021874,6.906429
1006.132812,4.829654,3.204129,10.104616,2.820767
1006.136719,8.080522,6.007653,6.999489,-0.880148
1006.140625,6.731307,1.918619,7.732756,5.765959
1006.144531,1.218443,3.136219,-2.463040,9.998624
1006.148438,3.458527,-3.638356,-1.533363,1.275547
1006.152344,-2.373198,2.657939,-3.785812,-2.608268
1006.156250,-1.989067,-2.330072,-1.617398,-3.692324
1006.160156,-5.416463,-8.649441,-6.133157,-7.999583
1006.164062,-11.810177,-11.925280,-13.666340,-9.258351
1006.167969,-4.814852,-6.897922,-5.422829,-6.317098
1006.171875,-10.493372,-7.382854,-11.436191,-8.728424
1006.175781,-8.284375,-6.097696,-12.456441,-7.563917
1006.179688,-9.302860,-7.253284,-4.556464,-9.031496
1006.183594,-17.961475,-4.006325,-4.728814,-3.370793
1006.187500,-1.818784,-4.990154,-7.006674,-3.028550
1006.191406,-7.921134,-0.668399,4.130579,-8.459927
1006.195312,-7.213719,-4.045711,7.317385,1.436999
1006.199219,-0.342857,4.453520,-5.929801,6.355654
1006.203125,-1.884288,0.207801,-2.919040,-3.069091
1006.207031,6.592591,3.835846,3.278427,10.759994
1006.210938,7.700801,13.839898,5.516692,5.190035
1006.214844,7.691599,1.258610,8.195458,6.135241
1006.218750,5.140753,15.610322,13.284069,-1.078341
1006.222656,14.607777,8.836339,6.645757,14.416317
1006.226562,14.538850,18.655830,8.492046,12.410165
1006.230469,6.020421,13.422269,7.308102,12.561363
1006.234375,3.465348,2.173776,-0.510627,-3.757826
1006.238281,10.176308,20.059910,6.709092,5.025839
1006.242188,7.281272,8.317863,2.272697,10.181928
1006.246094,7.547863,7.313097,5.211376,5.338275
1006.250000,2.846751,-1.204467,2.269395,0.444373
1006.253906,-3.333337,-7.641963,1.612548,-4.887525
1006.257812,2.499636,-0.530703,-5.907455,-7.508142
1006.261719,-9.183519,-8.603935,-8.125236,-1.720468
1006.265625,-7.740066,-11.740561,-4.838817,-11.165162
1006.269531,-10.602659,-16.429293,-4.171228,-14.496266
1006.273438,-10.113410,-8.443108,-9.192429,-11.419456
1006.277344,-10.908627,-4.912009,-7.099751,-8.926323
1006.281250,-5.279598,-11.266666,-17.500756,-20.257039
1006.285156,-13.148423,-8.318480,-5.179592,-14.323941
1006.289062,6.921854,-8.471595,-10.868762,-4.885803
1006.292969,-1.532305,-2.834203,-2.676154,-7.421223
1006.296875,2.536983,-5.889617,-10.070642,-3.531206
1006.300781,-2.832962,-2.006983,3.396594,-5.139806
1006.304688,0.765543,4.937873,6.928995,-1.682854
1006.308594,6.644072,-1.349981,0.127717,5.536778
1006.312500,7.182268,8.623027,16.399360,7.895123
1006.316406,10.329495,3.322972,9.595981,8.117417
1006.320312,8.403579,11.385618,6.095722,7.841595
1006.324219,10.681779,13.851449,12.729255,0.632343
1006.328125,8.795242,14.260174,8.585676,8.070965
1006.332031,10.411434,10.353576,5.024933,12.700336
1006.335938,13.012477,6.012158,6.343702,14.546696
1006.339844,11.195529,1.094133,12.654539,7.807838
1006.343750,-4.594974,-2.946211,2.645810,3.497780
1006.347656,-4.498646,8.130640,9.208733,4.043568
1006.351562,2.198935,-7.534661,1.447472,1.520179
1006.355469,-0.452374,-1.284885,-3.466383,-10.781388
1006.359375,-9.562536,-10.482105,-2.389589,-1.484955
1006.363281,-11.311255,-6.622888,-4.720840,-8.829802
1006.367188,-12.550343,-10.304287,-11.083556,-6.771429
1006.371094,-12.698063,-8.278351,-13.819914,-6.085828
1006.375000,-13.433491,-9.442780,-2.628959,-18.129620
1006.378906,-7.459827,-9.974218,-16.099773,-10.755203
1006.382812,-14.134423,-8.039399,-9.259501,-9.209853
1006.386719,-5.419775,-12.225691,-2.334711,-8.204518
1006.390625,-8.658042,-7.989032,0.197328,-7.087469
1006.394531,-5.422350,-0.857082,-5.065478,-6.782873
1006.398438,2.075867,4.923194,-7.463248,-1.560506
1006.402344,-1.153045,4.142776,1.909744,-5.024283
1006.406250,-0.130032,0.945978,5.352629,4.977734
1006.410156,8.084349,9.418497,12.336716,3.916067
1006.414062,6.915487,4.189955,13.665674,7.854373
1006.417969,16.119142,10.465381,11.012350,-0.236558
1006.421875,14.734563,6.897281,16.111679,7.246783
1006.425781,7.376160,8.705955,10.277582,13.729207
1006.429688,8.250311,11.930304,8.574274,7.251784
1006.433594,9.314661,5.426419,9.852992,8.592064
1006.437500,5.235566,15.458206,9.940762,4.096561
1006.441406,7.944269,-0.199037,-1.965287,4.601975
1006.445312,3.827615,-5.019594,4.304592,0.610733
1006.449219,-5.523161,2.543323,2.784279,2.563313
1006.453125,-8.483765,-6.858873,3.807034,6.977433
1006.457031,-4.577388,-2.437307,-12.552096,-3.566222
1006.460938,-10.756507,-1.877826,-4.035589,-10.886134
1006.464844,-4.352209,-18.379232,-2.879870,-6.599225
1006.468750,-12.370466,-6.912587,-10.034725,-4.820251
1006.472656,-12.103781,-6.829003,-11.667342,-12.620433
1006.476562,-16.979287,-10.944945,-11.417225,-12.328166
1006.480469,-14.684838,-8.670047,-10.097712,-11.801909
1006.484375,-13.755399,-5.550341,-7.094614,-7.836124
1006.488281,-7.499183,-8.036402,-3.292763,-8.944917
1006.492188,-2.302393,-4.001714,-3.791798,-5.798425
1006.496094,-6.984189,-4.254832,-2.810037,-2.456542
1006.500000,5.201076,1.593824,4.120026,-2.256695
1006.503906,5.291130,12.496200,2.072824,-1.530971
1006.507812,5.563710,5.810766,8.844615,-2.542792
1006.511719,6.296087,5.223076,7.892336,6.063337
1006.515625,9.558772,-0.476727,6.760389,5.576182
1006.519531,12.333876,9.416372,9.686197,9.025755
1006.523438,16.650959,2.136302,10.280162,10.480175
1006.527344,12.587733,15.896890,7.041112,17.130456
1006.531250,14.125332,6.491111,11.262378,6.737233
1006.535156,2.357575,12.710520,15.012141,6.818967
1006.539062,9.775192,-0.768485,2.900471,5.114696
1006.542969,3.515179,-0.886260,2.055338,4.134123
1006.546875,0.717918,3.718519,8.965653,0.616036
1006.550781,4.056565,2.581056,-1.607419,2.191261
1006.554688,-4.600591,-0.777784,-5.591536,-10.949399
1006.558594,-0.777657,-6.413003,-9.071862,-9.856282
1006.562500,-6.376271,-8.262793,-8.393640,-6.027015
1006.566406,-6.874675,-1.521312,-13.253418,-8.004699
1006.570312,-16.524457,-7.707714,-3.027360,-8.060373
1006.574219,-9.487903,-13.661265,-12.705701,-8.681122
1006.578125,-12.893702,-7.251811,-9.450624,-6.801803
1006.582031,-11.062285,-12.708410,-8.113826,-7.213120
1006.585938,-10.170530,-5.334584,-13.702602,-10.520712
1006.589844,-1.570088,-8.906047,-2.062069,-2.204907
1006.593750,-0.239515,-0.738947,3.013284,0.095194
1006.597656,-1.539353,2.176997,-4.181678,1.103046
1006.601562,6.899208,-3.706724,2.360259,2.167455
1006.605469,8.122209,0.065686,10.644615,1.891219
1006.609375,-1.776818,4.594183,5.522584,-1.784533
1006.613281,6.667953,0.841743,10.847576,3.982298
1006.617188,9.460403,5.469583,10.415798,1.629064
1006.621094,10.330138,7.214393,5.709766,9.333553
1006.625000,9.007064,9.179532,7.123619,6.012604
1006.628906,11.403203,6.458683,3.440989,1.254171
1006.632812,9.339322,9.401555,5.083070,9.662562
1006.636719,3.020720,10.892394,6.154398,10.254645
1006.640625,3.706629,12.678211,3.103515,7.246155
1006.644531,5.445463,5.623397,8.282442,-0.558910
1006.648438,6.400405,5.495377,1.220358,4.433436
1006.652344,-6.853082,-5.491495,-4.904498,-6.345803
1006.656250,0.083542,-9.661849,-4.626112,-10.779668
1006.660156,-7.569749,-8.728531,-15.269330,-12.651659
1006.664062,-5.799234,-15.486406,-4.758606,-9.377737
1006.667969,-8.447557,-13.743010,-9.568010,-4.935922
1006.671875,-13.962152,-10.029106,-13.318170,-7.506419
1006.675781,-9.721207,-11.263905,-4.904669,-4.780576
1006.679688,-0.497753,-10.863841,-5.349859,-2.800431
1006.683594,-5.995303,-4.696927,-8.051311,-14.395562
1006.687500,-3.739296,-8.661044,-3.591973,-8.480426
1006.691406,-4.743082,-6.087149,-6.701840,-5.304600
1006.695312,-2.218234,-2.818217,-4.528886,-9.337207
1006.699219,-3.072152,-3.936622,3.589613,-5.038074
1006.703125,0.701152,-0.327043,1.886139,1.960266
1006.707031,7.149855,5.523071,-3.973686,3.846141
1006.710938,12.133464,2.044589,12.277008,2.210527
1006.714844,12.905021,7.870693,7.986127,4.617454
1006.718750,7.463685,18.320198,4.757981,17.030982
1006.722656,11.417071,11.089412,6.173300,9.328276
1006.726562,15.334218,7.373777,15.286216,10.725860
1006.730469,11.521311,12.547071,16.440712,6.911154
1006.734375,9.753626,15.314065,3.908225,11.214819
1006.738281,6.143469,2.836435,2.252904,7.766089
1006.742188,0.403654,1.850588,5.199035,7.061065
1006.746094,0.360480,2.700113,5.150026,0.752806
1006.750000,-4.334554,0.300911,-5.387607,0.265938
1006.753906,-0.118790,2.185836,-1.620613,-5.085629
1006.757812,1.893018,-7.028684,-7.922369,-3.264219
1006.761719,-5.128240,-8.023209,-9.732120,-4.094593
1006.765625,-10.234279,-8.098186,-5.952100,-7.789560
1006.769531,-5.591383,-11.201560,-8.991146,-4.672727
1006.773438,-1.277879,-7.199315,-13.628663,-18.270162
1006.777344,-13.752463,-12.235269,-11.038226,-11.761649
1006.781250,-6.766623,-11.917778,-9.898327,-10.875081
1006.785156,-5.622089,-9.852872,-3.205830,-5.421294
1006.789062,-8.433350,-9.198270,-11.904151,-2.538963
1006.792969,-2.226464,-0.348576,-5.446751,-4.694869
1006.796875,-4.189243,-4.184165,1.437338,-2.544458
1006.800781,-8.627590,-1.802359,-2.757879,-3.774972
1006.804688,7.053296,5.627675,4.630086,8.632110
1006.808594,1.942619,2.155165,2.984636,-0.317227
1006.812500,9.580181,10.413450,5.406751,7.519150
1006.816406,6.738117,6.476843,8.232028,3.201229
1006.820312,10.054622,2.268497,7.255946,3.716288
1006.824219,8.373667,13.264833,10.977754,8.299912
1006.828125,6.726910,6.643013,9.979476,10.591846
1006.832031,4.739492,17.315552,11.964832,12.421591
1006.835938,12.893051,7.534785,8.002859,7.128336
1006.839844,6.320846,6.463588,7.556803,12.369656
1006.843750,0.332223,13.297338,11.129594,7.160056
1006.847656,2.622207,3.322805,-4.339104,0.669474
1006.851562,-3.915031,-1.320174,-3.348525,0.689174
1006.855469,-5.315208,-6.966052,-9.218012,-9.140077
1006.859375,-11.266228,-11.088058,-2.191062,-4.840272
1006.863281,-0.194348,0.935069,-6.262755,-0.589906
1006.867188,-7.423406,-8.760411,-8.756353,-8.471231
1006.871094,-10.383303,-11.457344,-10.142997,-6.391832
1006.875000,-1.965902,-13.458475,-15.920521,-7.130029
1006.878906,-11.864924,-5.129222,-11.406662,-11.961773
1006.882812,-3.336201,-10.729920,-1.183727,-7.741432
1006.886719,-0.058412,-7.781783,-10.608659,-3.358797
1006.890625,-0.271939,-0.583585,0.720212,-9.176511
1006.894531,-4.042261,-2.277851,-5.463964,-1.251143
1006.898438,-1.314878,2.217712,-1.908114,1.889504
1006.902344,1.762602,4.547452,4.464991,-0.321377
1006.906250,7.704331,-5.451546,4.864363,4.942422
1006.910156,8.467760,3.129257,2.731119,5.487403
1006.914062,4.777711,2.453208,4.205785,0.635643
1006.917969,7.842132,8.764762,4.403990,14.105701
1006.921875,8.787325,4.917203,6.532086,10.706929
1006.925781,7.560390,14.774175,4.748205,8.486420
1006.929688,4.178936,7.878047,16.791018,8.813737
1006.933594,9.994645,15.827346,5.562081,6.135139
1006.937500,4.728872,3.606799,9.809590,7.512143
1006.941406,17.379583,6.503097,-1.111140,4.842911
1006.945312,-3.056269,8.381405,11.198633,-1.052182
1006.949219,2.144647,1.783726,-0.995943,2.296237
1006.953125,1.485712,-3.005324,-1.717220,1.574460
1006.957031,-8.852503,-4.638310,0.673028,-3.612651
1006.960938,-8.509323,-7.502456,-5.929653,-5.803552
1006.964844,0.490370,-4.337248,-7.069212,-13.169377
1006.968750,-7.233718,-8.459125,-7.523807,-8.378546
1006.972656,-7.509170,-14.275079,-11.772824,-6.772234
1006.976562,-4.904748,-13.297694,-10.468779,-8.474373
1006.980469,-8.819263,-6.305626,-8.694628,-7.699729
1006.984375,-4.016886,-6.687729,-3.621603,-7.022216
1006.988281,-7.006088,-4.488287,-10.853688,-1.067674
1006.992188,0.604906,6.539408,0.496551,-5.564286
1006.996094,-3.163203,-0.878067,-5.508175,3.234560
1007.000000,2.448092,3.369742,-1.356180,0.878523
1007.003906,-2.049159,1.361023,3.343364,11.752920
1007.007812,9.147413,-3.317713,-8.396182,0.502833
1007.011719,6.928992,4.921276,6.827096,4.541544
1007.015625,5.523498,12.426375,12.441174,4.932178
1007.019531,5.227328,7.381421,12.094837,8.008216
1007.023438,6.955083,14.128775,15.372260,5.708407
1007.027344,9.555332,8.783477,7.765756,11.878704
1007.031250,9.189126,4.850972,7.800337,13.881731
1007.035156,11.398467,11.116199,3.154939,4.903227
1007.039062,13.629461,4.476748,4.775840,4.026060
1007.042969,1.964477,6.704608,1.604351,9.605599
1007.046875,1.599744,-0.374908,-3.692767,5.664759
1007.050781,1.685356,5.491000,-8.658922,-5.591438
1007.054688,-3.154302,0.615396,-6.080210,-0.085320
1007.058594,-4.310029,-11.652852,-6.391394,-3.845080
1007.062500,-2.288374,-10.895406,-6.397906,-1.071577
1007.066406,-8.084277,-9.999798,-6.699933,-15.340214
1007.070312,-6.522556,-8.020870,-8.563518,-9.607964
1007.074219,-13.802224,-15.290546,-7.330268,-10.219074
1007.078125,-8.945300,-7.580093,-8.279416,-15.147053
1007.082031,-5.099120,-6.523878,-11.836209,-8.661295
1007.085938,-9.340906,-10.842839,-7.202542,-12.519086
1007.089844,-6.802471,0.158326,-9.712847,2.104463
1007.093750,-10.835319,-1.468452,-0.982278,-2.668679
1007.097656,-1.999229,-2.260192,0.567684,1.491300
1007.101562,6.063958,-7.899627,-4.669018,3.143206
1007.105469,1.696235,0.322261,2.721151,2.625143
1007.109375,4.383734,5.810298,5.075028,11.832534
1007.113281,11.202038,8.794415,7.909827,10.258217
1007.117188,10.311978,6.498754,12.864046,15.262123
1007.121094,8.391060,6.417379,5.748672,7.212754
1007.125000,13.969942,13.332826,16.191542,12.803044
1007.128906,12.670887,7.224931,12.004958,8.080685
1007.132812,3.865084,8.751211,5.726814,5.726049
1007.136719,4.704755,8.865802,4.380685,13.661056
1007.140625,4.258880,6.559582,1.578905,-0.354971
1007.144531,0.977910,5.042574,1.241303,4.333446
1007.148438,1.524440,1.244374,-0.074509,-2.224342
1007.152344,-0.346797,-2.823409,-9.452991,-3.944325
1007.156250,-10.488725,-4.945916,-4.230483,-4.832751
1007.160156,-0.001847,-3.323491,-1.357929,-5.851310
1007.164062,-15.277721,-6.297888,-0.845876,-12.763689
1007.167969,-5.890107,-7.622754,-10.299570,-4.944127
1007.171875,-14.048394,-10.080811,-16.284536,-12.456938
1007.175781,-10.351161,-8.141441,-9.253833,-13.748759
1007.179688,-17.847356,-10.454964,-12.658132,-7.979951
1007.183594,-15.196826,-8.425730,-7.247317,-8.398694
1007.187500,-1.320824,-2.367843,-3.814365,-5.251655
1007.191406,0.038964,-8.977315,-8.112487,-13.083643
1007.195312,-0.920600,-2.359965,-5.920296,-10.583896
1007.199219,-0.125625,-5.554351,-1.004406,0.054170
1007.203125,-2.777471,-1.678505,6.348332,4.562612
1007.207031,0.738503,5.209561,6.659194,3.108834
1007.210938,7.223122,10.846763,7.003864,12.327208
1007.214844,9.419978,8.973735,14.474402,7.403657
1007.218750,6.148338,8.494883,6.534087,10.736634
1007.222656,10.312094,6.883696,12.597236,10.990096
1007.226562,9.348801,6.912496,2.627871,13.719734
1007.230469,2.703719,6.551883,3.255719,10.285024
1007.234375,8.407595,6.337557,4.449262,8.305033
1007.238281,5.074272,6.957172,13.295822,6.846359
1007.242188,2.375948,2.879875,7.748240,-8.292923
1007.246094,2.815157,6.063227,2.423770,-4.271313
1007.250000,2.722860,5.063255,0.122727,-1.074617
1007.253906,2.064508,-2.239919,-1.794439,0.949082
1007.257812,-8.090604,-6.462838,-6.323408,-0.400942
1007.261719,-6.221706,-4.160037,-5.295427,-8.277214
1007.265625,-12.221895,-7.706218,-13.020426,-11.136885
1007.269531,-9.741601,-4.745571,-4.894518,-9.675354
1007.273438,-13.763120,-5.349681,-2.926303,0.843187
1007.277344,-8.616038,-6.529829,1.194520,-13.178460
1007.281250,-7.885728,-3.113222,-10.549945,-10.654217
1007.285156,-3.161316,-8.703382,-4.448844,-14.017560
1007.289062,-8.303686,-6.881134,-7.414873,-3.585429
1007.292969,3.470561,-0.601157,-3.358218,2.442226
1007.296875,5.761125,-3.287372,0.554486,1.373374
1007.300781,2.207802,-1.113237,-1.258445,-3.256013
1007.304688,3.845836,6.330482,11.179597,5.545287
1007.308594,3.909695,0.876142,7.096383,3.699841
1007.312500,6.485105,6.337040,10.018223,-1.478039
1007.316406,-1.653978,14.713500,8.338963,10.757305
1007.320312,10.754388,15.543676,16.404703,8.187987
1007.324219,3.512090,15.455893,3.999973,16.508226
1007.328125,14.269304,6.083637,9.720439,8.615111
1007.332031,10.247759,5.774098,15.448078,13.001197
1007.335938,8.255779,6.235494,6.329811,-1.021567
1007.339844,4.908956,-3.067804,8.786675,-2.371441
1007.343750,3.981918,3.373009,9.230997,8.277376
1007.347656,2.241974,-3.314202,-2.447152,0.583285
1007.351562,-2.989705,-1.258511,5.230456,-2.401724
1007.355469,-4.711544,4.167375,-5.954608,-3.179775
1007.359375,-11.519898,-7.693370,-4.247487,-4.033100
1007.363281,-11.656345,-6.323484,-6.304769,-8.696777
1007.367188,-8.694162,-12.854004,-5.870704,-6.570153
1007.371094,0.628289,-14.945975,-10.325863,-11.592028
1007.375000,-3.718372,-6.941835,-9.007115,-12.652754
1007.378906,-11.868168,-8.905198,-0.032407,-12.367456
1007.382812,-8.244532,-7.139337,-6.746678,-7.466037
1007.386719,-6.542198,-5.510722,-1.721333,-7.615925
1007.390625,-6.532978,-6.746303,-11.459094,-7.590963
1007.394531,-5.219967,3.852340,-2.219909,-3.604654
1007.398438,-4.379156,-2.243121,-6.568751,2.211885
1007.402344,3.494869,-3.012210,-2.316575,1.243331
1007.406250,6.221889,5.215644,5.709377,-3.298588
1007.410156,5.961375,12.292262,2.286650,4.975127
1007.414062,5.869985,3.030620,1.406448,6.947013
1007.417969,9.767921,3.812384,5.642579,5.316830
1007.421875,2.644236,6.347205,18.740669,10.264643
1007.425781,5.733168,8.799118,11.132882,16.654493
1007.429688,8.405875,9.801209,5.582391,7.173620
1007.433594,4.103971,10.723615,6.589142,-1.267565
1007.437500,-0.083361,7.420441,7.110079,10.538046
1007.441406,0.767716,3.346733,4.066603,6.397444
1007.445312,4.182834,-1.610777,-2.635886,-5.559147
1007.449219,1.924692,-1.318797,1.417994,-7.089945
1007.453125,-5.528267,-6.338409,3.747722,1.966893
1007.457031,-12.342797,-0.646938,-4.808809,-11.750326
1007.460938,-4.382267,-4.555551,-7.165091,-8.517637
1007.464844,-6.929700,-10.056812,-1.276365,-8.972550
1007.468750,-10.818138,-12.455991,-13.232940,-12.868692
1007.472656,-9.648536,-11.281049,-10.559672,-9.283495
1007.476562,-8.130316,-19.174209,-4.228041,-15.467709
1007.480469,-4.791370,-8.000919,-10.708998,-8.013940
1007.484375,-7.586658,-5.230060,-3.462737,-5.569400
1007.488281,-5.783016,-8.088605,-6.492499,-5.266304
1007.492188,1.176669,-2.137489,-2.603701,-3.807467
1007.496094,4.243254,3.526293,-4.053205,2.345966
1007.500000,-6.662691,-4.048345,5.610034,2.759564
1007.503906,3.494151,1.583991,1.429982,5.761800
1007.507812,3.001785,2.840159,-2.537780,-1.004583
1007.511719,8.026557,6.952405,3.083920,4.633714
1007.515625,7.576663,13.310727,10.176612,15.792338
1007.519531,4.055607,3.130223,17.192957,17.722765
1007.523438,11.565587,10.751516,10.349511,5.679409
1007.527344,11.991571,7.197482,11.449716,13.968695
1007.531250,11.368232,7.927911,14.441202,9.136667
1007.535156,7.464441,5.020337,-0.954659,5.486937
1007.539062,2.164196,10.520238,2.643833,8.146518
1007.542969,4.846013,3.953841,-5.915886,7.229672
1007.546875,-2.099366,3.248110,3.116392,1.776739
1007.550781,-2.261033,0.385851,-1.478728,-3.004442
1007.554688,-0.940079,-3.167689,-0.679827,-7.547011
1007.558594,-3.519845,-0.593135,-4.963195,-2.936876
1007.562500,-9.656957,-7.843882,-12.219159,-9.233835
1007.566406,-5.230270,-13.568885,-3.897301,-7.494244
1007.570312,-4.346532,-6.820037,-2.977461,-7.224408
1007.574219,-8.241706,-19.690133,-8.563022,-6.766361
1007.578125,-11.519522,-10.866172,-17.661438,-6.890056
1007.582031,-9.276919,-7.402213,-10.391583,-5.271245
1007.585938,-4.294004,-14.638274,-9.857623,-11.299963
1007.589844,-4.270909,3.393337,-6.509873,-6.166474
1007.593750,-6.652646,0.375464,-5.853902,-5.732062
1007.597656,-6.302162,0.329315,-2.538883,-1.026268
1007.601562,5.127326,-4.862061,2.042591,2.487180
1007.605469,4.450801,10.418579,6.681024,-4.059336
1007.609375,5.722779,-1.769588,2.948552,6.608406
1007.613281,1.368362,10.628356,9.435586,9.063864
1007.617188,6.182203,5.109741,6.376317,1.239296
1007.621094,9.285027,10.556492,12.627831,12.523578
1007.625000,-1.180912,8.350560,9.074295,6.093658
1007.628906,5.956306,9.111663,16.255433,4.499102
1007.632812,5.034385,8.668865,-1.848663,13.109779
1007.636719,5.782422,7.108440,15.987164,6.129541
1007.640625,3.184471,-2.595130,4.807569,3.668758
1007.644531,6.857101,-0.475462,3.535469,-4.404132
1007.648438,-3.365574,5.992077,-0.404689,2.804648
1007.652344,-2.537290,-0.537232,-9.096556,-4.380993
1007.656250,-6.807336,-6.474690,-0.285816,-4.829947
1007.660156,-2.489159,-4.925065,-9.796675,-0.857701
1007.664062,-7.258947,-8.554466,-12.192376,-10.334059
1007.667969,-10.642130,-9.161845,-7.709916,-3.357958
1007.671875,-9.694035,-8.981224,-15.952373,-16.336260
1007.675781,-5.961219,-9.345216,2.352511,-11.387623
1007.679688,-11.043580,-14.694416,-9.430455,-14.099855
1007.683594,-6.812650,-7.741429,-10.561664,-7.436412
1007.687500,-7.951670,-0.664230,-10.730106,-5.924265
1007.691406,-5.302389,-0.189515,-8.784538,-6.523162
1007.695312,-1.363916,2.911781,-7.340079,1.688417
1007.699219,1.424351,-0.026929,-5.747789,-1.216196
1007.703125,-1.260149,-1.522819,-1.930202,-2.278130
1007.707031,15.216524,9.121968,5.838664,2.068038
1007.710938,5.335129,5.355577,5.597106,6.873628
1007.714844,15.192849,7.509240,7.893601,6.713321
1007.718750,-1.212384,6.281132,8.086878,4.851169
1007.722656,10.472948,14.577736,7.415392,8.677873
1007.726562,12.497697,12.739035,10.338356,9.267291
1007.730469,6.545643,9.092633,14.511910,3.486950
1007.734375,11.187052,11.022948,5.901976,9.856040
1007.738281,0.872336,5.685040,8.350214,11.288675
1007.742188,4.782161,3.661544,5.755709,-6.125737
1007.746094,6.117601,-3.140402,-1.547069,0.284444
1007.750000,-4.008979,4.113105,4.153331,-3.772059
1007.753906,-1.974381,-0.724660,-13.380589,-4.250011
1007.757812,-1.083203,-10.822052,-2.096244,-2.554961
1007.761719,-7.423101,-6.274924,-8.255517,-8.047585
1007.765625,-4.904716,-10.156541,-9.455339,-12.534278
1007.769531,-8.569954,-18.738468,-8.687815,-7.193406
1007.773438,-4.811768,-7.146683,-14.564699,-8.954133
1007.777344,-4.560218,-12.548650,-11.921257,-8.756074
1007.781250,-4.155422,2.600581,-6.794871,-6.274704
1007.785156,-9.728664,-2.507669,-12.168810,-3.849204
1007.789062,2.502993,-7.311661,-6.266300,-4.778473
1007.792969,-7.677413,-2.141335,-2.607193,-6.780659
1007.796875,-2.781503,-6.584463,6.448414,-0.077715
1007.800781,2.300671,7.548369,0.751054,2.829501
1007.804688,-0.973086,1.189783,3.757661,11.191170
1007.808594,6.458473,9.523680,2.925805,3.914056
1007.812500,6.832942,11.210745,6.322068,5.015103
1007.816406,5.846668,11.104240,6.564080,0.502473
1007.820312,9.164047,7.379241,6.081438,4.025765
1007.824219,15.283409,10.327059,7.795809,7.684667
1007.828125,7.349536,5.137434,7.156695,13.550408
1007.832031,9.836676,8.742003,13.399979,13.604498
1007.835938,6.249323,3.889595,9.927956,4.844012
1007.839844,12.638450,6.872744,6.657169,7.442064
1007.843750,3.764797,2.502804,2.533317,3.393308
1007.847656,-1.692847,5.772683,2.168890,-2.062983
1007.851562,5.820864,-2.049140,4.115890,-6.837282
1007.855469,-7.556913,3.755340,-4.729163,3.624726
1007.859375,-8.702185,-6.289237,-12.604025,-6.161845
1007.863281,-13.179081,-10.776568,-6.650788,-5.668116
1007.867188,-14.233125,-12.101147,-10.340102,-12.365765
1007.871094,-9.009019,-9.031205,-11.608403,-8.631153
1007.875000,-11.951186,-7.795799,-14.622246,-7.051090
1007.878906,-4.136524,-9.973932,-7.771435,-7.139494
1007.882812,-12.253688,-13.897495,-13.892987,-4.980842
1007.886719,-5.215318,-5.947882,-9.783059,-7.348697
1007.890625,-9.899568,-4.345107,-1.682532,-0.259546
1007.894531,-1.862916,-6.261270,-6.795535,-6.591368
1007.898438,-3.693289,0.677208,0.028825,-5.919492
1007.902344,4.159728,9.093104,3.793455,6.950880
1007.906250,5.972216,3.491084,1.227890,-4.119458
1007.910156,8.920324,5.203277,8.991117,3.964926
1007.914062,6.781513,7.004417,9.442153,7.996378
1007.917969,9.564739,10.805039,7.360845,8.147943
1007.921875,12.185816,16.734828,17.183774,10.695296
1007.925781,5.216935,14.129829,12.649587,5.680132
1007.929688,8.086610,10.419965,10.104742,8.020071
1007.933594,3.680680,5.127984,14.393114,7.525149
1007.937500,7.569145,1.706836,10.564860,1.649822
1007.941406,8.880556,5.283613,3.600164,3.497406
1007.945312,3.429413,2.265897,5.055370,-1.079895
1007.949219,-8.267869,-0.414189,1.603800,5.895876
1007.953125,-1.799617,2.915618,-3.725432,-0.742257
1007.957031,0.787254,-9.520581,-3.020379,-6.982756
1007.960938,-7.348672,-10.618165,2.829605,-10.154961
1007.964844,-10.240127,-13.925093,-0.648166,-3.644771
1007.968750,-14.291337,-5.955606,-9.700081,-9.928302
1007.972656,-4.064555,-13.314299,-2.723444,-13.809471
1007.976562,-14.267533,-9.348180,-6.915698,-11.303803
1007.980469,-13.514453,-10.118209,-16.179676,-9.075938
1007.984375,-12.682818,-7.709461,-7.497845,-12.944439
1007.988281,-2.419817,-6.098987,-9.580729,-14.149633
1007.992188,-6.307717,-2.200002,-2.595712,-2.305148
1007.996094,-9.917430,-6.111822,-0.565505,-9.045946
1008.000000,2.244356,-2.856450,-6.487996,5.701685
1008.003906,2.315737,0.816875,-0.430014,2.794741
1008.007812,10.208930,3.508531,8.975443,-1.797680
1008.011719,-0.372377,7.309333,9.670459,8.241236
1008.015625,8.367406,10.449246,16.282746,13.571084
1008.019531,4.994441,11.313048,9.725749,11.762465
1008.023438,6.473721,6.740053,15.377126,7.462352
1008.027344,9.191303,9.360130,8.102399,10.438881
1008.031250,10.840560,8.644105,6.466655,13.963234
1008.035156,7.587291,6.395781,7.951401,12.647258
1008.039062,1.464795,6.445907,3.529336,8.651567
1008.042969,-1.819057,11.224671,-1.663821,-1.715195
1008.046875,1.373323,3.466058,-3.066183,7.349509
1008.050781,-4.396097,1.155428,1.940317,-0.091437
1008.054688,-1.085960,-6.931249,-4.639526,-0.733051
1008.058594,3.352656,-3.391727,-7.289173,-2.360704
1008.062500,-3.762216,-6.751333,-2.831772,-2.971636
1008.066406,-12.006760,-10.296194,-8.045133,-11.801569
1008.070312,-15.256675,-8.747841,-7.510513,-14.124866
1008.074219,-10.803030,-4.210045,-13.298724,-8.368196
1008.078125,-10.692012,-16.181272,-14.233272,-7.313128
1008.082031,-10.627616,-11.076793,-7.504360,-14.521559
1008.085938,-7.457864,-6.501581,-2.276433,-7.046780
1008.089844,-10.896070,-3.476070,-7.082880,-8.272128
1008.093750,-2.703805,-0.305497,-0.759927,-2.205975
1008.097656,1.793420,0.227597,-3.476571,-0.209613
1008.101562,-0.031619,8.918071,-0.158687,7.513983
1008.105469,5.469212,0.954713,-1.955863,-1.295561
1008.109375,9.173192,4.503716,0.268929,8.783776
1008.113281,5.180174,13.498199,4.704409,5.581842
1008.117188,10.098514,1.581564,10.997303,13.267390
1008.121094,9.499970,5.237400,8.839603,13.011996
1008.125000,6.994088,11.020030,12.389565,7.318791
1008.128906,12.206355,11.100610,14.127932,13.294570
1008.132812,5.958719,3.831827,6.118240,13.951115
1008.136719,6.847952,7.707216,12.389924,14.279577
1008.140625,0.034947,10.561536,5.957618,5.415195
1008.144531,3.906991,9.484601,6.018294,9.268870
1008.148438,8.107346,-6.758915,-1.143239,12.639568
1008.152344,-2.874187,-0.584093,-2.675688,-0.162708
1008.156250,-4.180530,-5.185692,3.475434,0.673489
1008.160156,-7.888072,0.906331,-7.941350,-13.445951
1008.164062,-10.796369,-16.150610,-10.329289,-8.296575
1008.167969,-6.137789,-7.250865,-6.705890,-11.276630
1008.171875,-7.458570,-16.861042,-6.610954,-4.779023
1008.175781,-12.117238,-16.512929,-13.762554,-0.156591
1008.179688,-5.703770,-12.315150,-14.079731,-10.498568
1008.183594,-9.118965,-7.459653,-10.904993,-11.432334
1008.187500,-6.081043,-5.225848,-9.768716,-12.718379
1008.191406,-3.403718,-3.250367,-3.486424,-8.206054
1008.195312,-4.847379,-6.744393,1.279557,0.833578
1008.199219,-9.179037,-8.606158,-5.510436,0.629120
1008.203125,-0.111417,7.587217,3.637274,-1.727037
1008.207031,7.137429,3.120390,4.443924,12.667612
1008.210938,10.719389,6.818953,2.427680,9.145730
1008.214844,4.692595,11.738563,18.352393,12.194501
1008.218750,6.998763,10.170470,11.062603,7.140876
1008.222656,11.843081,6.115791,17.453580,13.426445
1008.226562,8.045202,8.844573,6.442647,4.544623
1008.230469,9.636415,11.643605,5.459695,12.436174
1008.234375,5.944115,5.968142,10.282656,14.823738
1008.238281,10.518521,6.072858,3.440106,11.426957
1008.242188,1.492639,13.323890,4.691923,3.837068
1008.246094,-2.613164,-1.232119,5.528139,-0.272604
1008.250000,0.805627,5.649976,-0.825349,-9.034880
1008.253906,2.473907,-7.608727,-2.139658,-9.778785
1008.257812,-7.399414,-1.042757,-13.691015,-3.387350
1008.261719,-9.698081,-0.373220,-15.285513,-12.275820
1008.265625,-10.391095,-11.158112,-13.999161,-5.869864
1008.269531,-4.198449,-10.074286,-9.740309,-2.445963
1008.273438,-9.172629,-12.418610,-4.258266,-4.731541
1008.277344,-13.263861,-8.704241,-10.141507,-11.449043
1008.281250,-11.948229,-5.216023,-3.671632,-7.865272
1008.285156,-5.370831,-7.947316,-8.611022,-8.867468
1008.289062,-7.996973,-4.624773,-6.433467,-8.559987
1008.292969,-0.420658,-6.088845,1.537258,-3.480187
1008.296875,3.666760,-8.585555,2.348217,-6.604028
1008.300781,-2.333216,1.092490,2.287249,1.930992
1008.304688,5.612730,3.026433,2.141270,-3.965570
1008.308594,8.212005,4.615914,3.352598,-3.515950
1008.312500,8.125801,5.376432,12.994630,6.885085
1008.316406,6.590947,17.926963,14.250274,12.492524
1008.320312,6.738367,7.889378,9.306209,12.287033
1008.324219,9.248504,10.205554,4.874765,9.177221
1008.328125,11.976059,7.762453,7.402879,8.992796
1008.332031,6.740861,10.173553,9.344689,8.894307
1008.335938,9.820292,8.823137,5.520768,4.575591
1008.339844,-0.316668,8.616977,-0.979309,7.344577
1008.343750,9.452286,8.192131,0.235188,7.007082
1008.347656,-0.592374,-4.065253,-4.621741,0.383510
1008.351562,0.423181,1.936290,-3.159684,0.071009
1008.355469,-3.337482,-7.885025,-0.559506,5.019314
1008.359375,-3.972995,-5.049770,-5.152961,-0.829391
1008.363281,-11.262274,-9.745047,-5.777251,-6.888778
1008.367188,-1.246264,-7.788611,-8.131359,-18.476758
1008.371094,-9.747780,-12.883348,-16.710413,-11.387566
1008.375000,-4.463606,-12.577941,-20.532834,-9.062366
1008.378906,-11.365283,-7.300340,-15.237247,-5.983528
1008.382812,-8.721830,-14.557991,-6.324048,-4.044528
1008.386719,-4.400179,-11.124985,-8.591938,-14.907890
1008.390625,-6.137866,-5.877607,-8.802654,-4.023779
1008.394531,-2.421118,-13.217398,-8.032771,-5.446321
1008.398438,-6.626544,-6.944945,2.249516,1.009743
1008.402344,5.030930,0.944510,-0.281309,-3.794335
1008.406250,5.977664,-1.970689,12.063159,-7.921606
1008.410156,3.308219,10.022433,7.103146,4.556404
1008.414062,11.440715,11.434565,-1.253547,9.842430
1008.417969,6.312406,7.469501,12.502949,13.216237
1008.421875,11.054906,3.437715,10.997113,7.362952
1008.425781,13.182883,8.440505,10.954804,11.136543
1008.429688,10.964583,6.636469,7.120865,10.591861
1008.433594,2.142774,9.002395,7.545612,10.993491
1008.437500,1.719338,7.266262,2.742200,2.604816
1008.441406,7.072968,8.870740,4.686787,5.697630
1008.445312,6.961171,12.594085,2.468400,7.234361
1008.449219,1.762784,-1.076160,-1.913331,4.117625
1008.453125,-3.608638,-2.200740,2.092780,-3.310270
1008.457031,-1.850982,-6.021518,-7.958886,-3.815740
1008.460938,-11.976834,-5.897139,-8.381524,-5.529461
1008.464844,-6.374639,-14.911063,-4.143861,-11.073352
1008.468750,-3.025478,-19.477291,-9.708392,-15.461075
1008.472656,-15.844522,-15.034813,-14.400130,-17.409369
1008.476562,-15.253697,-14.936341,-12.484659,-7.744497
1008.480469,-5.537446,-5.195179,-9.448611,-5.263824
1008.484375,-7.051136,-8.541309,-7.476713,-5.915355
1008.488281,-4.593187,-11.239426,-6.220482,-6.614476
1008.492188,-6.590984,-3.619643,-7.522020,-1.565311
1008.496094,-3.966088,-2.088552,0.593995,1.947191
1008.500000,6.404076,-2.739002,-5.882485,-5.815693
1008.503906,-0.702613,0.172981,6.276003,8.687083
1008.507812,4.837158,6.541043,-3.763902,0.841787
1008.511719,12.033431,9.400354,0.623220,8.338334
1008.515625,6.821087,15.506679,11.127270,8.387013
1008.519531,11.019374,3.425732,5.935226,5.831289
1008.523438,11.556730,4.984606,9.091831,8.822433
1008.527344,11.634818,13.872713,10.079704,16.156435
1008.531250,6.112689,9.563708,8.151760,10.253040
1008.535156,11.649129,5.493748,10.234935,8.231597
1008.539062,-1.220283,12.942279,14.127387,6.584900
1008.542969,5.117541,2.567207,10.369474,4.031882
1008.546875,1.345317,1.917430,0.135420,4.658686
1008.550781,-10.124264,-2.962177,-6.421752,-3.159619
1008.554688,-4.106410,-3.265065,-3.162572,-18.138038
1008.558594,-5.343924,-7.044983,-4.567741,1.011956
1008.562500,-6.681281,-5.946517,-5.019960,-5.346754
1008.566406,-11.618379,-13.262487,-10.390110,-5.480455
1008.570312,-7.604846,-4.143765,-12.594532,-10.052984
1008.574219,-5.367039,-4.274040,-8.617006,-4.638072
1008.578125,-11.791456,-6.872741,-13.129425,-13.142963
1008.582031,-9.037495,-6.824052,-15.064452,-10.647667
1008.585938,-11.954878,1.885608,-10.470507,-14.629271
1008.589844,-6.094913,-2.037308,-8.571890,-1.669273
1008.593750,-1.896229,-5.008974,5.232943,-11.653736
1008.597656,3.760537,-9.541296,-2.359637,-1.889759
1008.601562,-3.621659,2.862537,0.622499,-0.005487
1008.605469,10.716925,8.799343,0.688898,5.784152
1008.609375,2.251792,2.331034,0.304003,4.468593
1008.613281,14.145252,11.928105,8.277001,6.617560
1008.617188,10.741796,12.023190,9.210228,12.498186
1008.621094,8.030127,7.998012,12.345631,8.927431
1008.625000,8.767511,9.325476,15.347878,17.003429
1008.628906,11.401609,8.700536,14.137348,10.219174
1008.632812,3.553479,10.175873,-1.203641,5.981352
1008.636719,7.299886,-2.250272,6.375663,12.665540
1008.640625,2.702452,-1.018736,8.908889,7.539527
1008.644531,7.795705,5.984027,11.543774,-0.582281
1008.648438,-7.060806,-5.965951,0.148864,5.829245
1008.652344,-3.068753,6.068262,3.446568,1.117177
1008.656250,-6.362305,-2.589029,-1.765720,-4.084194
1008.660156,-13.188458,-6.151280,-2.187188,-7.151041
1008.664062,-9.248753,-16.526347,-6.788153,-8.783383
1008.667969,-14.982759,-8.779568,-6.589718,-11.204150
1008.671875,-10.334516,-11.757778,-9.503774,-14.754517
1008.675781,-4.971254,-14.288050,-10.255967,-9.186487
1008.679688,-10.044511,-13.348874,-9.856697,-7.729341
1008.683594,-6.366809,-4.709225,-6.831851,-8.210338
1008.687500,-12.259259,-9.967971,-5.645425,-5.033447
1008.691406,-4.363695,-3.797125,-9.505802,-1.149667
1008.695312,-1.377673,-2.591701,-0.099783,-6.082962
1008.699219,-4.238960,9.172973,5.876568,3.998078
1008.703125,-0.944917,5.988985,8.093898,-4.248211
1008.707031,4.489679,8.318569,4.023771,-0.749064
1008.710938,1.020284,2.734381,15.805155,8.445770
1008.714844,4.787380,9.249830,6.739639,9.512933
1008.718750,12.206684,16.364498,15.605654,7.254525
1008.722656,4.747186,13.208768,-3.109774,8.141196
1008.726562,15.167516,10.714276,10.603133,10.518761
1008.730469,4.283795,11.011757,10.112630,2.302005
1008.734375,3.451398,10.629423,17.827247,5.766977
1008.738281,9.828491,6.327738,5.469387,9.036734
1008.742188,13.819282,8.748073,9.537709,0.973795
1008.746094,-5.253381,4.900909,0.309377,3.697134
1008.750000,0.944926,-1.365226,4.598554,-2.167178
1008.753906,-2.315013,-5.795502,-3.083893,-7.130459
1008.757812,0.189149,-8.841842,-8.825052,1.199922
1008.761719,-12.337484,3.616097,-9.399516,-12.781989
1008.765625,-9.180571,-8.321719,-3.599723,-8.873856
1008.769531,-7.187510,-2.379749,-8.179537,-2.422821
1008.773438,-6.914399,-16.316882,-7.868688,-9.060468
1008.777344,-8.066005,-4.395412,-13.895321,-3.863199
1008.781250,-4.006099,-12.000953,-8.036716,-13.360925
1008.785156,-10.368834,-8.915290,-11.018517,-3.608844
1008.789062,-9.698717,2.664327,-15.262849,-0.014091
1008.792969,2.921793,-5.004251,-8.563877,-6.594511
1008.796875,-1.349463,-3.883201,-1.296297,1.810410
1008.800781,-5.570770,-0.181499,0.916002,0.614050
1008.804688,0.124457,0.958105,7.269441,4.453244
1008.808594,6.759819,7.387256,2.166705,6.912988
1008.812500,3.239850,5.338460,6.933893,5.897914
1008.816406,11.163041,4.805233,11.931251,10.729114
1008.820312,19.951986,20.338078,14.156594,11.990216
1008.824219,8.936303,8.169061,8.683086,14.487978
1008.828125,12.315946,10.261696,4.796351,11.432770
1008.832031,5.554583,10.885719,12.012864,11.755226
1008.835938,11.522746,8.933450,7.426175,3.275745
1008.839844,11.748527,9.807166,8.236607,11.003946
1008.843750,3.866533,5.797839,3.007616,4.942759
1008.847656,11.643111,0.609308,5.105797,1.051400
1008.851562,-4.062284,1.220054,-5.049948,-8.361944
1008.855469,-7.259068,-0.223435,-6.733430,0.336937
1008.859375,-3.155647,-8.999999,-4.350140,-5.728105
1008.863281,-3.497290,-14.506147,-1.006748,-6.091642
1008.867188,-9.932642,-9.929983,-7.082016,-13.781560
1008.871094,-11.865269,-5.169176,-15.596999,-5.930479
1008.875000,-4.816244,-6.773918,-10.157448,-11.148076
1008.878906,-8.332202,-9.330451,-12.115626,-11.979885
1008.882812,-8.392349,-4.182691,-1.640203,-11.588779
1008.886719,-3.776344,-7.582854,-12.235359,3.369273
1008.890625,-11.221501,-7.111920,-9.571834,0.949146
1008.894531,-2.053735,-4.885812,-2.221171,-4.837016
1008.898438,-3.688530,3.507983,-4.605173,0.636309
1008.902344,2.544734,-3.313924,-2.247012,2.847771
1008.906250,0.919682,-2.213526,-0.069645,5.078435
1008.910156,12.243882,6.788379,8.527656,7.624197
1008.914062,7.768714,3.731504,9.710779,9.799504
1008.917969,5.770721,1.982722,6.470788,15.913145
1008.921875,7.922536,8.972509,13.555154,8.987845
1008.925781,10.377857,5.642965,10.066298,14.505103
1008.929688,10.231973,13.334805,5.495980,10.679573
1008.933594,11.099090,10.734039,14.069750,6.763938
1008.937500,14.491379,1.960497,14.405272,-2.129980
1008.941406,7.033066,-0.247833,3.291520,-1.955276
1008.945312,6.896089,-3.275119,-1.984600,1.123046
1008.949219,-0.861028,1.921386,0.901996,-2.584317
1008.953125,-0.006615,-3.348620,4.260204,-6.808651
1008.957031,2.720035,-6.614418,-11.611401,-4.544112
1008.960938,-10.610313,-0.756068,-8.385527,-8.951772
1008.964844,-8.973446,-5.141128,-12.969347,-2.679664
1008.968750,-16.267651,-13.091626,-10.908927,-9.244314
1008.972656,-18.244300,-6.105276,-10.047240,-9.801640
1008.976562,1.071415,-7.534130,-8.542996,-3.663300
1008.980469,-1.419237,-17.054591,-4.109518,-15.564433
1008.984375,-8.846716,-7.132509,-10.571500,-17.714086
1008.988281,-6.118839,-6.598839,-7.366040,-16.907122
1008.992188,-6.807706,-1.482355,-12.207168,-6.618520
1008.996094,-0.014033,0.776842,0.973164,-0.922223
1009.000000,-3.493525,-0.650619,3.219082,-2.019174
1009.003906,7.399117,3.920112,-3.036944,2.131595
1009.007812,10.234814,5.198412,2.274522,9.942220
1009.011719,3.558088,11.961934,8.414701,-4.354674
1009.015625,7.065977,2.522742,3.177501,11.947244
1009.019531,3.328921,10.389365,5.138626,13.493809
1009.023438,9.608892,16.193516,16.505721,11.543074
1009.027344,7.215777,12.409730,7.157996,18.222453
1009.031250,10.138795,9.788924,14.806366,6.606878
1009.035156,3.592235,7.923854,-0.266175,10.929354
1009.039062,10.354137,10.949671,4.341233,8.171451
1009.042969,7.435266,7.535420,8.250185,-0.381223
1009.046875,10.068230,0.194622,3.904847,1.631694
1009.050781,0.370830,-5.429287,3.181276,8.429766
1009.054688,-5.123915,-10.518390,-2.324952,-7.411098
1009.058594,-9.493167,-2.360791,-7.321558,-6.787992
1009.062500,-13.672031,-12.974036,-4.059757,-3.633049
1009.066406,-11.288270,-4.668319,-12.054458,-10.805190
1009.070312,-10.487597,-15.764679,-8.865159,-11.342869
1009.074219,-10.314858,-5.786856,-5.349326,-5.029097
1009.078125,-9.842733,-13.278101,-8.934202,-12.398376
1009.082031,-4.228192,-10.948436,-13.607986,-11.175291
1009.085938,-12.431603,-6.310452,-3.123864,-10.047404
1009.089844,-3.609671,-4.902358,-8.883527,-8.478623
1009.093750,3.309518,-7.625550,-7.771886,-4.739181
1009.097656,0.882324,-2.168613,-5.420601,-6.432902
1009.101562,-1.930862,4.132786,-2.235351,-4.382672
1009.105469,9.109374,-3.764478,8.304777,3.797555
1009.109375,2.688881,2.433019,10.056403,0.834440
1009.113281,10.162509,5.035719,9.378675,9.495289
1009.117188,7.844942,13.087374,2.629375,10.831813
1009.121094,17.436537,7.909126,11.872806,9.097957
1009.125000,11.634518,8.426039,11.767206,12.775124
1009.128906,19.046383,15.405820,4.233535,12.047843
1009.132812,8.626209,7.686690,7.680129,10.935871
1009.136719,10.036320,8.875273,4.603172,5.540883
1009.140625,3.482365,2.685548,5.275157,1.609567
1009.144531,2.334884,-2.977595,3.336217,4.191769
1009.148438,4.197715,-1.730827,7.064153,3.407789
1009.152344,-0.048123,-0.312829,3.717732,1.812260
1009.156250,-4.265249,0.966464,1.552467,-3.242911
1009.160156,-2.949595,2.608204,-9.835681,-10.825009
1009.164062,-6.889409,-9.954377,-7.346150,-5.045278
1009.167969,-7.060506,-12.136450,-13.198943,-7.610327
1009.171875,-7.329316,-10.361297,-8.434655,-7.063905
1009.175781,-8.688041,-7.598457,-19.801350,-12.019848
1009.179688,-7.938420,-16.269480,-15.699931,-3.930643
1009.183594,-10.324337,-6.548041,-14.259482,-6.754365
1009.187500,-4.422115,-4.668194,-3.455921,-1.204338
