timestamp,TP9,AF7,AF8,TP10
1000.000000,2.724137,4.614724,-8.863757,-2.296570
1000.003906,7.046593,3.479393,-0.997870,2.794557
1000.007812,3.694395,1.352371,9.135913,-0.680859
1000.011719,0.000796,0.439908,4.681286,2.552197
1000.015625,11.085111,4.511814,14.071221,9.862372
1000.019531,8.939515,12.093448,9.052653,10.837515
1000.023438,9.275378,7.349982,4.335602,16.489195
1000.027344,6.830215,6.324991,11.285380,6.706171
1000.031250,15.238891,14.923728,6.562332,1.178302
1000.035156,3.259503,11.109777,6.520550,2.660459
1000.039062,2.138157,10.384308,6.293048,3.137781
1000.042969,-1.562231,3.503182,8.213372,3.410133
1000.046875,-0.668767,-3.699520,4.620921,2.570175
1000.050781,-5.514869,4.148455,0.420578,-0.828590
1000.054688,-4.569990,-9.290055,-10.665633,-4.246722
1000.058594,-4.620256,-6.352578,-0.953144,-5.135515
1000.062500,-6.124208,-6.020106,-12.428913,-6.770417
1000.066406,-5.740216,-7.045121,-13.857368,-9.390772
1000.070312,-2.395829,-5.164963,-9.546853,-5.545173
1000.074219,-11.179030,-3.921924,-9.816822,-13.958563
1000.078125,-11.674971,-1.293733,-6.665184,-11.625494
1000.082031,-7.544567,-13.862530,-11.223967,-10.220652
1000.085938,-9.285459,-13.892144,-10.409338,-9.820346
1000.089844,-10.561692,-7.178451,-6.368415,-0.754744
1000.093750,2.263964,-6.581905,-3.010083,-1.741667
1000.097656,-5.389859,4.988959,-1.683228,-1.461462
1000.101562,-2.915639,-1.142774,3.085961,-3.150928
1000.105469,7.952924,2.710317,0.984487,0.682942
1000.109375,5.887548,5.993865,8.913217,5.531327
1000.113281,10.884334,2.749710,7.124143,9.387906
1000.117188,6.011351,8.073454,15.220839,5.611499
1000.121094,20.732970,10.600660,11.047315,8.791152
1000.125000,14.992237,5.463593,18.734894,6.807859
1000.128906,16.177266,14.082956,9.856311,21.498377
1000.132812,3.252806,16.897437,9.582426,3.430388
1000.136719,9.058640,9.403770,6.519977,11.826354
1000.140625,14.655625,3.205338,3.155560,9.110003
1000.144531,-0.569182,1.505243,7.647580,7.605242
1000.148438,2.076537,0.061402,4.094897,-1.700911
1000.152344,-5.674672,0.090473,-5.793211,-9.836725
1000.156250,-4.773063,1.081962,4.815060,-9.562226
1000.160156,-8.068203,-3.372576,-0.457694,-15.627947
1000.164062,-10.167116,-3.012399,-9.284174,-6.834635
1000.167969,-5.987353,-14.462903,-10.363268,-6.968798
1000.171875,-14.668108,-6.436672,-10.266816,-5.789918
1000.175781,-16.016907,-5.923741,-14.970288,-3.674297
1000.179688,-7.403310,-10.855999,-7.052059,-15.601585
1000.183594,-4.190279,-12.078741,-10.638790,-16.990091
1000.187500,-13.923935,-8.702548,-7.671082,-8.496854
1000.191406,-5.754953,-3.164597,-8.762060,-8.780170
1000.195312,-4.277106,5.240791,-9.106399,-2.022396
1000.199219,3.352015,0.836155,-2.458047,6.233961
1000.203125,-2.266627,-7.123502,5.223902,-0.039036
1000.207031,9.423327,4.548050,8.085882,1.004392
1000.210938,4.798179,8.114333,0.951266,3.359024
1000.214844,5.945619,4.275351,2.447481,4.934282
1000.218750,7.225686,6.843531,7.794475,9.062925
1000.222656,8.598291,7.655255,5.645192,7.719854
1000.226562,10.723987,-0.106641,6.003100,14.925989
1000.230469,10.319712,7.359442,11.467034,14.342571
1000.234375,10.434979,6.795951,7.257760,5.363457
1000.238281,6.946589,5.651842,9.707164,4.613478
1000.242188,2.941183,2.709912,2.647263,3.101345
1000.246094,-4.781012,0.546077,0.268362,4.961535
1000.250000,-0.753545,-3.808030,6.758838,2.397450
1000.253906,-2.515254,-1.575829,0.050431,-5.384273
1000.257812,-2.998068,-4.101135,-6.287563,-0.253059
1000.261719,-2.230112,-6.525529,-4.279103,-9.093026
1000.265625,-3.099719,-4.048451,-8.204319,-15.844234
1000.269531,-4.259014,-7.794996,-7.320930,-16.148257
1000.273438,-8.039572,-8.532667,-6.900563,-6.152875
1000.277344,-4.401232,-2.390186,-14.974094,-9.734701
1000.281250,-10.274122,-8.708348,-12.116440,-10.653067
1000.285156,-7.104711,-10.282186,-9.145199,-8.883895
1000.289062,-11.024923,-4.149502,-7.310491,-4.120622
1000.292969,-5.370990,-0.610778,-0.651203,-4.431457
1000.296875,-4.478279,-1.929109,1.009391,0.539376
1000.300781,-2.430483,-12.722802,3.910228,-6.987153
1000.304688,-0.503222,10.206189,3.948083,1.034671
1000.308594,3.908096,9.497141,14.545698,2.601586
1000.312500,6.330986,0.406619,-0.438186,2.923241
1000.316406,5.005032,11.872355,9.715800,11.298238
1000.320312,11.815775,6.317886,8.766246,5.917618
1000.324219,4.287900,8.967689,9.775465,6.654421
1000.328125,7.043679,15.137960,7.775908,8.183807
1000.332031,9.609393,7.236123,12.332473,12.106129
1000.335938,5.324407,5.694658,8.603829,4.201277
1000.339844,7.114744,10.673212,3.613061,4.550800
1000.343750,6.736140,-1.408546,-3.090444,3.401422
1000.347656,4.700474,-2.565634,-0.841429,1.747432
1000.351562,-0.337549,1.737807,-1.909574,0.459137
1000.355469,3.675140,-7.245408,-8.145583,2.360488
1000.359375,-7.843754,-8.037011,0.366189,-9.255516
1000.363281,-11.945197,-7.315183,-6.055179,-9.746260
1000.367188,-9.593082,-2.501168,-8.903342,-5.061205
1000.371094,-8.273925,-12.159592,-9.177841,-12.086694
1000.375000,-6.935629,-16.043064,-10.707803,-10.745255
1000.378906,-7.835475,-20.666727,-9.815120,-8.985258
1000.382812,-5.814349,-10.032273,-13.362930,-12.315294
1000.386719,-9.203668,-10.063875,-11.397832,-6.650839
1000.390625,-1.603799,-12.641331,-6.692548,-7.328368
1000.394531,1.173292,-8.149454,-1.210283,-6.746825
1000.398438,1.155030,-0.753343,1.412124,-7.005859
1000.402344,3.330455,1.437940,3.675900,0.623989
1000.406250,4.085909,-0.507614,0.544246,7.408905
1000.410156,8.830631,7.992549,4.842781,7.259820
1000.414062,3.475148,3.969279,4.087912,12.663685
1000.417969,9.967975,7.490538,9.463254,9.883079
1000.421875,14.232824,11.275067,7.159402,9.712934
1000.425781,8.460123,12.763362,13.045885,10.829157
1000.429688,13.306134,1.449101,11.973543,7.337662
1000.433594,6.890814,9.065512,9.416843,7.945126
1000.437500,12.392974,2.541733,6.090451,4.701161
1000.441406,8.120325,7.662101,9.089789,1.776750
1000.445312,3.733734,4.651361,0.340070,4.061840
1000.449219,6.247588,3.162943,3.024635,1.597064
1000.453125,-4.065868,-8.662141,-2.059114,-1.616667
1000.457031,-6.452504,-3.542650,-1.551959,-2.153296
1000.460938,-0.090246,-0.232661,-10.651136,-7.622354
1000.464844,-5.533887,-2.819322,-4.261279,-7.081336
1000.468750,-11.454243,-9.414294,-8.241249,-17.520347
1000.472656,-4.369202,-12.521309,-13.921311,-7.243392
1000.476562,-15.671696,-4.532324,-10.290510,-8.465174
1000.480469,-16.246933,-7.304039,0.790839,-5.778513
1000.484375,-5.418030,-8.989787,-10.352994,-11.115100
1000.488281,-8.493076,-6.286031,-14.009975,-9.516492
1000.492188,-7.995476,-5.276641,-4.638911,-2.541724
1000.496094,4.887994,0.442712,-5.530481,-3.195233
1000.500000,-6.474555,-2.367607,7.515317,1.044771
1000.503906,5.005577,4.405849,2.144257,3.128141
1000.507812,4.643120,2.638509,9.927243,0.358515
1000.511719,6.356247,11.856176,10.061666,7.703842
1000.515625,8.040526,6.507651,3.140371,9.661306
1000.519531,10.587007,12.454801,8.723122,18.650074
1000.523438,15.097679,12.828145,4.378178,13.833912
1000.527344,11.387565,11.831645,15.551751,9.772810
1000.531250,7.701167,6.951740,6.539500,8.693989
1000.535156,8.855888,8.836871,3.655401,11.959283
1000.539062,-0.013531,5.777812,8.881685,3.979260
1000.542969,3.628786,8.312690,-1.324315,12.612999
1000.546875,3.023472,-0.383743,-1.110721,10.740481
1000.550781,2.843512,-5.204137,-2.212997,-9.682728
1000.554688,5.567551,-3.642109,-0.502427,-7.414575
1000.558594,-10.132082,-5.856860,-8.983872,-6.620614
1000.562500,-9.621132,0.745020,-6.976492,-5.344167
1000.566406,-6.675705,-19.728379,-11.712769,-5.392527
1000.570312,-19.003268,-6.617160,-11.090969,-6.431472
1000.574219,-11.790578,-6.792727,-7.003132,-6.833522
1000.578125,-10.116714,-9.464248,-4.940956,-4.998214
1000.582031,-17.323523,-7.338379,-14.702719,-6.401373
1000.585938,-3.428094,-10.433080,-12.814991,-5.611575
1000.589844,-9.605757,-2.959602,2.288950,-7.169358
1000.593750,-2.173775,-2.046600,-0.565772,-0.578403
1000.597656,-2.774703,-1.012066,-4.829118,-0.142272
1000.601562,3.410679,6.499106,3.292023,6.744345
1000.605469,1.247545,2.957275,15.463556,1.776896
1000.609375,16.783935,3.366639,5.572049,8.423081
1000.613281,8.829748,-0.270181,3.342948,4.705675
1000.617188,4.853700,6.469925,14.838995,4.958642
1000.621094,7.269664,10.544825,8.925557,7.943023
1000.625000,15.789689,10.497466,15.525757,10.820968
1000.628906,9.816995,14.993306,10.515455,3.916399
1000.632812,11.042054,6.052190,11.552941,11.835878
1000.636719,12.608403,11.601050,7.602254,8.738656
1000.640625,7.202537,13.969443,7.841202,-6.331882
1000.644531,3.089650,2.441050,-1.074060,-1.382084
1000.648438,-2.051169,5.707698,-3.322178,5.095164
1000.652344,-7.227290,-2.981604,0.667005,-0.804378
1000.656250,-7.684246,-1.490479,-6.245622,-6.292753
1000.660156,-12.939511,-4.959256,3.671457,-11.548421
1000.664062,-8.172998,-10.358681,-5.443683,-10.393628
1000.667969,-8.664091,-6.726995,-8.074964,-10.650490
1000.671875,-14.250693,-12.048069,-2.352113,-6.579739
1000.675781,-7.989360,-6.424236,-13.736889,-3.413781
1000.679688,-13.186368,-13.410757,-4.804031,-7.795727
1000.683594,-7.847365,-16.170543,-5.016349,-8.207280
1000.687500,-9.839599,-11.181734,-8.487322,-10.041655
1000.691406,-4.863792,-8.270061,-2.690507,-1.150603
1000.695312,-3.615571,-0.652490,3.631552,-2.508601
1000.699219,-2.664106,-3.210772,-1.356916,0.881411
1000.703125,5.489138,-4.230897,0.051209,2.948355
1000.707031,4.311229,7.767660,4.995486,3.786105
1000.710938,5.474041,9.190595,6.344463,5.847333
1000.714844,7.708004,10.128484,-2.186095,2.835650
1000.718750,8.497467,11.570528,7.362882,3.085109
1000.722656,13.470732,5.780434,12.909532,7.687926
1000.726562,11.922167,9.118445,16.232292,9.811612
1000.730469,5.369512,4.114630,11.382759,11.155567
1000.734375,7.796738,10.900073,5.316354,4.861996
1000.738281,5.946222,10.874974,1.731175,7.644460
1000.742188,0.775045,5.322128,15.054920,4.747493
1000.746094,0.770062,8.614771,5.366547,-2.892458
1000.750000,-10.657428,-3.220588,4.214636,0.119352
1000.753906,-0.713761,-4.070414,-0.595781,-0.318875
1000.757812,-2.547450,2.169779,-5.292605,1.180825
1000.761719,-9.417287,-3.919808,-8.064477,-7.715824
1000.765625,-6.444080,-8.258525,-10.474581,-7.230781
1000.769531,-2.659406,-7.755317,-16.128128,-7.223067
1000.773438,-1.257896,-5.760784,-12.747858,-3.017245
1000.777344,-8.717773,-9.256291,-12.776477,-11.443643
1000.781250,-8.717151,-5.277655,-7.833949,-10.059837
1000.785156,-8.611130,-16.948245,-5.107219,-8.924188
1000.789062,1.120340,2.779808,-9.869251,2.350288
1000.792969,0.160943,-2.669409,-4.113708,-6.132704
1000.796875,-8.562122,3.706344,-5.779586,-6.056575
1000.800781,-3.205308,7.594827,5.419346,2.709054
1000.804688,2.789176,0.463217,7.322803,6.168760
1000.808594,11.237012,4.654014,5.698522,4.020473
1000.812500,11.304558,18.603231,4.279877,4.843944
1000.816406,14.649028,4.563494,6.924123,1.075958
1000.820312,4.205258,13.289910,9.483909,10.163661
1000.824219,5.246077,-1.638445,6.364240,2.075223
1000.828125,8.841834,5.238686,10.533481,11.599907
1000.832031,10.197341,7.399132,9.736056,10.500842
1000.835938,12.445106,9.518149,5.526646,14.567858
1000.839844,14.584206,10.635759,-0.921108,0.182323
1000.843750,7.482362,4.410699,9.189694,4.809180
1000.847656,1.364270,1.493771,5.436338,3.896593
1000.851562,0.335312,-6.267198,-9.342286,-9.463680
1000.855469,-2.055721,-4.405091,-8.559522,1.708332
1000.859375,-9.667388,-3.680104,-3.273737,-6.326335
1000.863281,-16.273204,-6.556858,-14.071638,-1.259120
1000.867188,-0.327126,-7.370673,-12.782907,-7.269932
1000.871094,-7.874827,-8.250384,-8.782906,-4.381838
1000.875000,-6.809426,-10.403014,-15.122995,-11.304728
1000.878906,-4.243791,-11.562969,-11.943181,-5.395829
1000.882812,-4.323504,-10.896884,-8.297146,-11.233087
1000.886719,-8.445637,-8.766912,-6.334759,-7.548316
1000.890625,-1.547625,-18.921815,-13.027318,-3.975014
1000.894531,-3.055925,-2.614435,-0.104058,0.660338
1000.898438,-0.455802,-2.128244,-10.440794,5.340136
1000.902344,4.951101,-1.290929,4.592670,4.954990
1000.906250,10.165859,2.408632,6.669062,8.298588
1000.910156,16.426054,3.509708,2.590415,1.769868
1000.914062,14.154304,15.759130,-0.105565,6.715828
1000.917969,14.421473,6.362089,16.449256,12.418754
1000.921875,5.227927,8.699119,8.673626,4.818443
1000.925781,6.891658,9.657458,7.909377,11.876820
1000.929688,2.567154,15.928626,8.976609,11.480248
1000.933594,8.882651,16.559850,14.308907,5.313749
1000.937500,7.616159,3.408414,9.096345,3.696278
1000.941406,7.959121,2.455501,2.353116,10.422179
1000.945312,0.469567,6.740280,9.008943,5.992112
1000.949219,1.052480,-2.941037,-4.578392,3.152268
1000.953125,-6.614158,-8.254766,5.168589,0.013947
1000.957031,-6.203591,0.579401,-9.243114,0.517895
1000.960938,-12.698724,-2.422065,2.428146,-10.473367
1000.964844,-9.567564,-6.590579,-2.665284,-6.650821
1000.968750,-9.818372,-8.712582,1.983250,-9.727371
1000.972656,-10.575754,-4.354209,-15.796766,-11.299537
1000.976562,-11.197115,-10.814318,-10.039815,-13.014647
1000.980469,-7.212029,-10.626594,-7.786524,-11.634464
1000.984375,-13.577218,-3.156591,-8.895672,-2.342294
1000.988281,-5.606762,-3.746667,-10.979999,-13.958308
1000.992188,-6.200112,-2.982713,-5.843980,-5.876941
1000.996094,-12.689068,-2.445568,-1.522325,-5.769251
1001.000000,-4.682692,-8.078934,6.591074,-1.386165
1001.003906,-4.742465,-0.819346,-0.504558,-4.789139
1001.007812,6.779221,7.202098,4.792001,8.280356
1001.011719,9.611982,10.441447,-1.205114,8.848865
1001.015625,10.343812,16.346800,10.592454,10.946143
1001.019531,4.625008,1.173319,8.827012,9.190994
1001.023438,9.325562,5.406268,11.837458,6.899108
1001.027344,13.388758,11.692451,11.855768,9.209002
1001.031250,6.482022,9.898289,15.832894,5.179162
1001.035156,-0.399131,11.363493,12.563738,-1.075702
1001.039062,6.304664,1.947597,7.487067,10.330394
1001.042969,1.937651,7.213998,3.032533,8.192051
1001.046875,5.312479,-1.042126,-3.520549,7.126179
1001.050781,-2.883842,-1.511169,2.314138,2.001478
1001.054688,-1.715321,-4.101459,-1.827582,1.581788
1001.058594,-12.678398,-10.011131,-6.770579,5.226577
1001.062500,-3.508911,-6.807601,-8.323139,-8.566775
1001.066406,-9.657410,-13.021278,-12.919311,-13.660978
1001.070312,-5.337166,-14.738699,-15.611417,-1.292183
1001.074219,-15.734999,-5.363074,-15.892317,-8.699001
1001.078125,-4.904814,-10.330293,-7.628628,-1.160839
1001.082031,-7.342519,-6.305751,-6.371432,-16.903786
1001.085938,-5.437341,-11.638089,-11.291304,-5.326888
1001.089844,-2.534702,-8.969384,-7.129193,-5.613362
1001.093750,-6.876831,-3.487641,-1.275677,-1.107387
1001.097656,-2.487430,0.225109,-1.760746,-5.658976
1001.101562,1.641693,5.052254,-1.026014,4.795915
1001.105469,-0.420602,-2.381634,7.982906,4.362141
1001.109375,-1.708856,2.510562,6.209775,3.348852
1001.113281,7.832904,8.580848,6.058761,7.527127
1001.117188,13.081649,11.585584,14.278646,17.974281
1001.121094,14.276793,14.469834,8.883588,11.812532
1001.125000,5.854550,15.859813,13.970405,11.423400
1001.128906,16.971950,4.091204,12.573187,6.291347
1001.132812,12.293050,9.626754,15.032458,5.306045
1001.136719,1.887050,12.113912,10.955827,8.173203
1001.140625,1.439806,10.988129,9.163493,0.064976
1001.144531,9.855788,6.476384,5.645560,0.497565
1001.148438,1.329677,-0.878143,3.190890,2.441734
1001.152344,-1.383133,0.306360,-3.776564,-3.414014
1001.156250,-6.151646,-8.656611,-12.775648,-6.355202
1001.160156,-8.081090,-9.714309,-6.457824,-5.239825
1001.164062,-7.963519,-5.032506,4.769589,-6.041105
1001.167969,-11.801726,-3.959211,-17.808812,-6.262619
1001.171875,-13.770428,-6.568632,-10.429218,-8.633040
1001.175781,-9.244152,-16.620949,-5.308182,-8.223188
1001.179688,-8.563315,-13.470975,-9.657852,-21.478375
1001.183594,-9.989212,-11.372720,-13.675031,0.360248
1001.187500,-7.553983,-11.516960,-6.829602,-1.592705
1001.191406,-5.106907,-3.608948,-5.679602,-10.249479
1001.195312,-0.222548,-0.222319,-12.041011,-3.449391
1001.199219,-1.470496,-0.960891,4.994265,3.465105
1001.203125,5.041771,-1.662033,0.986772,-0.199696
1001.207031,0.775372,-1.827787,0.631398,9.144562
1001.210938,9.463291,3.244239,9.005680,7.016764
1001.214844,10.310817,0.358096,5.979012,9.256714
1001.218750,4.159399,12.526981,14.577677,12.493857
1001.222656,1.809130,8.788705,13.286435,12.007759
1001.226562,6.348504,12.876348,7.866946,6.909281
1001.230469,13.741281,5.176970,7.749192,6.534933
1001.234375,15.251750,9.480709,14.217702,12.345205
1001.238281,12.779064,4.040358,4.287473,9.274121
1001.242188,5.868440,4.803059,1.348333,4.100784
1001.246094,2.510974,-1.555957,0.631456,0.013297
1001.250000,1.786440,-7.203785,5.312435,-0.409984
1001.253906,-3.903808,-3.813636,-0.812318,-8.251230
1001.257812,-2.089476,-4.652898,-8.423598,-8.646690
1001.261719,-4.751920,-11.911673,-3.461942,-8.972212
1001.265625,-6.321797,-5.545266,-4.860338,-4.050847
1001.269531,-9.224726,-3.324422,-8.496185,-10.403257
1001.273438,-7.528089,-19.871200,-12.331392,-10.352602
1001.277344,-5.588564,-9.473764,-4.416626,-7.164708
1001.281250,-7.558820,-8.518337,-8.085000,-10.342650
1001.285156,-12.871822,-6.766899,-2.643607,-13.125626
1001.289062,-9.155894,-5.125559,-18.346382,-1.241143
1001.292969,-7.866986,-1.086459,-4.476118,-6.078983
1001.296875,0.642195,-4.344240,-7.800945,-4.532208
1001.300781,3.131484,0.142785,6.042954,-9.868660
1001.304688,4.949614,4.562321,2.633164,-1.689365
1001.308594,7.506473,2.656465,7.031526,5.530596
1001.312500,8.597789,5.950572,12.418275,9.243185
1001.316406,16.637040,8.373442,12.911046,7.248551
1001.320312,10.486200,14.382563,13.420189,17.539482
1001.324219,2.601532,9.859824,4.796847,6.029692
1001.328125,6.951618,18.580833,9.343174,14.280827
1001.332031,9.642534,12.886293,11.242811,12.392217
1001.335938,3.918767,5.163575,9.822630,7.281083
1001.339844,7.706479,10.278809,17.573093,7.150841
1001.343750,6.397831,5.295360,-0.728910,-3.232020
1001.347656,4.942183,4.289974,2.400700,4.174206
1001.351562,-0.857745,-0.857935,-4.055552,2.148574
1001.355469,-4.338485,-1.253063,-3.793129,-0.925971
1001.359375,2.922713,-4.515080,-10.408116,8.987326
1001.363281,-10.364337,-7.912887,-8.503210,-8.127992
1001.367188,-8.443242,-13.937635,-11.032713,-11.079203
1001.371094,-14.653370,-8.437423,-12.956333,-10.170866
1001.375000,-12.429053,-9.061435,-5.736192,-6.062096
1001.378906,-18.753870,-5.118075,-5.507107,-13.541844
1001.382812,-9.715036,-12.889117,-5.980604,-8.286221
1001.386719,-4.568096,-17.355970,-9.529521,-13.342380
1001.390625,-5.091946,-12.013382,-4.795523,-3.431527
1001.394531,-5.891047,-10.620620,-10.084302,-2.455504
1001.398438,1.118423,-4.391034,-2.817800,-5.094134
1001.402344,2.749293,5.268321,3.569224,4.047676
1001.406250,-0.326903,7.339032,-0.102396,4.648097
1001.410156,9.035233,4.226132,7.916086,17.175564
1001.414062,11.180045,6.288614,10.614949,8.373238
1001.417969,6.582870,15.449884,2.306620,11.144038
1001.421875,7.513826,9.151684,13.041015,13.205677
1001.425781,10.363304,7.692241,5.969782,13.612891
1001.429688,9.508641,9.468647,7.909779,-0.991760
1001.433594,8.784133,12.068526,3.403269,7.965706
1001.437500,9.073650,7.371719,7.177297,8.142010
1001.441406,7.136239,6.069943,-2.174684,13.137834
1001.445312,5.727213,10.737844,-0.081061,4.210032
1001.449219,-1.483863,7.075342,0.179502,-3.707459
1001.453125,-0.900936,-3.390566,-0.122347,-2.022772
1001.457031,-2.906205,-9.172388,-5.421957,-11.394211
1001.460938,-4.567417,-5.593778,-7.193833,-5.854112
1001.464844,-11.878457,-5.463123,-7.463484,-9.397808
1001.468750,-6.878667,-9.428190,-9.828658,-7.256684
1001.472656,-8.627037,-14.217111,-9.885943,-9.759770
1001.476562,-5.616918,-14.728186,-13.134678,-8.175538
1001.480469,-9.855192,-14.507037,-12.072981,-12.200848
1001.484375,-5.820936,-13.158436,-3.621352,-5.879408
1001.488281,-0.064398,-13.482800,-2.242562,2.635582
1001.492188,-5.360828,-12.646380,-0.933972,1.117877
1001.496094,-14.196183,-1.767759,-5.340677,-3.861833
1001.500000,0.654540,-4.834014,-6.618935,0.381203
1001.503906,-1.068363,3.262721,5.889107,-3.483321
1001.507812,10.564552,-2.011576,8.250252,3.622096
1001.511719,5.151166,4.912585,7.157520,14.071254
1001.515625,0.829401,9.653497,12.796437,8.249100
1001.519531,7.001372,9.697491,9.743293,12.994296
1001.523438,13.278808,8.565422,14.551986,9.193456
1001.527344,11.322326,9.730550,6.323934,9.917580
1001.531250,9.777998,6.335012,6.733053,6.340387
1001.535156,-0.596131,14.518835,4.704924,2.645027
1001.539062,14.564058,0.414104,3.893246,6.872747
1001.542969,8.237947,3.693428,4.582867,5.957050
1001.546875,2.301811,1.468781,6.794097,1.276306
1001.550781,-4.595144,2.499177,1.594620,2.993851
1001.554688,-1.279779,-11.571568,-0.545784,-8.084130
1001.558594,-1.344298,-11.224673,-13.144279,-9.127327
1001.562500,-12.735654,-6.494563,-8.782164,-8.694074
1001.566406,-16.678821,-18.214337,-5.256452,-9.208973
1001.570312,-8.764226,-7.757423,-13.917296,-12.481019
1001.574219,-13.452483,-6.013970,-12.653485,-13.898038
1001.578125,-9.311057,-11.458438,-4.963824,-14.710750
1001.582031,-5.761406,-11.322708,-9.086536,-14.753069
1001.585938,-3.642107,-14.103086,-11.866693,-3.238793
1001.589844,-5.852989,-4.403814,-8.040713,-6.606617
1001.593750,-6.913450,-2.100387,-0.588263,-8.813213
1001.597656,-0.340092,-4.688249,-3.660881,-10.198846
1001.601562,-3.408663,2.016301,-4.572950,2.816303
1001.605469,-0.399297,7.197779,2.502840,6.059213
1001.609375,12.781881,2.401780,8.970693,11.857510
1001.613281,5.891132,7.391535,3.296021,7.268015
1001.617188,10.393696,6.897723,1.718715,5.246049
1001.621094,13.752710,10.715037,10.806733,6.905824
1001.625000,7.648562,13.211267,11.717006,4.429722
1001.628906,11.129819,3.953712,3.312519,6.353908
1001.632812,13.330027,9.554161,7.701707,13.456593
1001.636719,7.373061,12.155905,7.394111,11.046073
1001.640625,8.748423,6.934137,-0.075518,8.267047
1001.644531,4.555072,-7.707102,-2.859299,3.078070
1001.648438,-0.458491,1.586968,-4.996956,2.162213
1001.652344,6.587931,-3.356287,-1.177125,-4.565232
1001.656250,-3.656632,-7.464806,-8.352824,-0.343832
1001.660156,-4.719240,-2.165555,-9.920686,-12.418761
1001.664062,-1.013643,-9.813385,-1.918640,-7.811586
1001.667969,-5.466251,-7.316124,-1.537609,-15.005677
1001.671875,-5.906683,-7.431642,-2.139136,-11.897345
1001.675781,-9.619839,-9.581351,-17.102349,-10.242249
1001.679688,-8.574343,-5.816509,-9.114801,-16.774455
1001.683594,-6.328918,-7.529845,-9.868813,-4.766254
1001.687500,-4.828066,-7.542950,0.443921,-12.229961
1001.691406,-6.043244,-1.411642,-1.834320,0.841506
1001.695312,-1.513358,-6.918677,-0.632108,-0.712827
1001.699219,1.390079,4.555683,-5.602331,-0.594332
1001.703125,8.273121,0.409071,-1.519752,3.445128
1001.707031,3.439608,0.008935,3.043149,5.276659
1001.710938,6.216462,6.287112,9.926395,6.797301
1001.714844,3.354610,6.546225,7.179241,3.300915
1001.718750,9.511643,4.709549,7.673395,14.407972
1001.722656,16.387174,12.777056,13.877105,7.920134
1001.726562,10.153826,12.619010,9.301240,19.460902
1001.730469,7.441369,7.934677,6.871708,6.536038
1001.734375,11.292876,2.684753,14.856457,14.905109
1001.738281,1.904043,9.642765,6.253455,-1.119694
1001.742188,6.676427,7.778694,4.390318,3.711612
1001.746094,7.542884,1.604813,1.150038,-2.513383
1001.750000,-5.021158,-6.292060,3.490958,2.795777
1001.753906,7.766493,-5.445357,-7.214654,-7.602668
1001.757812,-1.193630,-7.680259,-2.253033,-2.557505
1001.761719,-7.227858,-4.579180,-3.161779,-0.681089
1001.765625,-9.133445,-4.094022,-4.434676,-8.520830
1001.769531,-13.763244,-7.019488,-10.404934,-9.901795
1001.773438,-16.037689,-1.740507,-8.591350,-13.296091
1001.777344,-7.031497,-2.947749,-9.507158,-12.022886
1001.781250,-14.599790,-8.280416,-10.364679,-13.738689
1001.785156,-12.877557,-16.679436,-7.630871,-8.385956
1001.789062,-3.800441,-7.743381,-4.717588,-2.217165
1001.792969,-2.025420,-10.060808,-6.125129,-3.412209
1001.796875,-1.037435,-4.529405,-2.603704,-3.155330
1001.800781,6.016470,-4.657556,3.280593,4.838165
1001.804688,6.198575,4.467321,1.971961,7.317924
1001.808594,2.814519,5.611965,6.135418,-0.011198
1001.812500,10.567784,5.734782,10.606147,2.687479
1001.816406,15.812942,8.005532,12.603054,17.474046
1001.820312,6.582302,9.779886,13.430475,5.874462
1001.824219,7.414172,6.937622,14.385302,13.782310
1001.828125,8.961398,9.846396,3.008914,11.951315
1001.832031,7.277197,11.745382,9.149364,6.909573
1001.835938,11.084557,11.470646,5.909170,10.115130
1001.839844,1.144780,3.125865,3.838441,4.186489
1001.843750,2.982126,5.368215,3.022032,3.283290
1001.847656,-3.916209,-1.372397,-2.388004,4.970243
1001.851562,1.388624,3.626093,-4.387476,-4.864409
1001.855469,-4.648307,-1.951140,-0.817762,-6.491186
1001.859375,-5.559660,0.052733,-10.896575,-8.986072
1001.863281,-10.498196,-3.481295,-2.836615,-2.980083
1001.867188,-10.950318,-3.046989,-7.962899,-7.697759
1001.871094,-12.054478,-11.444697,-14.024989,-9.176626
1001.875000,-8.514959,-11.695325,-10.258149,-6.742560
1001.878906,-12.939435,-13.807589,-7.956746,-5.750856
1001.882812,-9.296112,-9.932009,-6.060015,-13.669956
1001.886719,-5.169670,-6.407541,-12.305486,-10.404472
1001.890625,-4.269221,-3.708562,-4.592295,-10.966520
1001.894531,-1.260749,-6.848235,-9.302650,2.065544
1001.898438,6.487528,-8.638806,1.168495,6.225747
1001.902344,0.761394,4.541322,0.877428,0.829878
1001.906250,0.050682,-4.425694,-2.844167,0.272181
1001.910156,14.252159,3.877808,2.282569,8.539792
1001.914062,2.451852,2.271734,4.075265,8.306608
1001.917969,7.693950,3.295134,8.501790,2.567420
1001.921875,9.510907,8.583830,8.905143,1.765889
1001.925781,7.028695,16.650040,9.802736,12.109551
1001.929688,15.207781,15.345714,5.584400,4.601056
1001.933594,8.122450,10.082033,1.042831,7.960297
1001.937500,1.197226,5.538407,7.746666,7.626193
1001.941406,2.337838,9.069309,3.608791,7.341565
1001.945312,2.984244,6.284824,5.415162,4.464569
1001.949219,-4.078199,4.340813,7.405955,-5.045192
1001.953125,2.747456,1.117971,-2.150681,-6.421995
1001.957031,-13.155747,0.695861,-9.369701,-2.778295
1001.960938,-10.469539,-7.460597,-1.718936,-4.501702
1001.964844,-12.924875,-12.672281,-7.180357,-0.726650
1001.968750,-5.161395,-13.431310,-7.679251,-5.702958
1001.972656,-14.754416,-10.143555,-16.014611,-11.668963
1001.976562,-9.582135,-10.055757,-14.236079,-11.143048
1001.980469,-10.128502,-2.817458,-7.037900,-9.125826
1001.984375,-7.201881,-7.333317,-1.869204,-12.925649
1001.988281,-9.716454,-9.928564,-12.104809,-10.956684
1001.992188,-0.526408,-1.383086,-3.416351,1.997146
1001.996094,-4.910977,-1.039551,-1.590879,-7.358634
1002.000000,-0.824312,-6.047279,-0.375310,-1.878503
1002.003906,1.895342,5.832637,-0.142908,7.407810
1002.007812,-7.304946,0.993305,1.909450,10.561392
1002.011719,5.188892,7.271208,9.923751,13.910004
1002.015625,10.620386,10.595169,11.808083,3.219915
1002.019531,13.815326,4.902578,17.655364,15.732436
1002.023438,8.149122,2.926538,9.525783,7.845556
1002.027344,10.577939,5.682274,9.234978,11.797227
1002.031250,13.408539,13.802921,4.278297,11.151104
1002.035156,3.931703,5.848538,8.138081,3.565557
1002.039062,7.667552,4.722616,1.531527,-0.646718
1002.042969,0.798244,5.557347,7.521615,1.406706
1002.046875,0.326217,-1.199511,4.046735,-2.177923
1002.050781,-2.533271,-8.836944,-7.324804,7.417819
1002.054688,-5.192561,-8.594953,-6.798334,0.999556
1002.058594,-7.044827,-5.198410,-0.656939,-5.911828
1002.062500,-7.834661,-13.762658,-7.071419,-1.351587
1002.066406,-11.367161,-9.787128,-12.826338,-6.824314
1002.070312,-13.015786,-10.877389,-12.815492,-10.512705
1002.074219,-15.023810,-11.623288,-10.363135,-6.988247
1002.078125,-9.020877,-14.050952,-8.566713,-17.943644
1002.082031,-9.985849,-6.049999,-5.959288,-12.018199
1002.085938,-6.492469,-7.897710,1.178966,-3.458836
1002.089844,-0.860809,-7.403064,-4.319303,-6.809833
1002.093750,-2.477561,2.307835,-1.319938,-9.414348
1002.097656,-4.385982,3.558285,-1.475868,-1.197977
1002.101562,-5.790915,6.225387,-0.230435,-1.538448
1002.105469,1.102982,2.650582,-0.084227,4.363454
1002.109375,7.323456,7.421133,5.139435,7.372846
1002.113281,1.044935,4.906879,7.813088,3.642697
1002.117188,13.856024,9.909886,11.443851,11.434593
1002.121094,3.632089,7.541454,4.183443,11.202572
1002.125000,9.411812,7.077470,7.765711,5.358671
1002.128906,10.088727,14.631381,3.869051,13.624482
1002.132812,12.433669,10.025855,8.428404,12.756973
1002.136719,2.090341,9.690879,3.784426,6.274504
1002.140625,8.722643,10.217308,4.717284,7.523260
1002.144531,7.857542,4.971015,4.730264,7.539130
1002.148438,-3.635657,-0.013580,0.379721,2.107955
1002.152344,-4.762786,-6.933262,-3.661946,0.430732
1002.156250,-1.310056,-8.081517,-2.782241,-11.053508
1002.160156,-13.887481,-9.071828,2.222540,-1.565047
1002.164062,-4.729481,-5.863253,-5.882571,-2.529558
1002.167969,-10.796164,-1.934004,-8.958630,-3.612180
1002.171875,-11.914462,-10.584988,-16.161011,-10.327221
1002.175781,-14.228955,-12.256649,-9.047856,-3.762445
1002.179688,-7.115329,0.615247,-12.664569,-11.425434
1002.183594,-5.546382,-5.986570,-1.705199,-4.114242
1002.187500,-8.488197,-8.468380,-3.463446,-4.148010
1002.191406,-4.296494,-0.825487,2.266881,-7.522802
1002.195312,-10.861376,-1.525108,2.305235,-6.773795
1002.199219,2.174410,0.488146,-8.826646,3.049911
1002.203125,-2.082977,7.583062,-6.264677,5.051129
1002.207031,4.104159,-3.624235,0.981526,5.692302
1002.210938,7.259218,7.379926,9.887540,4.462683
1002.214844,6.429680,11.716268,6.779986,6.247162
1002.218750,4.395287,5.081014,7.929422,12.661998
1002.222656,13.747451,7.170067,13.078556,13.889330
1002.226562,2.030578,15.043912,7.299212,7.794920
1002.230469,18.130535,5.153122,5.827391,6.291797
1002.234375,9.935927,7.992080,19.010841,11.487541
1002.238281,10.961885,9.505064,5.758476,3.430578
1002.242188,3.006770,-0.233385,7.893155,7.503011
1002.246094,4.746565,2.325395,5.176399,1.064335
1002.250000,-2.972026,1.777833,2.902537,4.794937
1002.253906,-6.870594,-9.875688,-4.254426,4.849985
1002.257812,-6.221484,-7.259039,-11.572523,-14.979549
1002.261719,-10.841163,-15.264646,-3.019796,-8.342510
1002.265625,-12.771381,-4.798516,-6.522981,-11.118690
1002.269531,-9.717963,-12.411100,-11.119172,-7.247076
1002.273438,-6.077205,-9.149891,-9.761211,-19.642244
1002.277344,-17.323818,-13.375170,-10.288360,-12.807350
1002.281250,-10.011758,-8.803939,-8.826429,-7.692022
1002.285156,-17.207203,-3.764951,-6.701071,-11.732022
1002.289062,-9.991196,-6.899238,-6.739347,-4.797582
1002.292969,0.191030,-3.256642,-0.500000,-0.830170
1002.296875,7.720478,-5.547312,-2.928215,-0.007569
1002.300781,-2.962367,10.047409,-2.844389,1.962703
1002.304688,-4.229325,5.825226,9.080830,-0.998638
1002.308594,7.609910,7.097182,3.914240,4.569911
1002.312500,13.262358,5.645749,10.285091,11.972900
1002.316406,8.790606,2.743528,17.371857,3.948616
1002.320312,13.907314,14.101351,11.288465,7.529990
1002.324219,12.419090,11.376452,13.381080,16.043405
1002.328125,7.552823,13.076826,7.372564,8.060232
1002.332031,8.152933,5.236535,5.611808,10.618883
1002.335938,2.945796,7.844224,9.690969,2.539218
1002.339844,3.916232,6.512304,7.815507,7.564027
1002.343750,5.259385,-3.249267,2.517582,-0.762702
1002.347656,3.658960,7.410650,7.208845,-1.207692
1002.351562,-5.245755,-1.628380,1.155232,1.059620
1002.355469,-4.031201,-8.759103,-2.231056,-5.179861
1002.359375,-4.192707,1.091726,-2.115553,-6.111123
1002.363281,-5.021196,-13.300549,-0.670945,-4.481402
1002.367188,-15.917939,-7.372835,-8.449894,-10.671557
1002.371094,-11.737331,-4.834052,-8.924415,-11.808467
1002.375000,-2.163059,-6.363624,-12.198632,-7.409065
1002.378906,-13.182864,-11.208407,-9.243590,-11.655974
1002.382812,-4.468582,-10.635831,-6.983919,-12.523536
1002.386719,4.808350,-8.444523,-13.163667,-11.397528
1002.390625,-10.649699,-0.588686,2.955208,-6.339192
1002.394531,-7.196974,-1.098631,-8.092558,-4.865307
1002.398438,-5.043706,-1.501385,4.117513,-1.881362
1002.402344,0.971407,4.849138,-3.252130,9.877046
1002.406250,4.538038,6.952168,9.448552,2.666176
1002.410156,6.013078,9.196898,-1.088104,7.345894
1002.414062,8.867428,16.560607,6.824894,2.031803
1002.417969,16.703105,7.052745,3.452311,9.713118
1002.421875,12.746709,2.991463,9.713881,11.247605
1002.425781,9.910477,15.233895,9.548797,11.224136
1002.429688,12.004849,10.790687,11.146931,14.814681
1002.433594,4.678478,10.182547,7.383297,11.511366
1002.437500,9.066276,7.721477,4.539582,2.717021
1002.441406,1.175798,9.386950,0.599515,6.416025
1002.445312,7.877272,-0.886177,5.228784,0.773256
1002.449219,12.481000,6.270475,2.261608,3.315240
1002.453125,-2.531417,2.764819,-7.019464,-3.778626
1002.457031,0.495125,-10.667563,-2.676263,-1.341466
1002.460938,-10.714238,-5.556987,-4.616935,-9.542477
1002.464844,-7.004560,-8.256537,-12.692124,-5.935590
1002.468750,-10.163443,1.058515,-10.977109,-8.439785
1002.472656,-10.198138,-12.424071,-16.484492,-11.077784
1002.476562,-3.946643,-11.679029,-10.767119,-5.065359
1002.480469,-6.257770,-7.523620,-1.537494,-17.575004
1002.484375,-13.013010,-2.704426,-10.024654,-9.193168
1002.488281,-8.535735,1.002956,-8.108900,-9.820718
1002.492188,-7.318582,-6.981642,-1.483318,-3.746447
1002.496094,0.310277,-3.262029,-11.945385,-0.135680
1002.500000,-2.405373,5.201456,-0.025801,-5.144733
1002.503906,-7.502679,-0.705582,4.551038,-1.964308
1002.507812,3.175706,7.009207,9.474297,8.292505
1002.511719,5.100344,4.792751,6.699794,8.765015
1002.515625,9.617356,10.408230,9.476524,10.022040
1002.519531,14.441630,9.940481,5.664671,14.291589
1002.523438,10.839632,7.959382,8.949870,8.630738
1002.527344,1.000832,8.758770,6.644235,11.306233
1002.531250,6.897654,7.648835,12.368653,15.798209
1002.535156,9.209336,5.513995,13.322866,1.582729
1002.539062,10.327620,-0.098271,10.148547,4.447740
1002.542969,-0.949792,-0.778457,2.748690,3.306556
1002.546875,5.043596,-1.708215,0.330450,-1.560519
1002.550781,-3.055660,-0.844561,3.848641,-0.086791
1002.554688,2.015695,-5.854684,-2.439615,-5.785462
1002.558594,-1.435518,-4.930959,-4.353619,-10.848917
1002.562500,-5.492492,-12.813158,-10.294704,-3.599440
1002.566406,-10.636763,-13.256827,-10.934800,-6.384132
1002.570312,-9.132916,-12.486938,-11.325038,-2.960273
1002.574219,-13.937104,-3.117900,-6.755073,-7.485332
1002.578125,-8.290088,-9.513780,-9.348944,-3.753975
1002.582031,-9.953007,-8.355449,-6.147386,-8.448549
1002.585938,-5.198375,-9.385347,-3.109931,-7.126520
1002.589844,-3.981169,-4.412635,-3.085439,-12.577100
1002.593750,-5.377942,-0.789370,-2.193052,0.995239
1002.597656,-1.476616,2.615661,2.187718,-1.518947
1002.601562,-0.625333,6.980651,2.877837,-5.525835
1002.605469,9.357604,-3.335941,8.739926,1.388813
1002.609375,2.946665,9.666610,7.110060,10.566204
1002.613281,4.767261,18.409020,5.471779,2.200572
1002.617188,13.306316,5.425159,4.388832,-1.476381
1002.621094,8.587183,7.806027,8.584233,8.401456
1002.625000,11.007154,9.252773,13.274142,5.031090
1002.628906,13.980061,9.425494,5.789018,6.895309
1002.632812,8.648525,4.023015,2.856875,8.649273
1002.636719,6.950887,7.625465,14.326586,10.537231
1002.640625,2.622375,9.838073,5.401389,11.348591
1002.644531,-1.583841,9.330089,4.456966,-6.607494
1002.648438,-4.680375,6.712216,-1.038168,7.170553
1002.652344,-1.014686,0.354587,0.929870,-6.338043
1002.656250,-9.484787,-6.968522,-4.735972,-4.975484
1002.660156,-2.569772,-5.802244,-2.827103,-11.588767
1002.664062,-6.930654,-2.794245,-11.279927,-5.700860
1002.667969,-13.211601,-8.631539,-9.885432,-11.647460
1002.671875,-15.507760,-1.366174,-8.865247,-7.068977
1002.675781,-7.194561,-7.514641,-7.601943,-18.940002
1002.679688,-11.273341,-10.297794,-4.039071,-12.055745
1002.683594,-12.326070,-9.196472,-5.329138,-11.221718
1002.687500,-6.223321,-10.538740,-7.061040,-10.039176
1002.691406,-10.356656,-1.637289,-8.970071,1.796001
1002.695312,-6.038733,-8.517391,-8.163980,-2.534232
1002.699219,-0.196822,1.320632,-2.129426,3.142894
1002.703125,3.660429,0.159068,5.153573,-0.391288
1002.707031,12.429286,5.730299,-1.988567,4.200473
1002.710938,-1.078093,9.125850,4.444092,9.960387
1002.714844,7.363007,9.123835,8.211720,7.573533
1002.718750,0.803865,8.550283,6.187279,10.627306
1002.722656,10.841338,12.174957,10.065461,12.802535
1002.726562,6.187895,13.801152,7.771405,3.512641
1002.730469,13.494372,11.864787,13.025197,12.737255
1002.734375,6.153465,4.736577,2.585291,10.302437
1002.738281,2.691391,10.696252,13.088831,3.171505
1002.742188,15.369087,5.409641,2.675798,4.787414
1002.746094,0.726107,1.815537,4.486296,2.855104
1002.750000,-0.102592,2.141094,0.962318,-2.286411
1002.753906,-5.724176,0.333029,0.733963,-3.162106
1002.757812,-2.639695,-6.290284,3.087462,0.103258
1002.761719,-2.160924,-7.694486,-1.433078,-9.916053
1002.765625,-4.569526,-4.315016,-5.475291,-8.095101
1002.769531,-9.399705,-1.941302,-13.104804,-11.948753
1002.773438,-8.556178,-8.577037,-12.647460,-10.097494
1002.777344,-5.174367,-5.585486,-8.114860,-3.613213
1002.781250,-8.387812,-7.120566,-4.396725,-9.155272
1002.785156,-3.718388,-2.005981,-6.946870,-5.954444
1002.789062,-2.774634,-13.629122,-2.926362,-6.106777
1002.792969,-0.142084,-5.102459,-0.844540,0.319969
1002.796875,-8.660405,2.034764,-17.534406,0.515403
1002.800781,-8.726118,-5.711668,-4.257968,-1.863826
1002.804688,2.834779,0.468435,-2.521050,3.522939
1002.808594,2.354130,2.843747,5.711780,-0.671219
1002.812500,2.819628,8.744373,6.234089,9.358244
1002.816406,1.302114,3.304517,5.830786,3.874073
1002.820312,7.374786,6.274228,4.611126,7.114406
1002.824219,5.979470,5.953867,6.816425,4.541005
1002.828125,0.972968,11.463156,6.842589,13.662390
1002.832031,9.636092,4.623073,14.424231,8.955162
1002.835938,8.199861,9.448314,4.518762,2.568734
1002.839844,5.038844,12.055674,6.693775,0.708152
1002.843750,3.931790,5.839476,0.139283,4.005791
1002.847656,6.373976,0.570414,-1.229067,-0.149619
1002.851562,0.192543,-2.676050,5.189772,-0.700926
1002.855469,-7.954311,-0.819580,-8.544011,-0.867859
1002.859375,-5.624122,-9.186375,-2.660874,-11.219896
1002.863281,-11.903480,-5.525712,-13.595236,-8.246444
1002.867188,-10.235098,-14.674942,-15.630464,-14.220049
1002.871094,-12.583679,-15.141264,-12.889638,-0.085951
1002.875000,-14.110017,-8.060382,-5.141618,-13.788687
1002.878906,-14.926896,-8.198960,-8.162116,-15.210443
1002.882812,-12.595885,-6.826018,-6.347026,-4.582829
1002.886719,-3.974248,-2.938856,-8.139493,-7.563670
1002.890625,-5.158144,-8.141282,0.324530,-7.309413
1002.894531,-5.959373,-7.056647,2.108065,-2.146102
1002.898438,1.246044,2.903762,-1.474951,2.733696
1002.902344,2.420347,5.483542,10.598754,-2.282137
1002.906250,4.485829,0.617674,-3.289712,5.284154
1002.910156,12.035837,4.419212,13.302869,6.368159
1002.914062,5.166236,8.258635,7.601179,6.813391
1002.917969,15.771244,9.355338,2.715222,12.018692
1002.921875,8.015141,3.179710,5.816537,14.365130
1002.925781,4.565077,6.568440,12.510493,7.995242
1002.929688,13.407623,11.444848,11.971389,11.420434
1002.933594,8.667271,4.524866,0.295292,4.285290
1002.937500,7.775244,6.831785,13.998075,-2.379475
1002.941406,9.144186,3.290952,4.158631,5.367664
1002.945312,1.396777,-3.580022,-0.854090,6.404051
1002.949219,3.520124,4.658845,5.137085,-2.538124
1002.953125,-0.703819,-3.270774,4.414631,-1.013010
1002.957031,-1.520038,3.124736,1.165024,-8.954311
1002.960938,-6.424279,-8.912661,-1.165141,-8.139374
1002.964844,-9.487598,-8.472263,-6.219525,-2.970085
1002.968750,-6.265316,-14.289261,-8.738745,-10.298735
1002.972656,-11.690408,-9.829266,-13.467701,-16.072058
1002.976562,-9.717371,-4.445628,-10.356272,-12.436567
1002.980469,-5.689890,-5.961772,-11.609188,-9.644076
1002.984375,-5.556557,-6.779331,-4.974685,-8.543080
1002.988281,-7.204995,-6.261488,-11.954884,-2.587366
1002.992188,-7.780517,-5.750458,0.298648,-1.261444
1002.996094,-4.168932,-2.283496,3.718420,1.114428
1003.000000,0.876145,3.981484,-5.470636,-1.194913
1003.003906,0.960406,0.533964,1.995082,0.809743
1003.007812,-3.291694,3.516150,5.587202,2.185015
1003.011719,1.707617,6.115770,6.132146,3.501335
1003.015625,3.283371,6.988792,11.347691,6.885776
1003.019531,16.198247,9.439271,7.789037,3.569544
1003.023438,6.564074,9.942823,11.906212,3.024380
1003.027344,6.507938,14.477287,3.977706,10.589201
1003.031250,9.295745,-2.060935,11.885582,15.533133
1003.035156,6.333125,6.422850,3.870131,6.062906
1003.039062,6.825079,12.373947,5.939198,9.001913
1003.042969,0.996615,0.690415,4.806035,4.700139
1003.046875,8.737754,2.181636,1.620554,0.116587
1003.050781,-0.194147,3.469317,3.289285,-4.738364
1003.054688,-2.379299,7.928644,-5.724365,-6.053505
1003.058594,4.829144,-5.608016,-1.717187,-1.011790
1003.062500,-8.542025,-5.182150,-5.963403,-7.942560
1003.066406,-14.442716,-9.771721,-8.376792,-11.728723
1003.070312,-5.671765,-9.577186,-19.728015,-6.366345
1003.074219,-14.526850,-13.705860,-6.140667,-11.374274
1003.078125,-8.751732,-12.607694,-2.685921,-9.933022
1003.082031,-5.955785,-6.329907,-11.091242,-7.637914
1003.085938,-8.798632,-12.377999,-6.442505,-9.885455
1003.089844,-10.286879,0.669668,-11.735364,-4.836549
1003.093750,-8.065476,-5.556762,-3.509237,1.052309
1003.097656,6.474854,-3.817376,4.169353,-2.494741
1003.101562,-3.323355,-3.099549,2.500839,-1.506073
1003.105469,6.968222,5.927273,3.661927,4.818348
1003.109375,7.803416,12.113590,-1.692154,2.837485
1003.113281,6.789489,5.124367,16.302119,6.127232
1003.117188,6.104129,10.508146,7.022143,6.585366
1003.121094,11.002029,-2.187304,12.007561,12.538570
1003.125000,19.405005,14.101932,4.041696,7.389600
1003.128906,7.432076,6.407703,14.089933,14.400905
1003.132812,7.208335,3.501804,9.789850,12.038000
1003.136719,1.711903,7.211415,11.016774,7.870937
1003.140625,-0.138089,9.402847,10.231622,4.114576
1003.144531,4.339588,2.321255,-2.189599,6.474489
1003.148438,6.142634,0.317756,-2.750454,-5.851959
1003.152344,-0.969768,0.238727,-3.873802,-0.461442
1003.156250,-8.904898,-3.034677,-2.014698,-0.472223
1003.160156,-7.798426,-11.236393,-8.778316,-10.273347
1003.164062,-5.079341,-9.130841,-3.408920,-3.150530
1003.167969,-10.614920,-8.971237,-4.739808,-8.026857
1003.171875,-4.868460,-16.101484,-13.121907,-11.582531
1003.175781,-11.624699,-7.319700,-9.435245,-11.271776
1003.179688,-9.532366,-7.256365,-10.429966,-0.831873
1003.183594,-11.219234,-7.002134,-8.727817,-5.529156
1003.187500,-4.275710,-8.337645,-9.790720,-6.673361
1003.191406,-7.971466,-10.192257,-5.288526,-4.213197
1003.195312,-2.509882,-10.278146,1.261405,-6.157523
1003.199219,2.437411,4.349195,9.379560,0.246073
1003.203125,-4.434837,-0.460041,4.128173,5.824000
1003.207031,2.662407,-0.843623,7.057326,2.908631
1003.210938,6.817201,17.386099,4.290390,-6.055702
1003.214844,9.798672,11.969267,2.709392,8.428854
1003.218750,9.832031,11.480019,2.944457,8.081597
1003.222656,13.375789,13.536987,13.937637,9.548065
1003.226562,8.068414,6.650990,6.682121,8.765428
1003.230469,12.101012,7.908400,6.056776,7.147160
1003.234375,9.176625,6.855757,10.487835,5.994027
1003.238281,14.082414,3.092802,14.318406,9.217296
1003.242188,-0.728299,6.085465,9.884309,2.910665
1003.246094,0.871361,1.114971,2.210511,2.757143
1003.250000,0.858301,-7.533155,-0.335221,6.616232
1003.253906,-4.294382,-3.781554,5.603452,0.212328
1003.257812,-7.304278,-4.355605,-4.345388,-2.072270
1003.261719,-7.904938,-12.809822,-17.335068,-9.203002
1003.265625,-0.392855,-5.294502,-12.713418,-10.548139
1003.269531,-8.131014,-8.660994,-7.716081,-11.405616
1003.273438,-7.373376,-8.809554,-7.464087,-12.394762
1003.277344,-11.882976,-5.225747,-8.926803,-3.089612
1003.281250,-6.368520,-2.882923,-14.448241,-0.755028
1003.285156,-9.914968,-3.729474,-10.611963,-14.148907
1003.289062,-6.862596,-10.852261,-8.706897,-0.488880
1003.292969,-1.603985,-11.085820,-7.668713,0.124390
1003.296875,-3.154846,-0.906402,0.961377,-1.783768
1003.300781,0.215749,1.928255,-4.939686,0.607287
1003.304688,0.533250,1.221324,1.293541,-3.931410
1003.308594,6.323387,5.864300,4.134246,12.190991
1003.312500,5.222549,2.825182,2.662992,6.316334
1003.316406,0.374099,3.828923,8.601509,7.350013
1003.320312,12.639970,13.260737,8.832668,11.160590
1003.324219,15.224310,7.699277,11.435710,8.414541
1003.328125,8.469373,10.128134,12.104986,10.563555
1003.332031,6.800795,6.758104,13.959571,10.283584
1003.335938,3.116735,13.935057,4.842528,8.792443
1003.339844,13.583461,1.015798,5.627184,8.033896
1003.343750,9.688734,-7.250496,5.310650,-4.539965
1003.347656,4.542438,4.235902,6.382131,2.379505
1003.351562,-1.069541,6.685693,1.665018,-3.285642
1003.355469,-0.304994,-4.760737,-1.142914,-2.543876
1003.359375,-5.939436,0.147732,-3.675514,-12.943823
1003.363281,-10.267788,-12.009326,-7.969184,-2.752010
1003.367188,-3.800042,-8.307616,-1.230342,-10.754480
1003.371094,-6.750698,-14.759270,-8.242588,-11.133809
1003.375000,-6.626306,-7.569427,-8.293748,-9.658243
1003.378906,-13.484317,-7.488890,-14.123241,-14.727496
1003.382812,-12.267900,-7.328682,-8.070933,-11.733458
1003.386719,-4.634365,-2.827945,-7.034110,-10.683500
1003.390625,4.033892,1.565806,-2.783238,-12.746034
1003.394531,-2.734154,-6.954176,-1.769568,1.020969
1003.398438,1.290645,1.193024,-6.948985,-3.822295
1003.402344,5.741486,4.623469,-4.258819,2.061321
1003.406250,9.290381,7.814949,5.347300,10.207238
1003.410156,6.001906,11.623703,5.701136,6.675737
1003.414062,5.625677,8.571351,7.782596,5.278546
1003.417969,10.024561,13.618594,6.309799,15.038970
1003.421875,10.464357,6.586577,6.663271,1.294243
1003.425781,11.374620,12.210964,10.543978,14.671080
1003.429688,5.165734,12.603009,15.304077,11.340721
1003.433594,10.173665,8.708979,7.010336,8.140027
1003.437500,0.473083,4.985755,5.107628,10.880092
1003.441406,3.834645,3.507272,-1.184894,3.788851
1003.445312,-3.459896,-2.467948,-5.887013,2.787931
1003.449219,4.972288,-0.605807,-2.863803,-6.178056
1003.453125,-6.406060,1.476336,-3.935760,-7.097008
1003.457031,-0.203914,-3.543318,-5.158117,-3.567558
1003.460938,-6.528833,1.344453,-8.082152,-12.867341
1003.464844,-10.664755,-16.072368,-9.384169,-11.038203
1003.468750,-11.322199,-14.054141,-0.932736,-13.116138
1003.472656,-14.795116,-19.126255,-6.823013,-4.488880
1003.476562,-9.922148,-7.092888,1.525418,-11.727750
1003.480469,-9.405434,-12.812280,-2.443839,-11.507574
1003.484375,-5.417688,-16.324589,-7.609954,-8.674955
1003.488281,-10.976525,-3.699220,-9.606031,-0.178465
1003.492188,-6.968755,-15.813522,-5.528640,-3.370023
1003.496094,0.015023,0.493407,-7.405869,-2.042436
1003.500000,1.189512,1.074751,0.509504,0.057839
1003.503906,0.093498,2.690656,10.147515,-1.906797
1003.507812,9.170041,-2.169291,8.301167,10.391089
1003.511719,3.352732,4.648446,8.912111,-0.401674
1003.515625,8.393816,3.771157,12.932189,8.054488
1003.519531,11.802710,7.392376,5.955458,11.875249
1003.523438,13.911774,10.827217,9.765614,9.139848
1003.527344,3.876258,7.614228,5.405062,8.093608
1003.531250,8.018558,6.933822,13.176894,9.198020
1003.535156,-0.660588,12.375062,7.040106,7.673224
1003.539062,4.540963,5.873258,0.482613,11.952965
1003.542969,6.902151,2.687503,2.498279,3.553778
1003.546875,-2.928474,0.849199,-0.719316,4.675628
1003.550781,5.083099,3.238814,-1.699298,-0.472876
1003.554688,-5.897891,-2.401923,0.503882,-16.328033
1003.558594,-3.169005,-7.855301,-0.318490,-6.518418
1003.562500,-4.608874,-7.385777,-5.455493,5.123869
1003.566406,-4.417652,-4.086874,-10.405313,-16.678739
1003.570312,-6.611290,-9.805587,-10.272829,-8.695299
1003.574219,-14.924566,-12.015442,-6.596107,-14.046645
1003.578125,-5.359973,-13.640735,-4.699238,-10.295301
1003.582031,-6.210644,-10.404585,-11.063477,-5.988592
1003.585938,-12.718125,-3.245191,-7.530953,-3.921965
1003.589844,-0.061670,-1.703353,-6.197499,-1.975289
1003.593750,-15.009806,-3.750899,3.923534,-3.678060
1003.597656,0.190172,-0.498815,-2.434761,-3.864638
1003.601562,-0.724045,-2.952461,6.020479,8.158087
1003.605469,5.694935,3.567625,2.120362,-1.053997
1003.609375,11.957439,6.366325,8.684010,5.152286
1003.613281,3.190145,6.399498,11.540018,2.975209
1003.617188,8.890495,9.025806,7.055811,9.171465
1003.621094,13.183115,13.246392,0.361063,12.695520
1003.625000,7.717216,13.887939,8.481227,12.741408
1003.628906,1.092232,8.860278,12.667921,22.743128
1003.632812,8.965866,11.574257,11.949198,12.020083
1003.636719,5.434906,8.309088,12.765264,6.385559
1003.640625,-2.582405,3.733018,-0.497843,-4.011917
1003.644531,3.441865,0.291942,2.772029,2.855973
1003.648438,8.418481,0.297763,0.073190,-5.251648
1003.652344,-0.606484,-4.855863,-1.099933,-5.296353
1003.656250,-4.737024,-7.551619,-1.096759,-4.256224
1003.660156,-13.752840,-12.906735,-1.001700,0.781655
1003.664062,-4.009490,-4.956647,-6.510145,-8.157340
1003.667969,-6.794367,-1.498770,0.628446,-15.844057
1003.671875,-16.249895,-5.606732,-6.889680,-8.310830
1003.675781,-13.020606,-2.506624,-4.501083,-5.765977
1003.679688,-4.229735,-10.566397,-6.581553,-7.340846
1003.683594,-13.010526,-10.354410,-7.793901,-13.301997
1003.687500,-4.884049,-4.202272,-8.972158,-7.951152
1003.691406,-3.212965,-4.140479,0.127053,-2.639062
1003.695312,-7.469177,-4.823757,0.823786,-9.827797
1003.699219,6.609398,-1.595476,1.932329,-3.533704
1003.703125,-4.075560,2.448653,6.511693,-6.137666
1003.707031,4.478161,-0.384767,-3.054267,2.853303
1003.710938,7.343587,8.833748,4.907346,7.932983
1003.714844,10.709507,8.011122,6.436957,12.970017
1003.718750,5.869600,7.709190,10.462831,7.508067
1003.722656,7.554987,2.111318,11.455830,10.774169
1003.726562,14.438842,10.764083,12.364167,13.759304
1003.730469,12.912729,12.473159,4.754321,3.493794
1003.734375,7.748457,8.012269,13.777950,5.308266
1003.738281,2.187020,10.535413,8.946424,1.185925
1003.742188,4.760736,7.034816,3.872240,-4.613443
1003.746094,-0.115291,0.034589,7.823648,-3.026866
1003.750000,-1.721509,3.781805,0.812349,1.741011
1003.753906,-3.824653,2.625603,-2.867865,1.880031
1003.757812,-7.625337,-5.388281,-7.873456,-5.272473
1003.761719,-9.795934,-11.277436,-12.164061,-4.231031
1003.765625,-3.142970,-12.795555,-15.498293,-6.852129
1003.769531,-12.829913,-6.015609,-8.440298,-7.078426
1003.773438,-4.510507,-9.566796,-8.785871,-6.953322
1003.777344,-5.959377,-2.126516,-15.641455,-0.425418
1003.781250,-11.622490,-3.988054,-8.455937,-11.218000
1003.785156,-9.127124,-7.926769,-1.269976,-5.257260
1003.789062,-7.089821,-3.014752,-8.260758,-2.991809
1003.792969,1.281192,-4.199615,-7.817014,-1.433490
1003.796875,-3.839165,-4.934948,-7.719568,-6.118707
1003.800781,2.103616,-2.823923,-1.531109,2.254049
1003.804688,-1.723720,0.777768,1.146423,1.421311
1003.808594,8.143759,7.885806,9.932573,0.896002
1003.812500,9.493569,7.593318,11.932379,6.654793
1003.816406,9.791163,11.102549,2.955218,6.468803
1003.820312,9.091431,5.764472,7.714492,11.857020
1003.824219,9.998075,7.600919,2.109625,7.524240
1003.828125,2.992284,9.454665,10.705714,8.171215
1003.832031,5.003464,9.315001,13.350825,12.007219
1003.835938,13.521141,7.179184,4.694928,2.150781
1003.839844,2.287668,6.115365,14.837260,8.659634
1003.843750,0.214138,5.893489,-2.092288,1.336731
1003.847656,-5.730579,1.453623,-3.521749,1.111365
1003.851562,-1.638349,-3.169468,-1.645479,-3.465014
1003.855469,-8.505447,-0.788274,0.849602,-5.596168
1003.859375,-1.414729,-5.776074,-8.945589,-4.214080
1003.863281,-5.697318,-9.246011,-11.620406,-17.020714
1003.867188,-7.364352,-10.628236,-8.550889,-8.260510
1003.871094,-12.608831,-5.453001,-11.366951,-10.159528
1003.875000,-14.528320,-11.151500,-16.255273,-10.317522
1003.878906,-13.074651,-5.570953,-7.357857,-11.360371
1003.882812,-9.801177,-10.050006,-17.894236,-8.659205
1003.886719,-10.515580,-10.025275,-4.464339,-5.658608
1003.890625,-9.275798,-12.317301,-3.691096,-8.701173
1003.894531,-3.629186,-13.062874,3.686396,-0.121041
1003.898438,-0.897725,4.847181,-0.934848,-2.893513
1003.902344,-4.912713,-4.795999,3.596905,9.840776
1003.906250,2.035849,-2.630054,5.994134,0.438292
1003.910156,3.559680,1.546020,-4.870473,1.750293
1003.914062,2.155786,1.329037,7.083707,4.633934
1003.917969,15.145910,12.265151,14.610196,12.002527
1003.921875,6.838950,10.344526,11.300500,6.999910
1003.925781,13.129557,15.159687,7.625214,5.577393
1003.929688,3.196293,14.490263,10.115104,6.390577
1003.933594,17.710859,9.481289,6.143737,-2.482701
1003.937500,6.973519,7.346574,10.860555,10.683491
1003.941406,5.571072,6.818805,5.205807,1.055922
1003.945312,0.594739,-1.438847,-1.743180,-0.251307
1003.949219,2.222622,0.309964,8.505789,2.303422
1003.953125,-8.127658,7.432756,-4.146176,1.832205
1003.957031,-8.818781,-5.417489,-0.473914,0.699791
1003.960938,-7.051709,-6.468472,-6.275068,-2.867593
1003.964844,-5.531849,2.865041,-10.794598,-12.890978
1003.968750,-10.850613,-11.461132,-11.134841,-13.195539
1003.972656,-14.178389,-0.066699,-13.559489,-4.531557
1003.976562,-12.768477,-8.635138,-15.406882,-10.925535
1003.980469,-6.898564,-7.642583,-0.132360,-9.989716
1003.984375,-12.209200,-4.901842,-11.107295,-5.697034
1003.988281,-6.791703,0.667425,-7.068190,-11.831295
1003.992188,-2.060071,-5.181777,-7.425808,-4.649457
1003.996094,-0.521321,-8.117552,-5.963209,-7.156384
1004.000000,-0.566057,-4.464711,-0.812564,-1.717051
1004.003906,3.582516,-9.198277,3.964453,0.138846
1004.007812,6.641056,6.989734,11.972964,4.825725
1004.011719,5.254033,-3.865483,13.343968,9.072066
1004.015625,8.040544,14.143398,11.367420,8.165836
1004.019531,3.943697,14.182016,15.548954,6.447164
1004.023438,7.622833,13.717641,8.992836,8.128994
1004.027344,10.902981,7.585963,9.870033,9.033748
1004.031250,10.665994,13.123807,13.766865,8.045073
1004.035156,5.105459,14.330725,9.655527,9.956968
1004.039062,10.591171,3.152741,5.189506,2.691391
1004.042969,-8.332937,7.801607,2.068526,9.399326
1004.046875,6.001684,7.480599,3.554431,3.729106
1004.050781,-3.035940,0.457919,2.739684,1.641117
1004.054688,-5.855756,-3.949298,1.235535,3.225820
1004.058594,-16.964855,0.196122,-13.005985,-4.729385
1004.062500,-10.412081,-11.918952,-11.527518,-2.879833
1004.066406,-9.365620,-7.572393,-6.925491,-8.661451
1004.070312,-12.327815,-8.639009,-6.801797,-4.889818
1004.074219,-13.784296,-11.886675,-11.532496,-7.633218
1004.078125,-12.384716,-11.253785,-13.950538,-5.834997
1004.082031,-17.805533,-11.747445,-5.073194,-11.595135
1004.085938,-5.640254,-0.410815,-15.794813,-9.203019
1004.089844,-7.617844,-15.493138,-10.215916,-6.182014
1004.093750,-5.086448,-1.927448,-3.047196,-2.576509
1004.097656,0.668018,-5.931154,4.205111,-5.340339
1004.101562,-3.724702,4.812318,0.933202,5.316556
1004.105469,1.930428,4.611058,3.222849,-3.349375
1004.109375,-3.355911,7.975817,13.871873,2.439353
1004.113281,12.519168,6.737453,4.679069,10.323494
1004.117188,11.008925,5.295540,3.385731,13.284609
1004.121094,10.467907,12.799861,12.690460,8.994796
1004.125000,18.087812,11.345298,13.049539,7.113156
1004.128906,7.563655,2.985298,11.422809,10.749823
1004.132812,12.268602,5.793782,9.199839,5.331255
1004.136719,6.789689,4.704901,7.505899,7.863735
1004.140625,8.427608,4.968973,9.189477,6.990774
1004.144531,2.593932,10.463102,-1.249277,2.905258
1004.148438,3.222332,6.650806,4.180114,6.845222
1004.152344,-2.748848,-0.815568,-3.097239,-1.816716
1004.156250,-1.113308,-2.532099,-2.407865,-2.487495
1004.160156,3.296089,-2.011385,-7.883094,-3.692933
1004.164062,-8.465336,-15.117837,-9.795387,-10.099671
1004.167969,-11.838656,0.177858,-0.941916,-11.918265
1004.171875,-13.814266,-11.401730,-6.091486,-8.376526
1004.175781,-8.729847,-12.889002,-7.163794,-12.377364
1004.179688,-9.904425,-10.814363,-6.516387,-2.823698
1004.183594,-11.743162,-9.509282,-10.377027,-15.183399
1004.187500,-11.837732,-7.342691,-7.822095,-15.537080
1004.191406,-3.325869,-0.899289,4.400546,-0.673849
1004.195312,-10.131921,-1.380516,-1.851630,-6.060705
1004.199219,-4.881743,-2.402528,0.064703,1.763480
1004.203125,1.658976,1.454983,2.400509,1.303064
1004.207031,11.610431,3.928687,-2.368595,0.084105
1004.210938,9.835513,0.263406,14.976586,1.206653
1004.214844,5.197133,4.955106,11.235261,7.255472
1004.218750,6.340815,11.147666,13.464864,6.830106
1004.222656,8.667926,17.030992,1.647188,13.264605
1004.226562,16.428583,16.782078,20.162806,15.224251
1004.230469,7.199915,12.815741,20.991268,13.438899
1004.234375,5.462092,6.918662,12.721158,6.769716
1004.238281,0.258451,-1.544380,7.607773,8.452313
1004.242188,1.831607,4.421282,1.538755,4.826442
1004.246094,7.162785,8.931630,0.341664,-7.254761
1004.250000,-2.769861,0.327316,1.611224,5.556616
1004.253906,0.468311,-1.925237,-5.965810,-8.703092
1004.257812,-6.066904,-2.827723,-4.230534,-4.186465
1004.261719,-10.457259,-3.571313,-11.635375,-6.126434
1004.265625,-9.162023,-12.571153,-6.531544,-9.389971
1004.269531,-9.915357,-8.847998,-15.047949,-7.514180
1004.273438,-14.636467,-3.326004,-11.715790,-4.542208
1004.277344,-11.654913,-6.039654,-8.089430,-4.380956
1004.281250,-8.155369,-2.470256,-8.526387,-16.321039
1004.285156,-4.717823,-3.552038,-9.751984,-9.274386
1004.289062,-0.290690,-11.436550,-10.649800,-5.089444
1004.292969,-7.810949,-10.015598,-4.254297,-10.734990
1004.296875,-2.675516,-2.987801,-3.809683,-3.487526
1004.300781,0.657170,4.888420,4.069580,11.039540
1004.304688,-2.165721,4.971092,-0.014819,1.502139
1004.308594,-1.473609,4.012914,2.534169,9.711022
1004.312500,2.426658,16.774216,7.606892,9.093875
1004.316406,6.669274,8.345767,7.026424,13.885380
1004.320312,11.100524,11.835824,5.499531,4.799663
1004.324219,15.180609,10.129546,17.906102,10.452150
1004.328125,10.121587,11.552022,11.071867,7.029462
1004.332031,5.424481,3.468970,9.409486,10.639956
1004.335938,5.932138,8.818256,13.862093,8.763056
1004.339844,1.730145,10.947070,9.077114,4.686713
1004.343750,2.093415,10.215990,3.560372,6.174230
1004.347656,10.048784,3.479514,6.088080,2.887821
1004.351562,0.002817,-2.549762,0.719672,2.803588
1004.355469,-6.273905,-4.808385,-4.124291,-10.738824
1004.359375,-8.705508,-4.191151,-10.497090,-12.174252
1004.363281,-9.307774,-5.810897,-13.121908,-8.479251
1004.367188,-13.206852,-9.112445,-5.308420,-3.338245
1004.371094,-15.603666,-9.052048,-6.791298,-12.539306
1004.375000,-14.695536,-9.358811,-8.796942,-4.398582
1004.378906,-9.545488,-7.694262,-5.617198,-17.587979
1004.382812,-11.485722,-8.404366,-19.691172,0.277308
1004.386719,-8.354385,-8.633284,-14.873493,-10.608130
1004.390625,-5.186045,-2.603022,-9.364055,-12.351088
1004.394531,-2.802681,-8.919333,0.653264,-7.521079
1004.398438,1.987834,6.017751,-2.548298,-3.523639
1004.402344,1.383005,0.111891,3.372654,5.267988
1004.406250,7.091867,5.314282,4.154347,2.370619
1004.410156,5.290569,8.341001,-1.969768,8.439974
1004.414062,10.096391,3.129255,7.117746,4.732449
1004.417969,6.752368,10.833543,10.423067,9.683965
1004.421875,7.830713,8.749272,10.449271,11.061968
1004.425781,10.608130,11.784190,7.527561,4.850947
1004.429688,9.568744,7.223153,14.096633,16.222307
1004.433594,8.441080,8.315532,11.304599,7.753752
1004.437500,8.976277,10.310939,5.051203,3.033295
1004.441406,8.937613,9.191133,4.813725,3.895146
1004.445312,2.666241,-8.318045,8.023179,3.493427
1004.449219,-0.430174,-0.795539,3.569948,9.519591
1004.453125,-6.150586,-4.319097,-2.333123,-3.520786
1004.457031,-1.997581,-4.173006,2.314548,0.695454
1004.460938,-7.804665,-5.875308,-4.937768,-5.017159
1004.464844,-7.866078,-12.212463,-8.652660,-10.485898
1004.468750,-12.394821,-10.383214,-11.044091,-8.707083
1004.472656,-11.947064,-8.331403,-11.019907,-4.750764
1004.476562,-8.564745,-9.413407,-7.230726,-9.155336
1004.480469,-10.170809,-7.758092,-9.529726,-2.890114
1004.484375,-13.792514,-11.661773,-6.741095,-15.249484
1004.488281,-6.234102,-5.426569,-4.189549,-4.241767
1004.492188,-6.066213,-2.315211,-7.292122,-13.739916
1004.496094,-5.700288,-2.785712,-6.952403,2.412940
1004.500000,-0.961166,2.956694,-0.024352,1.624585
1004.503906,1.135449,2.307948,9.635144,5.794220
1004.507812,0.333474,0.546587,-2.788935,2.799427
1004.511719,14.791645,8.124512,3.635906,3.333814
1004.515625,5.572542,10.296080,3.948241,-1.442594
1004.519531,9.834556,5.537386,8.261568,14.433449
1004.523438,15.749952,5.603236,6.160406,8.598443
1004.527344,0.997120,4.939963,12.023123,13.699873
1004.531250,7.227417,11.852214,5.826314,14.201353
1004.535156,8.661065,10.190039,8.931162,-2.130664
1004.539062,15.473226,8.544508,-2.129110,8.032572
1004.542969,-0.543997,10.224175,1.581921,5.090920
1004.546875,3.643204,3.840021,-5.337351,0.620856
1004.550781,-0.390788,1.800898,-0.924838,-1.846003
1004.554688,2.101013,0.803155,6.292412,2.494683
1004.558594,-8.993454,-1.066566,-4.594716,-3.151559
1004.562500,-7.593660,-10.271587,-12.655388,-7.831751
1004.566406,-6.068139,-7.740421,-0.203947,-3.318198
1004.570312,-10.020631,-7.572115,-3.586196,-5.586712
1004.574219,-8.661047,-7.115262,-9.776968,-10.250516
1004.578125,-8.579652,-15.245319,-16.534666,-14.068564
1004.582031,-0.867371,-4.124089,-11.117117,-7.760148
1004.585938,-8.703885,-2.954154,-9.071927,-10.161647
1004.589844,-13.056938,-1.592801,-3.593615,-2.880947
1004.593750,-5.731956,5.066801,1.218271,-2.444243
1004.597656,-0.654085,-3.051332,-0.965298,1.480084
1004.601562,2.942899,-1.904811,1.916495,1.998058
1004.605469,4.501883,1.385772,-1.823750,5.272153
1004.609375,3.756331,0.815534,2.198352,8.348843
1004.613281,-0.382813,7.554675,13.634376,3.785180
1004.617188,8.992696,9.079192,2.512920,10.105452
1004.621094,14.289155,10.976851,9.456455,6.869228
1004.625000,11.964665,2.984723,16.045177,7.696574
1004.628906,2.337590,9.446974,7.858189,10.110124
1004.632812,10.573734,6.078225,3.934857,12.514478
1004.636719,11.291663,5.625386,8.728147,7.584839
1004.640625,6.683940,14.682015,8.913227,2.891005
1004.644531,2.913357,-4.458860,2.249772,-0.059722
1004.648438,2.944255,5.445581,-1.949181,-3.122293
1004.652344,-8.561236,-3.317806,0.565715,0.874538
1004.656250,4.614921,-2.003667,-3.311731,-0.558070
1004.660156,-4.476491,-5.517317,-8.110313,-1.489933
1004.664062,-11.213856,-10.267713,-3.791405,-8.901091
1004.667969,-11.503988,-4.086437,-13.657271,-9.888138
1004.671875,-7.502937,-11.598935,-13.527917,-14.806936
1004.675781,-18.626945,-11.937342,-9.453613,-8.078314
1004.679688,-7.439830,-11.479800,-12.513390,-0.069064
1004.683594,-8.017755,-7.575057,-12.946275,-6.161998
1004.687500,-10.605722,-8.158123,-1.551739,-5.147025
1004.691406,-4.580356,1.019132,-3.782853,-3.340578
1004.695312,-2.881163,0.699651,-5.554068,-1.346991
1004.699219,0.787224,-2.793646,-5.356995,0.301915
1004.703125,3.264195,3.351844,-2.737438,-1.328430
1004.707031,3.315386,2.245028,4.464362,1.992801
1004.710938,5.977257,4.059978,2.644501,8.272138
1004.714844,10.500660,5.934365,3.418268,4.319690
1004.718750,10.179185,8.247791,3.768112,9.468383
1004.722656,6.985241,8.285535,15.939754,6.963119
1004.726562,12.113704,5.856332,7.408371,6.197175
1004.730469,1.728667,6.241923,11.875405,9.652303
1004.734375,9.177186,5.166263,0.091237,6.977853
1004.738281,6.831937,8.104997,3.601249,10.187231
1004.742188,7.971504,0.428774,11.563046,6.280795
1004.746094,3.095878,3.208122,9.540484,6.252512
1004.750000,-4.464856,-5.592559,-0.276578,-5.167454
1004.753906,-7.894673,-5.927038,-5.604166,2.687560
1004.757812,-2.881064,-5.326817,-5.141017,-3.056994
1004.761719,-8.501979,-5.780656,-8.810480,-3.027786
1004.765625,-11.014633,-8.452487,-14.709320,-9.968644
1004.769531,-7.840629,-13.240087,-5.051733,-8.597423
1004.773438,-13.703267,-8.665708,-11.735957,-9.985385
1004.777344,-8.042233,-8.204228,-13.166273,-11.004716
1004.781250,-17.912632,-10.851045,-10.160201,-16.444426
1004.785156,-6.788379,-8.796066,-13.759931,-12.978176
1004.789062,-10.520668,-4.505728,-5.561277,-2.776973
1004.792969,-9.008212,1.717368,-0.864744,-9.267529
1004.796875,1.252720,8.637656,1.364251,3.701421
1004.800781,2.666417,0.241840,-2.572524,12.711660
1004.804688,3.533033,0.632153,2.652777,7.329829
1004.808594,11.517040,3.377786,2.345352,9.484253
1004.812500,10.287613,6.831676,7.650271,9.458553
1004.816406,12.737830,9.577529,6.568945,3.722688
1004.820312,12.910309,16.714252,13.189134,8.365853
1004.824219,4.850638,14.822509,12.679201,7.464727
1004.828125,11.088641,1.552600,12.271895,5.492551
1004.832031,3.301087,14.011587,7.524641,12.368541
1004.835938,3.334196,13.623188,13.925404,4.654461
1004.839844,8.823029,3.783685,4.499347,10.641165
1004.843750,2.165358,4.774853,5.872065,-5.661620
1004.847656,-7.386339,2.624560,0.860005,-1.529908
1004.851562,-2.794349,-0.665661,-0.835613,-1.522720
1004.855469,-4.311944,-7.030070,-1.884925,3.161979
1004.859375,-8.521785,-10.296106,-14.716485,-11.406027
1004.863281,-8.793560,-11.732305,-7.775893,-6.754319
1004.867188,-6.952792,-12.920158,-3.723487,-1.565654
1004.871094,-10.314811,-6.658437,-12.242781,-8.967621
1004.875000,-10.152107,-9.822837,-15.784476,-10.973306
1004.878906,-9.402509,-16.261094,-5.806496,-8.256742
1004.882812,-12.651406,-7.785890,-9.321164,-4.440553
1004.886719,0.191652,-6.492494,-8.171343,-6.555574
1004.890625,-5.184737,-8.660461,-8.006382,-2.057669
1004.894531,-1.008430,-12.040567,-6.588234,-2.216304
1004.898438,-5.745141,1.601580,-0.050297,-6.343871
1004.902344,4.376985,0.146510,-1.036067,5.286509
1004.906250,2.179912,4.134260,3.387208,-3.971574
1004.910156,6.861313,9.045904,2.984054,1.208048
1004.914062,10.135104,5.926905,9.574627,9.617596
1004.917969,4.614464,9.119766,3.774644,5.568393
1004.921875,13.413211,12.024199,9.415766,9.631205
1004.925781,10.979589,2.894672,11.619361,5.602163
1004.929688,3.912203,7.019755,13.233880,15.625244
1004.933594,9.104854,6.441290,13.183387,18.504773
1004.937500,8.063989,10.789554,8.310213,4.941069
1004.941406,1.487571,8.918825,6.781807,14.753138
1004.945312,3.317488,2.250107,10.171976,3.992148
1004.949219,3.648702,-0.410393,1.189797,6.375951
1004.953125,-1.391566,7.163548,-9.468515,-6.239128
1004.957031,-4.496710,-5.399652,-11.359880,-5.740513
1004.960938,-3.522417,-5.413549,-5.142263,-7.184107
1004.964844,-1.433485,-8.892786,-9.441581,-9.416023
1004.968750,-7.208233,-9.053092,-1.734699,-6.601164
1004.972656,-10.101065,-7.449231,-10.088744,-10.316248
1004.976562,-8.610401,-16.872386,-8.344911,-9.531202
1004.980469,-20.942429,-12.461200,-4.724696,-4.283777
1004.984375,-11.326837,-9.656806,-2.057061,-11.087801
1004.988281,-12.321953,-3.274116,-7.727235,-0.992654
1004.992188,-5.952729,-8.816596,-4.271555,-1.398839
1004.996094,-11.460278,-5.897411,-0.382403,-5.364938
1005.000000,0.327563,5.476324,-2.801308,0.346214
1005.003906,-1.301408,-6.650319,-2.909643,-2.492000
1005.007812,3.597531,3.120154,6.135134,3.625902
1005.011719,5.488721,4.059358,3.396619,6.239502
1005.015625,16.208716,8.718960,10.353043,4.984877
1005.019531,9.194323,8.232538,8.045628,9.477043
1005.023438,9.085863,20.337507,7.896538,14.436639
1005.027344,11.345430,14.481167,8.925737,11.523767
1005.031250,4.063303,3.421287,9.717841,8.980319
1005.035156,8.768095,4.598869,1.366922,-2.822234
1005.039062,6.179678,3.804868,5.954685,8.305818
1005.042969,9.578312,6.024948,2.608279,6.348059
1005.046875,-0.227264,1.867851,0.547605,5.731599
1005.050781,0.253176,-6.526139,0.447165,-0.179748
1005.054688,-3.747241,-1.321895,-2.853061,-5.355745
1005.058594,-5.772051,-4.150341,-10.707877,-4.311126
1005.062500,-8.990658,-8.454736,-6.408126,-3.608065
1005.066406,-7.513264,-8.216489,-7.583333,-10.962276
1005.070312,-13.008073,-4.911068,-0.007397,-11.741750
1005.074219,-14.156053,-6.604691,-10.189689,-0.211649
1005.078125,-3.563461,-8.429357,-10.344208,-6.183853
1005.082031,-11.586617,-11.073693,-18.152716,-10.114308
1005.085938,-5.131177,-12.295097,-7.741063,-9.254115
1005.089844,-14.695774,-13.551721,-6.010732,-4.882068
1005.093750,0.171435,-0.775433,-0.796333,1.705779
1005.097656,1.956268,-2.561585,-5.530345,-5.464210
1005.101562,2.050566,3.698572,-8.625461,3.854547
1005.105469,1.184847,6.671866,2.136155,1.049887
1005.109375,6.417158,2.739675,-1.272411,-1.121326
1005.113281,5.950711,8.110648,10.971278,7.363875
1005.117188,5.456081,2.861606,10.291554,13.028334
1005.121094,4.642540,9.011295,4.650874,16.074814
1005.125000,12.119820,3.636829,14.230904,6.304522
1005.128906,8.796298,12.749731,7.214971,7.196911
1005.132812,4.419222,11.088659,8.614434,8.070562
1005.136719,8.685954,1.962980,-1.226685,10.769005
1005.140625,7.620909,8.351067,9.535615,4.333619
1005.144531,5.322692,1.034757,0.356842,-0.801728
1005.148438,-1.345721,-2.672116,1.288390,4.571559
1005.152344,-1.626449,-3.912108,-5.601682,-0.541671
1005.156250,2.895527,-6.063382,-4.286935,-1.210790
1005.160156,0.720966,1.821794,-3.414052,-12.827315
1005.164062,-3.538168,-6.812536,2.703186,-12.612150
1005.167969,-11.292516,-7.360813,-12.256206,-5.794539
1005.171875,-14.147330,-14.425121,-17.228584,-12.979181
1005.175781,-8.889826,-12.143188,-13.907698,-11.554998
1005.179688,-10.903955,-8.815753,-12.830597,-10.043621
1005.183594,-2.926065,-2.486840,-11.452220,-6.826704
1005.187500,-17.921587,-1.351422,-7.715314,-7.010228
1005.191406,-9.064214,-4.816631,-1.713381,-0.209906
1005.195312,-5.859606,-0.700693,-3.390569,1.619385
1005.199219,1.387566,2.973122,0.535332,-2.926605
1005.203125,6.651949,-2.236992,5.214539,2.952173
1005.207031,8.495328,3.455984,-2.794859,6.930354
1005.210938,5.638070,13.595580,5.887941,6.057032
1005.214844,5.777707,2.183848,7.285814,13.681657
1005.218750,15.174716,4.647195,14.807444,3.399720
1005.222656,1.199434,7.541307,5.806392,7.203649
1005.226562,2.511872,12.180796,5.580337,6.703753
1005.230469,7.137584,8.451541,7.636926,5.547034
1005.234375,2.649844,2.804071,8.000195,6.499289
1005.238281,8.684008,9.682119,0.457466,7.970796
1005.242188,4.229449,3.836201,6.679597,1.364100
1005.246094,7.526666,-7.336021,-0.502103,2.896527
1005.250000,5.249327,-10.680525,0.559898,-3.301159
1005.253906,2.994413,0.031508,-2.509309,-3.513244
1005.257812,-5.066230,-6.372223,-6.023479,-9.062298
1005.261719,-2.709900,-10.025433,-8.436383,-8.105921
1005.265625,-12.789031,-8.227339,-3.018655,-14.505098
1005.269531,-8.193851,-5.697101,-3.634134,-9.278758
1005.273438,-11.411405,-14.331527,-9.794091,-9.999521
1005.277344,-10.545036,-7.887599,-13.797081,-10.340567
1005.281250,-2.799709,-5.866203,-7.053596,-5.596385
1005.285156,-8.465717,-12.799915,-2.781009,-5.444231
1005.289062,-5.133217,-4.930918,-0.565475,-7.295542
1005.292969,-9.240293,-3.012860,-8.063585,-5.230096
1005.296875,-7.388023,-4.353425,-6.672000,-1.041004
1005.300781,-0.211357,-1.661261,-6.024510,-6.032788
1005.304688,6.943672,0.358622,-1.507732,-1.423430
1005.308594,9.179357,2.603581,6.481976,4.465116
1005.312500,12.318081,13.808958,11.033506,7.855500
1005.316406,-0.007578,5.062784,3.336405,6.588813
1005.320312,13.673593,12.620214,13.132942,7.948014
1005.324219,4.993193,5.702218,11.376020,15.876691
1005.328125,4.867714,9.303640,12.653799,14.642485
1005.332031,17.517669,10.315528,7.870992,8.562725
1005.335938,7.149647,4.466751,2.882975,7.843053
1005.339844,15.429803,3.243219,6.975512,3.893778
1005.343750,-1.759672,10.475631,0.051658,9.839017
1005.347656,-2.724336,1.188698,-2.640825,-2.235139
1005.351562,8.298502,5.926951,-2.560415,-1.579566
1005.355469,-7.432632,-1.654693,-7.282181,-5.077570
1005.359375,-11.533677,-5.128790,-4.247621,2.979050
1005.363281,-7.974729,-5.812179,-5.215126,-13.418575
1005.367188,-12.405888,-8.078886,-11.267353,-12.901085
1005.371094,1.213792,-12.960822,-7.536518,-15.049420
1005.375000,-17.586171,-11.627958,-8.864408,-4.514527
1005.378906,-5.616480,-3.667206,-12.641396,-11.268634
1005.382812,-10.171804,-6.665345,-13.540646,-8.746213
1005.386719,-6.300512,-12.123928,-13.127899,-5.247159
1005.390625,-5.680009,-4.774019,-6.082689,-8.845647
1005.394531,1.133159,-4.496782,-4.074595,-2.436959
1005.398438,-7.243917,-2.170953,3.928958,-2.942419
1005.402344,-4.059968,8.899365,0.020460,-1.845697
1005.406250,6.617195,7.535449,9.059483,9.387853
1005.410156,12.630032,9.454765,13.764998,9.892831
1005.414062,12.508651,7.383558,9.660901,7.147048
1005.417969,10.556588,8.553486,12.046818,17.506504
1005.421875,22.260730,8.688003,9.804499,5.824705
1005.425781,13.614681,9.964738,6.010512,12.574401
1005.429688,6.519578,7.039148,12.056381,10.655335
1005.433594,9.039677,17.472297,4.266564,1.406326
1005.437500,10.210993,-2.744632,12.347161,8.712458
1005.441406,3.765328,8.544979,6.829968,5.285692
1005.445312,5.690125,-6.492351,5.050726,1.141541
1005.449219,-1.632529,4.197448,-0.201278,-1.942559
1005.453125,0.954589,-4.067110,-3.841288,1.340453
1005.457031,-1.122329,-9.793973,1.853239,-1.631793
1005.460938,-2.911896,-9.832733,-9.832119,-3.762538
1005.464844,-5.730397,-12.893430,-2.599657,-7.733487
1005.468750,-6.378964,-8.058420,-9.916048,-5.620826
1005.472656,-7.459591,-2.934727,-11.525796,-10.260503
1005.476562,-14.868560,-10.748129,-9.196241,-10.765314
1005.480469,-5.030217,-17.829933,-4.822474,-10.447663
1005.484375,-9.545987,-11.115415,-13.434909,-7.720101
1005.488281,-3.819534,-1.760567,-9.874603,-12.430932
1005.492188,-8.850633,-6.360265,-6.322250,-3.553349
1005.496094,-1.658187,-1.637875,-8.071255,-2.775855
1005.500000,4.926176,-0.314562,-1.445251,8.528673
1005.503906,-2.466532,4.551656,1.657023,1.514849
1005.507812,4.253474,5.123065,3.270245,17.497895
1005.511719,9.580259,0.443772,11.950025,12.416985
1005.515625,9.377686,13.043360,2.028547,14.310406
1005.519531,9.017380,3.715111,12.036794,-0.940969
1005.523438,5.308453,16.838633,9.759420,8.788188
1005.527344,5.403066,4.808053,19.185196,6.417792
1005.531250,9.058810,11.379366,12.392750,7.943917
1005.535156,12.541470,2.131513,8.269368,8.793951
1005.539062,10.115576,9.787841,10.031772,2.590675
1005.542969,8.458969,5.297360,4.001232,5.094440
1005.546875,4.525286,6.099449,5.615561,0.546165
1005.550781,-0.377349,1.983932,-1.605755,-5.654619
1005.554688,-5.501745,-7.836636,-4.815151,5.517252
1005.558594,-7.045253,-7.279861,-9.253387,-12.133578
1005.562500,-12.593509,-0.356570,-5.478281,-5.204397
1005.566406,-7.700661,-8.296538,-9.150115,-8.698670
1005.570312,-11.837268,-14.141835,-11.997899,-11.864648
1005.574219,-4.090920,-12.124133,-8.140576,-17.931615
1005.578125,-8.090042,-10.598759,-11.244191,-10.157269
1005.582031,-7.480622,-12.252809,-6.913609,-8.931516
1005.585938,-14.319082,-6.331801,-10.131705,-5.698897
1005.589844,-4.114839,-1.471813,-4.774797,-1.030493
1005.593750,3.253653,-5.582233,-2.145560,-5.273041
1005.597656,0.755390,-3.094893,-2.457471,-10.195371
1005.601562,-0.072474,0.226293,-5.932768,0.142504
1005.605469,2.460299,9.524850,10.007966,1.827976
1005.609375,14.645928,5.655150,5.427279,4.189200
1005.613281,4.987791,10.782771,8.680419,-1.045930
1005.617188,8.618176,5.684502,8.851517,9.825898
1005.621094,8.289383,6.921691,14.572712,16.354489
1005.625000,14.808020,15.404083,6.827119,9.547759
1005.628906,11.812777,7.712182,13.338920,8.867771
1005.632812,11.571641,1.472920,10.882145,13.962958
1005.636719,-0.971826,0.460057,9.431702,16.528164
1005.640625,10.413607,5.073323,4.417954,4.322767
1005.644531,0.986845,-0.893706,5.625648,5.623236
1005.648438,0.296900,-2.096703,2.191617,5.276613
1005.652344,3.247872,0.231256,0.558019,1.173953
1005.656250,-7.842808,-0.099102,-12.268820,-7.273546
1005.660156,-3.051739,-4.077231,-4.160884,-5.381545
1005.664062,-5.917037,-11.451647,-3.979793,-3.118328
1005.667969,-18.014475,-15.853016,-1.427948,-8.167412
1005.671875,-7.652959,-16.765965,-1.722483,-10.071361
1005.675781,-3.823735,-9.262155,-5.571337,-4.128928
1005.679688,-12.293655,-6.637656,-8.584391,-8.925342
1005.683594,1.946673,-7.499701,-10.859158,-4.220986
1005.687500,-9.883847,-12.577212,-5.425021,-11.383503
1005.691406,-1.960577,-4.834301,-5.745394,-3.974373
1005.695312,-0.757905,1.339523,-7.094487,-1.892065
1005.699219,3.580600,0.638045,8.159210,1.454443
1005.703125,2.466401,-0.191364,2.442161,5.305755
1005.707031,2.274881,7.697364,6.982328,9.955355
1005.710938,6.022233,8.278210,-0.228612,6.636539
1005.714844,10.203796,9.338112,-0.122522,12.907179
1005.718750,12.001870,8.580781,15.644600,11.715722
1005.722656,12.480347,3.179459,4.064236,9.370329
1005.726562,10.589369,11.077579,16.000136,13.827729
1005.730469,7.127305,11.563913,4.025064,6.732515
1005.734375,13.249927,6.568145,12.154595,7.449635
1005.738281,1.953918,11.024988,8.181517,6.116193
1005.742188,-1.326107,-1.302589,-0.307827,0.153370
1005.746094,-6.110750,-2.324080,3.590617,-2.460524
1005.750000,-3.421944,1.648927,3.521143,8.512188
1005.753906,-5.757966,3.005046,-7.097326,-6.581184
1005.757812,-10.678567,2.121245,-0.554520,-6.606935
1005.761719,-9.158437,-0.629917,-3.974119,1.428498
1005.765625,-7.329099,-11.119723,-6.130401,-8.616233
1005.769531,-16.499796,-6.084793,-6.398867,-9.339817
1005.773438,-17.158256,-15.191625,-6.457115,-3.226160
1005.777344,-12.723543,-13.220118,-3.084090,-14.010145
1005.781250,-19.166690,-8.574548,-15.450715,-10.370278
1005.785156,0.491466,-8.257013,-11.754377,-12.275298
1005.789062,-6.827576,-6.323772,-8.231394,-2.215119
1005.792969,-6.213714,-4.218079,-8.782769,0.473971
1005.796875,-4.004059,-0.248755,-2.670302,5.053153
1005.800781,2.545245,-2.480291,-0.347098,0.723043
1005.804688,-1.505835,3.039688,0.142570,8.986792
1005.808594,5.112955,-1.175468,-0.388068,-0.047364
1005.812500,1.794255,6.418318,1.526086,4.054769
1005.816406,7.527137,5.474505,6.935650,0.846705
1005.820312,4.370956,10.134722,12.139954,7.585573
1005.824219,16.252578,9.776830,8.057259,12.887802
1005.828125,10.663023,9.005680,3.744664,3.109333
1005.832031,2.164216,9.408484,11.542009,9.667556
1005.835938,1.330936,13.051067,7.566538,7.843002
1005.839844,6.796149,3.807303,7.167269,3.499859
1005.843750,11.718870,0.315938,4.326962,-2.226784
1005.847656,7.952107,2.681948,3.491997,1.154651
1005.851562,2.031370,-4.661148,-4.626188,1.049759
1005.855469,1.189472,-7.739501,-6.342894,-3.871811
1005.859375,-4.007953,-4.407201,-4.993772,-2.933565
1005.863281,-9.926211,-4.704677,-10.125981,-10.449897
1005.867188,-12.790752,-9.791860,-8.940184,-3.940468
1005.871094,-15.429520,0.575878,-3.606198,-8.740402
1005.875000,-10.545922,-3.366664,-10.189187,-14.138214
1005.878906,-8.557103,-9.169429,-4.138355,-14.441398
1005.882812,-9.592784,-9.735067,-9.969214,-5.815986
1005.886719,-5.369464,-6.002476,-1.130237,-5.613899
1005.890625,0.615350,-4.348824,-6.369031,-3.064639
1005.894531,-2.577335,-0.531657,-0.997597,5.038324
1005.898438,-0.595271,-3.535372,0.893111,-0.242766
1005.902344,0.938903,3.899016,-3.775767,-3.992865
1005.906250,5.904523,-0.477424,9.976545,6.923269
1005.910156,5.460913,11.321629,2.950616,5.599295
1005.914062,10.756575,8.748353,6.955093,7.219940
1005.917969,6.968440,9.341878,10.206716,4.370337
1005.921875,7.438418,18.169532,9.597280,3.763892
1005.925781,7.673521,1.437065,11.271195,14.083301
1005.929688,4.768388,10.637484,11.251726,10.083161
1005.933594,8.030386,1.718760,5.733615,3.227375
1005.937500,11.798878,5.046320,9.604966,7.454807
1005.941406,2.453132,1.959458,3.818326,-2.435767
1005.945312,1.865596,5.671261,5.994498,10.741783
1005.949219,-5.761046,2.826179,-1.532407,-3.141840
1005.953125,-5.133914,4.076538,2.571149,-3.414378
1005.957031,-3.236825,-1.704157,0.767046,-3.004484
1005.960938,-8.205491,-2.400732,-5.970161,-4.512881
1005.964844,-8.984745,-6.985031,-12.401546,-8.612974
1005.968750,-6.473995,-10.314310,-9.220784,-9.261889
1005.972656,-2.193062,-8.661234,-14.710272,-3.196839
1005.976562,-8.726811,-11.863222,-11.864951,-11.512574
1005.980469,-10.627660,-9.240305,0.344829,-17.583738
1005.984375,-14.199228,-3.878602,-11.919004,-12.610880
1005.988281,-5.416718,-3.087613,-5.300031,-7.293331
1005.992188,-3.919293,-3.544660,-3.689865,3.891987
1005.996094,-2.937679,-5.913941,-8.817025,-0.850803
1006.000000,2.926459,3.687135,-5.141017,-0.570287
1006.003906,1.397286,1.198698,4.454556,1.193493
1006.007812,5.974592,11.684228,7.453950,9.478106
1006.011719,8.499811,7.979616,-0.844031,6.939362
1006.015625,9.624726,7.773281,7.191759,12.337819
1006.019531,7.330465,10.889961,5.736518,10.761655
1006.023438,7.853660,13.389874,15.841458,2.280286
1006.027344,15.477931,9.326124,10.693321,8.154616
1006.031250,6.526023,8.366195,8.591230,4.547626
1006.035156,9.217436,5.664826,11.122247,8.754695
1006.039062,5.331432,8.154772,-1.737704,13.255532
1006.042969,2.402965,8.080841,6.870365,6.893284
1006.046875,0.351319,0.857252,6.770244,0.652917
1006.050781,-1.041783,-0.355931,-1.325312,-2.288817
1006.054688,6.132448,-13.592669,10.501474,-11.911248
1006.058594,0.530707,-8.308485,-5.536771,-2.749361
1006.062500,-4.939410,0.346802,-9.453481,-1.569882
1006.066406,-11.638450,-7.180270,-0.633106,-7.407257
1006.070312,-7.869012,-7.447748,-9.276804,-10.331885
1006.074219,-14.727702,-10.835893,-13.323530,-11.330815
1006.078125,-12.284151,-4.547927,-6.937930,-10.019891
1006.082031,-6.609833,-3.900294,-9.884594,-19.463449
1006.085938,-2.334739,-2.747148,-11.121792,-10.964666
1006.089844,-6.453165,-3.349487,-3.594408,-11.905589
1006.093750,-5.296430,-1.760920,-5.610046,-3.647659
1006.097656,-6.989026,-4.807633,-2.900542,-2.611311
1006.101562,5.327880,0.510054,6.861748,-0.286151
1006.105469,10.732817,6.688971,-0.296190,3.654456
1006.109375,4.709738,1.993142,-3.118187,5.426850
1006.113281,8.341125,5.373435,7.743187,7.643288
1006.117188,5.753893,10.130110,10.347564,9.834249
1006.121094,11.638212,6.502403,11.892146,9.666322
1006.125000,15.989667,13.706682,9.941914,8.797588
1006.128906,4.331799,12.369560,9.609419,3.499802
1006.132812,4.427323,9.615295,8.214688,11.003600
1006.136719,10.489214,7.272305,14.083481,0.587389
1006.140625,2.785170,-1.557884,8.426507,6.226664
1006.144531,-1.587993,-1.182078,3.832331,4.216763
1006.148438,1.820742,-1.161629,0.483578,0.849576
1006.152344,-1.095704,-5.389447,0.479101,3.612123
1006.156250,-5.711876,-1.456335,-1.710159,-9.112683
1006.160156,-7.754729,-5.830773,-2.278990,-5.926670
1006.164062,-12.986120,-6.429608,-9.258809,2.570059
1006.167969,-5.032472,-8.376358,-6.235506,-6.935123
1006.171875,-9.121585,-15.362630,-14.108715,-8.614658
1006.175781,-11.066140,-9.090919,-11.208644,-14.405481
1006.179688,-18.795523,-8.694220,-15.773972,-11.976992
1006.183594,-0.730224,-5.163345,-7.077445,-9.639712
1006.187500,-7.345883,-9.724057,-8.497764,-6.845323
1006.191406,5.481307,-1.881545,1.348067,-12.801702
1006.195312,-3.030387,5.003389,-3.774756,-5.652200
1006.199219,-1.778165,1.255713,-4.232895,-1.233955
1006.203125,-5.655370,3.696461,1.456002,4.416515
1006.207031,5.922876,5.860892,7.661687,4.513376
1006.210938,6.010849,2.846124,10.329091,3.053761
1006.214844,7.882187,6.515601,3.061289,3.776020
1006.218750,8.865045,6.167449,12.337959,8.229019
1006.222656,7.526818,17.465678,7.928237,14.409775
1006.226562,12.913042,16.432878,3.326668,6.234728
1006.230469,9.931967,4.093272,8.678204,16.007845
1006.234375,10.179150,17.141718,9.495618,6.612973
1006.238281,7.047148,6.102503,2.487131,2.795314
1006.242188,1.725231,0.007364,5.455678,4.035345
1006.246094,-6.198481,-1.746279,1.773020,-0.675170
1006.250000,5.605422,6.885008,2.239210,-7.531449
1006.253906,-0.282763,-5.670450,2.619071,-0.510907
1006.257812,-6.733160,-3.404180,0.834536,-2.770237
1006.261719,-16.439660,-10.128817,-8.885751,0.507190
1006.265625,-9.637744,-8.479193,-6.664872,-10.028775
1006.269531,-12.074070,-10.687423,-11.632881,-11.664928
1006.273438,-7.714795,-10.142634,-15.688933,-4.316493
1006.277344,-12.932817,-9.423837,-12.943639,-5.066553
1006.281250,-8.222732,-9.057249,-8.611009,-8.504416
1006.285156,-0.796925,-8.205594,-3.559321,-11.213250
1006.289062,-4.604998,-2.901717,-4.078107,-6.302160
1006.292969,-2.024299,-5.170282,-9.840874,-6.111734
1006.296875,6.091081,1.338152,-4.707431,0.715564
1006.300781,-2.775291,-1.815613,0.600265,3.229166
1006.304688,6.548992,4.268188,-3.985884,4.123140
1006.308594,6.140752,-1.201355,1.502089,-1.710018
1006.312500,2.476621,7.214327,7.005045,10.387421
1006.316406,7.171259,6.865741,11.131903,11.338596
1006.320312,4.354934,12.676395,6.588682,8.599452
1006.324219,17.302034,7.443747,0.625115,6.147144
1006.328125,3.880728,10.525030,6.122849,15.069540
1006.332031,5.184125,17.876208,8.642484,8.031777
1006.335938,6.420151,5.800879,11.095321,2.324866
1006.339844,4.716967,6.375030,3.342310,8.592544
1006.343750,12.980025,7.925683,10.355625,-2.303497
1006.347656,2.327707,6.545710,0.557181,4.769258
1006.351562,3.832986,-1.227571,-2.122548,7.357940
1006.355469,-1.864608,2.054278,-2.542388,-2.973130
1006.359375,-4.418939,-7.422672,-8.758022,0.106940
1006.363281,-4.379900,-8.542015,-9.342338,-0.321601
1006.367188,-8.449738,-10.361024,-7.204086,-10.788397
1006.371094,-8.167460,-13.021096,-11.854058,-6.940070
1006.375000,-13.487235,-7.928324,-5.394519,-16.564473
1006.378906,-13.882180,-14.198111,-10.657909,-4.272546
1006.382812,-11.734382,-11.784317,-3.907677,-9.438755
1006.386719,-7.894990,-3.120588,-7.357288,-9.344787
1006.390625,-1.937891,-12.595232,-13.013314,-4.778171
1006.394531,-3.043315,-4.555345,-2.683001,-10.133941
1006.398438,-5.756403,-0.648200,5.713437,-2.028310
1006.402344,4.260769,5.680688,2.096312,-1.623413
1006.406250,6.278260,4.597377,3.296085,1.867451
1006.410156,-2.033968,3.383498,6.414089,2.438246
1006.414062,12.806972,8.654967,10.183270,8.736726
1006.417969,11.453867,12.857285,10.649425,9.748546
1006.421875,8.363692,15.911206,10.771301,-2.262851
1006.425781,11.491580,12.154227,12.481325,6.432625
1006.429688,8.055630,13.527842,11.697677,12.646924
1006.433594,6.442492,7.620990,9.260031,11.588341
1006.437500,14.221609,10.984939,5.785174,9.105263
1006.441406,11.100245,1.346255,6.551908,1.551671
1006.445312,2.429039,-3.574432,-1.360116,-0.373931
1006.449219,7.041075,4.349857,-2.721192,3.823798
1006.453125,-0.940869,-3.833713,-1.340271,1.218291
1006.457031,-0.767185,3.197454,-5.403429,-5.533050
1006.460938,-4.220087,-12.276194,-9.731469,-4.590231
1006.464844,-3.196388,-12.811590,-6.458976,-12.662222
1006.468750,-5.607847,-6.443754,-1.530064,-8.646396
1006.472656,-11.290574,-8.710905,-10.587960,-12.112279
1006.476562,-13.531556,-8.880639,-8.724178,-12.821475
1006.480469,-13.017300,-7.456811,-4.911529,-4.040703
1006.484375,-6.592320,-4.617801,-8.550502,-9.467289
1006.488281,-9.762640,-13.303162,-13.596580,-7.776060
1006.492188,1.577158,-8.934159,-5.818627,-6.414818
1006.496094,-0.830848,-6.198883,-4.429182,5.327643
1006.500000,-10.615642,-1.407247,-3.340749,0.731143
1006.503906,-4.449497,5.383404,0.060610,-3.353438
1006.507812,6.807722,3.482513,2.137859,8.509505
1006.511719,4.105049,5.900303,4.056412,10.298324
1006.515625,2.913692,12.230435,6.256205,7.010318
1006.519531,12.233945,8.485707,8.196011,8.593153
1006.523438,9.512523,13.877672,7.028287,8.836224
1006.527344,11.592303,9.732706,14.028939,10.851233
1006.531250,13.052039,7.863105,4.359255,7.318258
1006.535156,9.498507,6.804925,16.991625,6.540403
1006.539062,7.933870,12.632531,2.873642,9.424514
1006.542969,10.957538,7.209904,3.510146,9.483654
1006.546875,6.007357,-2.244494,6.916885,-3.336262
1006.550781,3.266364,0.550556,1.208182,-6.956705
1006.554688,-4.982948,-9.496460,-3.121346,-7.164851
1006.558594,-6.931700,-0.157146,-6.575518,-6.366352
1006.562500,-4.367933,-6.737494,-9.307421,0.327002
1006.566406,-9.937680,-7.457194,-8.201881,-14.599189
1006.570312,-9.440332,-7.810062,-5.209485,-13.488704
1006.574219,-11.283245,-8.401806,-10.369539,-14.035188
1006.578125,-9.650699,-9.788467,-6.452689,-8.923959
1006.582031,-4.951344,-4.229882,-7.541083,-15.749643
1006.585938,-11.381154,-13.467397,-15.356213,-9.966455
1006.589844,-6.907710,0.639277,-4.225319,-2.710063
1006.593750,-4.824872,-3.135944,-6.383534,-6.708244
1006.597656,-2.380568,1.516961,5.930718,2.811144
1006.601562,-1.698816,-2.558115,3.616763,3.191930
1006.605469,2.090149,1.695724,2.453908,2.774159
1006.609375,12.544916,4.359865,11.439066,10.036342
1006.613281,9.086505,10.426802,6.387525,5.918927
1006.617188,9.808247,7.843675,6.710413,6.767737
1006.621094,6.986744,14.330548,12.472540,4.743861
1006.625000,17.035366,8.971562,10.637131,10.383602
1006.628906,11.975939,8.607092,8.288486,11.241384
1006.632812,3.171558,9.411622,10.220305,10.089445
1006.636719,17.752625,9.832210,7.920736,7.015097
1006.640625,14.141612,10.671821,7.156267,1.870380
1006.644531,12.432873,8.086472,6.259957,-2.203857
1006.648438,-0.995072,6.296066,7.808757,-1.057266
1006.652344,-1.966973,-0.912904,3.221412,-7.442112
1006.656250,8.414757,-8.075523,-6.095566,-10.035104
1006.660156,-5.740759,-0.887568,-7.010948,-2.638375
1006.664062,-8.827566,-8.434018,-12.720459,-7.402377
1006.667969,-10.254980,-4.322987,-10.900878,-9.845758
1006.671875,-10.552896,-11.291995,-13.849243,-9.070284
1006.675781,-10.577890,-8.975809,-19.350518,-14.885210
1006.679688,-2.341136,-4.107059,-15.527910,-6.804135
1006.683594,-3.838493,-4.824037,-7.189522,-1.755642
1006.687500,-7.129715,-4.234763,-3.260946,-14.091232
1006.691406,-6.455088,-8.440559,-8.708249,-10.605534
1006.695312,-3.648102,-2.003819,-9.131934,-13.351566
1006.699219,4.061573,1.264466,-4.658769,1.393382
1006.703125,-2.129024,8.772758,0.360714,7.233389
1006.707031,2.542928,5.512024,-6.113487,2.366565
1006.710938,5.394871,4.028999,-2.387240,7.160908
1006.714844,9.581145,8.796554,5.785619,13.058967
1006.718750,9.827701,9.486283,18.650988,8.093671
1006.722656,7.591429,10.306130,5.402768,6.611705
1006.726562,8.576926,10.722880,10.381999,13.377116
1006.730469,4.554744,14.928296,15.616827,11.155787
1006.734375,7.845374,15.766681,14.343862,-0.109863
1006.738281,3.435748,4.431144,8.705777,5.754239
1006.742188,4.831112,7.161210,2.274833,3.936949
1006.746094,2.256427,-1.896715,4.562876,-2.174597
1006.750000,-0.721401,-0.907172,3.736004,-5.519949
1006.753906,0.301625,1.247181,-4.434720,-2.676254
1006.757812,-5.158211,1.055152,-5.291267,-5.048996
1006.761719,-8.630954,-3.292381,-6.127589,-4.568315
1006.765625,-5.258074,-4.240788,1.349733,-8.956433
1006.769531,-9.027258,-8.622578,-6.269706,-12.377962
1006.773438,-11.420202,-10.313856,-13.182279,-13.925460
1006.777344,-13.846151,-6.170270,-7.084567,-7.193723
1006.781250,-6.020330,-6.978108,-11.877966,-13.084089
1006.785156,-11.059988,-6.153616,1.431466,-7.212087
1006.789062,-1.437238,-8.391300,-14.878593,-4.909204
1006.792969,1.812631,-4.766626,-3.622959,1.825186
1006.796875,-8.361706,3.518442,0.752659,-1.250166
1006.800781,-2.951968,-1.089107,-0.139397,-3.161157
1006.804688,4.805768,11.343647,7.675663,3.135260
1006.808594,6.637755,7.317415,1.373900,7.179729
1006.812500,13.066261,6.618543,2.218723,9.811562
1006.816406,7.596537,12.788411,3.991608,12.459767
1006.820312,11.782653,8.402812,11.238477,13.235241
1006.824219,8.584499,7.912416,7.134179,3.933565
1006.828125,8.591577,9.831276,11.877162,6.451248
1006.832031,6.838710,6.412218,8.954294,13.497454
1006.835938,4.502307,6.624814,0.336471,3.171896
1006.839844,11.324570,5.473170,-0.572117,7.173778
1006.843750,0.396392,0.949566,1.731557,3.511702
1006.847656,-0.097590,2.828266,5.567626,8.421153
1006.851562,-6.045288,2.252719,-0.065183,-6.537658
1006.855469,4.875746,-12.786615,-5.370286,2.905827
1006.859375,-7.415887,-6.547307,-0.120208,-3.953592
1006.863281,-7.567733,-3.978888,-11.346790,-8.200343
1006.867188,-10.127413,-15.918261,-11.047652,-13.350087
1006.871094,-11.374899,-9.459679,-10.695578,-7.746823
1006.875000,-12.421432,-13.465850,-7.519848,-10.951774
1006.878906,-13.739482,-14.395608,-11.501840,-13.603061
1006.882812,-10.605124,-14.629845,-6.403255,-7.047121
1006.886719,-4.247032,-4.900735,-6.162234,-6.205017
1006.890625,-12.991905,-6.734109,-6.893035,-7.188929
1006.894531,-12.772018,-2.816313,-0.655536,0.928361
1006.898438,3.792938,-2.737446,0.596607,-0.858989
1006.902344,-1.564791,5.615369,0.801869,0.708827
1006.906250,4.872082,6.563908,5.287032,6.581703
1006.910156,-0.037786,3.646119,9.087109,6.125061
1006.914062,2.084236,0.550826,2.456889,3.219541
1006.917969,1.172852,9.211778,9.736183,12.580947
1006.921875,15.551006,13.358101,16.450231,15.713436
1006.925781,14.578660,2.829985,11.597856,8.107292
1006.929688,9.107847,9.357056,14.478108,7.008203
1006.933594,14.586459,5.220617,10.633243,4.263945
1006.937500,5.406622,13.532678,3.099331,6.255661
1006.941406,-0.074525,7.077105,4.736606,-0.432721
1006.945312,8.679068,0.599612,-0.159440,7.292859
1006.949219,-2.018674,0.044271,-2.480162,1.026503
1006.953125,3.013363,-5.777563,2.584111,-4.193846
1006.957031,-9.557659,-3.291072,-5.570907,-5.097026
1006.960938,-4.352836,-2.942384,-2.927996,-7.088540
1006.964844,-10.331024,-4.648784,-3.465106,-4.593910
1006.968750,-3.359887,-9.010563,-13.661110,-6.111949
1006.972656,-15.025994,-6.907948,-10.884771,-9.601108
1006.976562,-13.404271,-13.820167,-10.140830,-5.912810
1006.980469,-7.565234,-14.039125,-0.237812,-10.874523
1006.984375,-3.690165,-8.072763,-4.173441,-2.701222
1006.988281,-9.869601,-10.138544,-11.104881,-15.398636
1006.992188,-0.533919,-2.174730,-8.114455,-14.618140
1006.996094,-7.088658,-9.497179,1.629234,5.426100
1007.000000,1.590645,-3.683538,5.741835,2.340770
1007.003906,12.911464,5.877426,1.880891,-1.563330
1007.007812,1.469374,-1.227531,7.963805,3.813180
1007.011719,2.919464,7.939789,13.354524,8.236977
1007.015625,8.258373,7.018243,15.318204,11.451384
1007.019531,5.867140,12.593679,4.783926,8.824189
1007.023438,13.033737,5.217099,9.423797,2.426513
1007.027344,10.879963,10.736410,15.803598,-1.612100
1007.031250,8.545959,12.720660,8.320401,6.749295
1007.035156,10.739733,13.160112,13.754302,11.468923
1007.039062,10.120790,-0.671543,4.758364,6.252289
1007.042969,10.628394,7.228626,5.723759,3.529114
1007.046875,-3.441184,11.723990,-2.792005,-1.693345
1007.050781,-3.280793,-1.983203,0.923876,-5.070230
1007.054688,-2.619789,-8.889815,-3.185182,-2.192476
1007.058594,-3.201394,1.581932,-2.022141,-1.571347
1007.062500,-9.273444,-3.027065,-0.595230,-2.519981
1007.066406,-1.977644,-5.137050,-6.462965,-5.432712
1007.070312,-6.891736,-9.729164,-8.924212,-14.899175
1007.074219,-12.243656,-8.235378,-9.628913,-13.037099
1007.078125,-5.187329,-20.180125,-8.444678,-5.811982
1007.082031,-11.615174,-12.169466,-7.268013,-5.263340
1007.085938,-7.525557,-10.394030,-8.037312,-13.424265
1007.089844,-1.282635,-0.629056,-7.740809,-3.900730
1007.093750,-10.642739,-6.314708,-8.814862,-2.074486
1007.097656,4.159531,-1.474021,-9.522128,-0.565923
1007.101562,-2.102363,9.136620,1.072216,0.136643
1007.105469,2.476794,11.937182,-3.922741,3.825432
1007.109375,2.203366,3.658798,8.290674,0.572156
1007.113281,5.153819,8.093808,11.200469,11.092690
1007.117188,5.325440,12.696907,5.861917,6.754928
1007.121094,8.801678,5.831452,5.291230,15.848189
1007.125000,7.046224,10.159013,15.802767,7.665342
1007.128906,5.994760,10.163473,7.344134,7.918066
1007.132812,11.520626,9.856918,8.172386,5.346555
1007.136719,-1.188889,7.727843,4.922843,4.717686
1007.140625,2.559906,1.921211,6.524401,-5.716779
1007.144531,0.897947,6.775071,6.058608,0.945073
1007.148438,-1.190342,-3.024701,-6.668720,1.746866
1007.152344,-1.434173,1.940540,-3.926134,-2.316751
1007.156250,-1.266003,-9.752254,-6.837100,-3.608011
1007.160156,-6.337946,-11.794781,-10.554770,-3.435111
1007.164062,-9.107572,-13.368905,-10.177516,-12.202176
1007.167969,-10.545716,-11.362580,-7.538498,-8.694476
1007.171875,-13.198718,-12.285095,-9.603389,-10.936925
1007.175781,-10.168724,-3.043753,-3.082577,-12.022053
1007.179688,-10.492375,-7.427834,-7.785978,-12.816288
1007.183594,-3.768287,-6.596446,-4.375332,-6.250900
1007.187500,-3.944279,-13.821280,-7.965188,-13.186828
1007.191406,-1.196260,0.562966,2.141696,-4.403488
1007.195312,-5.890470,-5.288220,-1.555948,1.249883
1007.199219,-0.481191,-4.707471,-6.417637,-4.300988
1007.203125,0.701656,6.136921,7.694227,3.624457
1007.207031,4.881682,-0.306022,6.193235,8.357408
1007.210938,12.936144,-0.085559,1.046486,15.789539
1007.214844,10.045315,9.112560,9.491820,3.827745
1007.218750,10.871535,10.128156,13.705857,13.468034
1007.222656,10.342712,7.701257,8.285424,2.175846
1007.226562,7.518657,10.983546,11.961023,14.280313
1007.230469,19.542929,5.602599,1.000105,6.506814
1007.234375,11.711225,7.523030,12.191815,8.891667
1007.238281,7.479596,5.455057,3.336914,8.604979
1007.242188,1.544962,1.706089,1.925095,1.727105
1007.246094,2.117755,9.082064,3.284241,-4.975275
1007.250000,-2.117367,-8.185253,-2.033370,2.689999
1007.253906,0.683608,-2.092045,-3.222121,-4.106712
1007.257812,-10.346933,-9.047010,-2.691553,6.530060
1007.261719,-2.290695,-3.784634,-6.320787,-5.303230
1007.265625,-3.817492,-11.398117,-6.862750,-10.694230
1007.269531,-4.133286,-4.587459,-8.192836,-12.864440
1007.273438,-6.196377,-3.999534,-8.943208,-7.918978
1007.277344,-10.124107,-7.288030,-6.892058,-8.228360
1007.281250,-10.371772,-9.308740,-12.493331,-6.209083
1007.285156,-14.718108,-18.818246,-7.306923,-12.965351
1007.289062,-4.067586,-2.948060,-11.221299,-3.412872
1007.292969,-0.302292,-8.787049,-1.838603,-11.728704
1007.296875,-5.089029,-0.239966,2.745738,-4.796025
1007.300781,3.690448,3.014072,-5.836484,-5.315601
1007.304688,1.133100,1.962158,6.047331,-0.405931
1007.308594,2.160293,0.906607,8.239491,6.716841
1007.312500,6.205303,8.800118,4.366037,11.306191
1007.316406,7.497501,5.655748,7.728369,15.076377
1007.320312,5.386958,8.916548,9.724584,11.670365
1007.324219,9.735876,14.251961,10.366073,16.234268
1007.328125,10.476593,5.261470,7.599374,6.774603
1007.332031,9.331995,10.723813,9.645260,8.436900
1007.335938,6.391446,7.381374,7.930470,5.733834
1007.339844,2.880471,2.355012,0.446996,8.677888
1007.343750,2.439360,-1.155920,-2.882292,1.403732
1007.347656,0.211559,3.655393,3.273806,3.674309
1007.351562,-0.677823,-1.356450,1.490413,-1.911123
1007.355469,0.680178,-3.965088,-9.794839,-3.766206
1007.359375,-9.874686,-5.021551,-3.918149,-9.566533
1007.363281,-3.538003,-7.790011,-13.435218,-9.609384
1007.367188,-8.833219,0.378472,-11.485973,-5.523255
1007.371094,-10.103675,-9.705780,-11.484178,-13.489213
1007.375000,-21.960584,-12.247534,-18.125678,-16.116277
1007.378906,-3.932947,-10.697251,-2.755648,-3.643254
1007.382812,-11.918277,-8.352123,-9.132464,-9.784881
1007.386719,-14.695375,-8.537619,-0.907745,-8.447847
1007.390625,-12.587153,-7.120830,-4.506959,-10.354752
1007.394531,0.536090,-2.305395,-4.091788,1.221943
1007.398438,6.409601,-1.863291,-7.366276,-1.121692
1007.402344,2.765977,2.151562,0.812679,0.583362
1007.406250,5.287108,0.913689,7.767487,6.153779
1007.410156,9.124239,4.992236,1.423054,6.983915
1007.414062,7.139102,6.756307,14.342278,5.857624
1007.417969,11.908022,4.345756,1.336277,5.775247
1007.421875,15.433524,3.281298,10.471402,7.430832
1007.425781,2.522784,9.243055,12.787464,7.828425
1007.429688,9.717878,7.810607,7.500658,12.439509
1007.433594,6.709651,11.354224,15.995941,6.681020
1007.437500,10.353168,4.445496,0.551605,10.807596
1007.441406,3.840366,6.384061,6.092386,6.098015
1007.445312,1.548922,7.389136,4.685971,0.075691
1007.449219,4.385498,1.090300,2.621067,2.829152
1007.453125,4.673757,-2.894407,-0.724874,-1.210694
1007.457031,-1.385070,-2.323853,-0.105773,-3.463633
1007.460938,-8.104155,-4.427923,-12.225581,-4.767909
1007.464844,-5.934080,-6.809796,-8.533500,-16.739104
1007.468750,-7.670607,-11.955296,-1.473063,-3.282928
1007.472656,-7.198292,-4.690575,-2.690672,-12.465499
1007.476562,-10.504427,-7.424616,-16.614821,-12.956020
1007.480469,-1.154844,-13.034896,-9.222990,-11.240908
1007.484375,-6.849055,-4.442527,-5.212781,-8.929895
1007.488281,1.386782,-9.145214,-0.124045,-11.883309
1007.492188,-0.417464,-7.356941,-5.614738,-3.532840
1007.496094,-3.728908,6.880361,-5.897684,2.342756
1007.500000,2.421487,6.320930,0.210690,7.272083
1007.503906,6.568347,3.013189,7.347056,6.421820
1007.507812,-2.600951,11.530686,1.361996,0.376970
1007.511719,4.888449,11.494094,8.585393,4.037320
1007.515625,1.077820,8.984488,15.921215,11.366123
1007.519531,9.298057,5.847512,5.639253,14.080052
1007.523438,17.049491,5.211588,6.957996,4.267023
1007.527344,5.580171,7.666995,18.328486,7.184988
1007.531250,10.153962,6.541589,6.380300,4.110332
1007.535156,6.614513,9.701522,7.450491,7.112371
1007.539062,5.739657,9.492839,4.312806,3.903052
1007.542969,2.740776,2.891292,1.960959,6.409337
1007.546875,-2.330439,4.011186,2.454315,6.216032
1007.550781,0.463006,-1.515030,-0.566521,-7.786026
1007.554688,-12.032959,-7.017680,5.270806,3.036412
1007.558594,-4.177053,-0.466509,-7.589554,-5.840127
1007.562500,-17.606308,-7.483450,-4.217991,-8.626317
1007.566406,-9.206717,-4.819835,-8.738257,-9.224653
1007.570312,-12.074347,-7.904403,-10.817529,-9.998732
1007.574219,-7.355511,-13.826256,-8.354290,-6.695615
1007.578125,-15.905626,-2.972627,-3.254321,-8.503350
1007.582031,-14.956961,-6.542953,-3.368209,-9.575265
1007.585938,-6.724836,-12.595756,-5.473124,-11.076688
1007.589844,-1.116619,-9.084504,-3.599039,-7.758935
1007.593750,1.094762,-3.930124,-1.482623,-4.634280
1007.597656,6.486012,-6.930074,0.082622,1.765852
1007.601562,-1.300500,-6.916448,2.835204,-4.191123
1007.605469,8.051251,4.511397,-0.866436,4.960848
1007.609375,3.376322,-1.236490,0.238350,6.425101
1007.613281,4.997082,4.213884,11.100151,5.415617
1007.617188,13.293945,11.970040,15.488098,10.173878
1007.621094,13.768557,3.671152,11.340696,6.660711
1007.625000,3.244688,15.166895,15.908234,7.680288
1007.628906,5.441903,11.021931,7.319865,12.746556
1007.632812,4.576880,4.039852,11.932942,8.994226
1007.636719,9.722576,6.974996,15.627240,10.062675
1007.640625,8.160346,7.843148,-1.831918,8.597814
1007.644531,-2.826569,2.754053,2.637223,0.623752
1007.648438,5.788189,1.744591,5.104800,4.778523
1007.652344,-1.951725,-6.456881,-4.082737,3.266536
1007.656250,-5.341527,-2.850893,0.637834,1.498131
1007.660156,-4.304968,-7.025497,-3.247974,0.660281
1007.664062,-6.259095,-7.445017,-3.656575,-8.540030
1007.667969,-17.289776,-5.974051,-10.576905,-19.297227
1007.671875,-5.852791,-10.662732,-16.925506,-13.188645
1007.675781,-12.141748,-13.609973,-13.338578,-15.188439
1007.679688,-12.133982,-14.331396,-10.278562,-7.146887
1007.683594,-4.950345,-6.494102,-0.857618,-9.737159
1007.687500,-6.343831,-6.265780,-17.041865,-7.924473
1007.691406,-1.949381,-0.707707,-1.316333,-1.898717
1007.695312,-6.719528,2.504311,-6.354404,-3.819088
1007.699219,1.693613,0.878075,0.229842,3.492134
1007.703125,5.576866,-0.046336,-5.047022,2.304463
1007.707031,3.788749,8.915124,-2.720026,-0.730560
1007.710938,13.984146,9.814706,3.430893,2.509075
1007.714844,6.895557,3.646382,9.472429,7.360376
1007.718750,5.639125,9.519992,5.280483,9.615885
1007.722656,11.121826,11.411507,10.726797,17.236292
1007.726562,9.497030,15.852097,9.472106,13.318500
1007.730469,8.790103,11.792127,6.195340,8.660299
1007.734375,5.343207,11.417681,9.377362,5.874271
1007.738281,5.942454,7.424149,5.222884,14.993403
1007.742188,4.439021,1.936237,-0.416547,5.469089
1007.746094,1.201923,3.314760,-1.355848,0.226396
1007.750000,4.969187,-2.009175,0.852962,6.951062
1007.753906,-0.618942,-4.331683,-9.731565,0.924302
1007.757812,-7.709302,-0.190823,-6.604563,-6.957017
1007.761719,-0.180897,-10.283359,-4.027761,-10.950945
1007.765625,-2.361527,-11.517725,-11.722472,-7.620933
1007.769531,-9.078698,-8.891987,-15.277684,-13.185618
1007.773438,-11.834882,-7.369462,-10.260998,-16.151708
1007.777344,-11.743021,-15.881343,-6.663995,-9.545577
1007.781250,-3.000472,-4.606743,-8.333040,-6.109303
1007.785156,-10.056497,-8.789840,-5.499173,-4.626787
1007.789062,-10.633445,-15.950447,-5.302171,-3.446926
1007.792969,-4.979493,-1.061079,-11.426584,1.185141
1007.796875,-0.310543,-4.694693,-6.229223,-5.058011
1007.800781,4.496086,4.239924,-1.235787,-2.168377
1007.804688,5.994619,1.655804,4.751272,2.779095
1007.808594,-0.543517,-3.996550,3.755360,8.869636
1007.812500,3.693443,4.016627,6.386999,11.031039
1007.816406,2.271305,14.114237,11.954461,5.419529
1007.820312,7.748304,13.692246,13.706543,8.796803
1007.824219,15.090760,4.580946,11.113160,10.545316
1007.828125,5.740624,8.240317,15.726635,4.664727
1007.832031,8.489581,16.373390,6.713913,4.781765
1007.835938,13.654071,5.849339,9.478361,7.465716
1007.839844,2.503687,5.255626,4.455998,5.083136
1007.843750,-6.547412,11.904782,6.622056,4.426022
1007.847656,-4.034018,-3.789369,1.029111,-0.072882
1007.851562,-4.619001,5.039551,3.316775,6.536552
1007.855469,-0.553352,-3.150683,0.071401,-3.077702
1007.859375,-7.634837,-6.285825,-2.658195,-3.037934
1007.863281,-6.168009,-5.519892,-6.039984,-12.594873
1007.867188,-8.668910,-15.428760,-9.483121,-9.221957
1007.871094,-8.845779,-9.552369,-13.009644,-7.768334
1007.875000,-9.060038,-11.550803,-13.741140,-7.108106
1007.878906,-9.651552,-7.816492,-7.986151,-13.042658
1007.882812,-9.158969,-13.855402,-6.434562,-8.668815
1007.886719,-2.879251,-13.146731,-8.563271,-6.742466
1007.890625,2.248424,-12.224748,-0.794577,-1.821962
1007.894531,-9.202395,-4.232754,-11.363319,-3.594535
1007.898438,1.615129,-1.799039,-2.046099,-2.068607
1007.902344,-1.549140,5.174968,-0.874462,-0.500121
1007.906250,4.009500,8.910246,11.230244,2.597311
1007.910156,9.104592,4.686416,6.397143,4.819634
1007.914062,8.303385,8.128320,2.415859,4.535719
1007.917969,5.961238,11.651180,16.144456,12.402938
1007.921875,16.282138,6.188066,7.470900,11.369646
1007.925781,7.986845,5.397568,11.060438,0.673274
1007.929688,3.140462,9.282605,11.485011,12.887049
1007.933594,5.689587,9.970702,9.838702,3.090238
1007.937500,7.334860,8.974500,5.635986,6.314555
1007.941406,3.543016,1.538704,2.692743,3.788678
1007.945312,6.047305,4.045004,0.448960,-5.007523
1007.949219,-4.462990,4.988641,0.356497,1.147229
1007.953125,-3.873189,0.219386,-5.205533,6.595383
1007.957031,1.269661,-4.568345,-0.325123,-7.452338
1007.960938,-3.721567,-10.788158,-4.214911,-3.641984
1007.964844,-9.933633,-9.670539,-8.128288,-2.529779
1007.968750,-9.450997,-3.301464,-8.917531,-9.749456
1007.972656,-6.010707,-12.159526,-11.722171,-14.288182
1007.976562,-6.760844,-8.586488,-12.041587,-6.090592
1007.980469,-5.109023,-9.926169,-11.789836,-14.401871
1007.984375,-9.506320,-5.720332,-12.105868,-10.982503
1007.988281,2.436930,-13.494025,-4.053078,-5.514783
1007.992188,-9.961099,-9.911789,-5.162429,-1.289722
1007.996094,-7.965502,-0.502923,-3.419159,-6.098908
1008.000000,-2.762746,-2.016723,1.538058,3.314801
1008.003906,0.568242,3.640557,4.754053,1.184534
1008.007812,3.035303,0.838915,4.630279,-1.090574
1008.011719,8.122319,10.006963,8.466023,13.198628
1008.015625,3.270590,11.470777,16.366609,12.672282
1008.019531,9.756286,7.547099,0.607559,9.232195
1008.023438,9.750288,10.945581,9.090518,7.469331
1008.027344,14.077750,6.530740,9.208042,9.159822
1008.031250,9.793885,13.407483,4.325334,7.604453
1008.035156,16.608871,3.898759,4.732044,15.758650
1008.039062,8.739846,7.704680,11.481736,3.424006
1008.042969,-2.016566,7.814249,7.495223,-2.853611
1008.046875,2.484485,6.708427,-0.110120,6.221355
1008.050781,-1.301184,0.028253,-1.640264,4.030831
1008.054688,-8.715024,-6.163584,-2.348904,-6.443009
1008.058594,-0.492928,-7.631251,-1.360575,-6.081437
1008.062500,-5.343004,-10.568029,-14.080509,-4.974954
1008.066406,-4.656540,-11.083442,-10.895526,-11.069119
1008.070312,-9.874965,-6.967442,-17.177862,-13.345757
1008.074219,-16.672002,-7.075905,-3.861028,-7.662982
1008.078125,-12.188696,-5.792978,-9.530640,-8.614112
1008.082031,-11.198134,-13.373339,-7.099527,-16.355082
1008.085938,-6.982573,-7.235251,-8.305661,-8.661459
1008.089844,-2.509441,-9.586407,-9.291779,-8.445512
1008.093750,-9.454620,0.723656,2.282213,-7.523302
1008.097656,3.348055,-0.628433,2.310623,-3.546810
1008.101562,-3.332426,7.576471,1.916212,-1.071123
1008.105469,4.138298,0.443461,-0.502921,1.456049
1008.109375,-0.440300,7.516172,3.634871,11.203443
1008.113281,3.987989,5.735478,4.199026,3.741172
1008.117188,1.813207,13.266499,4.239287,8.743750
1008.121094,11.234935,11.723673,3.252562,6.572986
1008.125000,2.280433,8.632303,9.615896,17.391163
1008.128906,12.683241,9.062629,6.134073,11.323481
1008.132812,10.278926,7.450337,17.101512,4.980349
1008.136719,9.992725,4.585587,4.828419,12.350201
1008.140625,8.841663,8.142053,4.575798,3.733477
1008.144531,3.196469,8.711199,8.529691,11.529963
1008.148438,10.286943,6.732341,-9.761500,2.511210
1008.152344,-5.153073,-0.189416,5.636043,3.141736
1008.156250,0.002875,-2.370031,-1.725545,-2.186794
1008.160156,-4.446565,-6.841538,-11.260587,0.862154
1008.164062,-1.390072,-9.621455,-8.861652,-9.885438
1008.167969,-5.539987,-10.151327,-9.794308,-7.850087
1008.171875,-17.749648,-6.555427,-2.315040,-19.031959
1008.175781,-17.402483,-5.392853,-14.095031,-14.009754
1008.179688,-14.789092,-10.998740,-5.779573,-9.674940
1008.183594,-8.261898,-12.467238,-10.462525,-3.692967
1008.187500,-9.926605,-4.686456,-6.073277,-4.462027
1008.191406,0.373461,-9.024543,-2.364807,-0.682510
1008.195312,-3.870985,0.512160,2.333108,-2.581168
1008.199219,-9.007348,-1.984912,-0.140957,4.599401
1008.203125,-2.869755,0.793748,-3.759140,8.879093
1008.207031,2.374396,2.475143,0.491521,6.688864
1008.210938,12.569391,10.105056,5.066031,12.165601
1008.214844,4.048933,6.343645,9.291628,6.136284
1008.218750,3.758100,7.788626,7.048007,3.890204
1008.222656,12.535307,1.078176,4.430192,5.640813
1008.226562,4.193225,16.932561,7.553874,12.465582
1008.230469,7.909904,9.576359,2.887959,18.206747
1008.234375,10.864148,1.513445,12.655683,1.188082
1008.238281,4.495533,-0.068894,4.165272,5.753344
1008.242188,10.843707,1.829781,1.686328,7.953927
1008.246094,-2.014528,4.947104,0.439318,0.698698
1008.250000,0.947019,8.654460,-8.978314,1.395583
1008.253906,-2.648215,-14.373084,-3.975370,-5.554330
1008.257812,-8.004429,-1.400191,-5.500941,-0.140265
1008.261719,-0.498916,-3.370450,-6.375418,-6.319664
1008.265625,-0.982920,-2.761436,-7.815271,-8.878662
1008.269531,-10.596361,-12.122700,-14.390158,-13.925545
1008.273438,-17.173370,-13.539141,-11.367789,-10.584200
1008.277344,-12.205151,-11.908885,-8.166980,-15.136568
1008.281250,-17.384427,-3.379359,-8.664490,-11.274722
1008.285156,-1.890552,-10.585759,1.763025,-14.863304
1008.289062,0.740732,-7.000717,-4.728126,-13.292445
1008.292969,-8.016780,-7.087971,-3.357672,-3.935380
1008.296875,-7.361355,-2.211697,-1.362148,0.690500
1008.300781,-4.658285,-0.822231,1.299734,-3.615021
1008.304688,4.478259,7.203037,-0.948827,0.822370
1008.308594,2.856333,14.386462,5.786835,6.932240
1008.312500,5.167929,2.995245,5.309203,11.038405
1008.316406,3.003525,6.849815,12.563270,5.578496
1008.320312,11.928003,4.692545,5.285868,7.928372
1008.324219,13.874550,4.086252,16.156401,12.067938
1008.328125,8.922308,9.481639,12.807506,8.958737
1008.332031,13.618012,7.502980,6.014311,10.085333
1008.335938,8.962184,5.564796,5.360878,9.183390
1008.339844,4.761738,8.258502,3.226386,0.113062
1008.343750,-2.332792,4.792573,5.031881,10.395160
1008.347656,3.465328,-0.967710,-1.704353,2.045751
1008.351562,-1.147561,-3.216061,8.415308,-5.509269
1008.355469,-1.529092,-4.697040,-5.824365,-2.402967
1008.359375,-9.596408,-7.696506,-15.960336,-10.154539
1008.363281,-2.362442,-7.564431,-3.789619,-8.336585
1008.367188,-7.120667,-9.770675,-12.116075,-12.945912
1008.371094,-11.834040,-15.940887,-7.175688,-10.269972
1008.375000,-15.132900,-6.786679,-12.724215,-8.894882
1008.378906,-13.198290,-2.676194,-12.842761,-7.945894
1008.382812,-10.977264,-6.696621,-9.848286,-6.848483
1008.386719,-6.110153,-6.984636,-3.307719,-4.398977
1008.390625,-0.767028,-8.209801,-3.140868,-0.994238
1008.394531,-2.814214,-2.543401,0.804336,-4.397103
1008.398438,2.247544,-2.969395,2.644871,-2.623327
1008.402344,-2.526904,-2.834435,1.286299,0.593139
1008.406250,7.164209,2.088244,3.439808,2.144002
1008.410156,9.574298,7.777545,-1.021123,3.225308
1008.414062,4.430337,5.326031,14.146637,1.961042
1008.417969,11.345952,8.867875,7.525695,5.090497
1008.421875,4.850869,10.449702,10.844008,1.828443
1008.425781,7.911621,12.286816,11.516145,2.419768
1008.429688,2.710189,9.358892,5.089757,7.864301
1008.433594,8.479342,5.699954,19.854001,6.809828
1008.437500,4.605754,5.101420,13.694294,5.675575
1008.441406,7.900347,-0.791116,6.581941,3.896707
1008.445312,8.434674,6.326678,-4.871807,0.819741
1008.449219,0.250129,-0.008950,0.072778,4.218385
1008.453125,-1.541471,-0.614215,-8.904073,-6.724074
1008.457031,-4.581661,-6.159152,-0.847926,-4.805235
1008.460938,-7.358412,-2.418628,-6.562909,-9.008783
1008.464844,-7.128004,-8.896208,-9.994537,-6.578334
1008.468750,-13.720797,-14.697926,-11.862069,-5.606847
1008.472656,-7.552739,-7.948190,-5.318971,-19.324417
1008.476562,-6.191209,-12.755700,-7.093367,-13.639535
1008.480469,-5.036880,-5.789052,-3.976309,-11.347423
1008.484375,-11.335446,-5.491706,-4.838859,-2.764837
1008.488281,-11.841765,-4.526483,-5.395335,-2.382400
1008.492188,-3.604297,7.242268,3.098301,-0.315393
1008.496094,-5.625470,-3.569519,-5.282468,-0.937543
1008.500000,-0.919590,5.446208,-4.370055,-7.171392
1008.503906,4.023519,5.592517,5.388219,5.024279
1008.507812,4.298760,-0.604225,0.354105,7.604130
1008.511719,5.697674,3.700780,11.734096,4.302191
1008.515625,4.588361,6.759603,4.657966,1.860256
1008.519531,12.981421,7.877721,4.917158,6.263869
1008.523438,9.754512,7.802649,11.540533,12.054031
1008.527344,4.819528,1.538394,4.939425,10.730429
1008.531250,14.573261,11.854471,6.460239,10.432234
1008.535156,10.849158,11.392838,4.644069,13.321051
1008.539062,7.897437,5.797938,2.070231,7.437491
1008.542969,0.498661,1.193094,9.146503,1.694032
1008.546875,1.073879,1.390433,5.812037,2.313970
1008.550781,-3.841886,1.353543,-8.765071,-9.123612
1008.554688,5.441802,-3.687968,-3.080874,-4.286520
1008.558594,-7.505916,-0.569597,-5.717913,-8.999102
1008.562500,-2.019059,-12.840668,-5.610066,-2.417270
1008.566406,-6.343082,-1.947429,-6.522008,-13.806597
1008.570312,-5.712671,-11.474726,-4.802523,-9.963896
1008.574219,-14.422167,-17.916322,-3.429796,-17.205022
1008.578125,-11.016493,-7.686097,-20.637479,-11.190633
1008.582031,-7.465868,-11.921877,-6.486450,-10.454385
1008.585938,-17.530068,-6.902137,-8.772535,-12.317016
1008.589844,-0.482343,-9.033062,-7.780298,-5.772060
1008.593750,-7.889029,-5.981592,-0.499612,-0.123351
1008.597656,-5.984552,-4.845646,3.152065,-0.827258
1008.601562,2.977745,-0.410113,2.470354,1.209678
1008.605469,0.275718,6.670362,5.016131,4.304318
1008.609375,8.712071,4.550735,9.843779,4.423151
1008.613281,2.485019,5.631441,12.500860,9.640409
1008.617188,8.702885,6.097244,5.699359,8.417708
1008.621094,20.560206,14.747014,10.433219,13.524459
1008.625000,15.394683,13.034429,12.974578,12.605417
1008.628906,10.746770,8.262525,8.866949,10.951651
1008.632812,5.570955,10.744040,9.030459,5.006251
1008.636719,14.386171,11.034634,7.171374,3.553852
1008.640625,7.756640,4.848875,-0.505637,10.180418
1008.644531,5.507898,-0.440776,4.854643,4.130168
1008.648438,-5.621158,-2.958316,-1.171265,8.593722
1008.652344,-3.818183,-9.267350,-2.774838,1.582161
1008.656250,-6.058038,-8.480028,-14.145326,-0.547381
1008.660156,-10.822777,-7.587532,-3.833918,-8.993352
1008.664062,-5.500546,-11.382409,-6.620806,-10.215516
1008.667969,-8.433802,-6.655694,-13.565853,-5.871936
1008.671875,-10.506898,-8.153451,-11.131683,-12.686937
1008.675781,-17.994547,-6.964866,-15.863970,-12.379680
1008.679688,-6.351534,-11.556084,-5.579649,-2.643566
1008.683594,-12.332094,-9.594294,-13.062856,-3.906940
1008.687500,-5.755810,-12.388244,-5.666181,-4.876783
1008.691406,1.648138,-3.236446,-6.705703,-5.836060
1008.695312,-4.275389,-8.780503,-3.027472,2.407846
1008.699219,1.819494,-0.384674,-0.286404,0.535686
1008.703125,7.125363,-7.635250,1.838776,4.835590
1008.707031,3.622587,9.538851,6.348240,8.365163
1008.710938,9.754440,14.064001,2.257322,13.153778
1008.714844,10.623910,7.561854,16.249713,12.162585
1008.718750,12.298204,9.833130,3.036630,12.438934
1008.722656,13.393019,12.155876,5.781922,14.396948
1008.726562,12.951240,3.687671,7.029328,12.197151
1008.730469,12.224325,10.366261,9.784965,15.079432
1008.734375,6.994283,13.376201,6.591674,2.300036
1008.738281,6.427385,11.501925,3.130682,8.860018
1008.742188,3.619944,10.729429,5.410929,4.243146
1008.746094,2.474083,5.242170,-7.256694,-0.767652
1008.750000,-0.947365,3.368978,3.930718,2.857049
1008.753906,2.788515,-0.483787,-7.753186,4.228293
1008.757812,-9.840643,-3.359845,1.171711,3.462395
1008.761719,-7.796419,-6.152115,-0.390093,-13.679494
1008.765625,-5.542838,-15.664367,-6.076283,-9.534593
1008.769531,-5.838798,-11.283355,-2.514520,-16.887612
1008.773438,-6.580137,-9.169644,-8.605484,-13.122852
1008.777344,-10.891328,-8.744483,-10.236043,-5.026390
1008.781250,-2.864235,-6.443053,-7.060662,-11.329495
1008.785156,-13.142306,-3.726924,-10.737959,-12.494037
1008.789062,-5.585337,-11.067422,-5.063461,-7.616411
1008.792969,-1.382004,0.730288,-2.254432,-4.294645
1008.796875,3.577661,2.782997,-2.685387,5.826422
1008.800781,-6.761630,0.184251,1.374113,-3.133119
1008.804688,0.289273,-5.546571,3.702472,1.737002
1008.808594,14.605471,6.742609,5.147412,2.083314
1008.812500,8.797262,8.470288,12.404318,4.445386
1008.816406,11.962864,1.973439,7.579179,15.005562
1008.820312,9.762814,9.478599,12.149034,10.618830
1008.824219,9.709037,9.316215,10.285739,9.150341
1008.828125,15.250103,10.746780,8.393473,11.499665
1008.832031,9.253497,9.972922,-0.701330,10.367281
1008.835938,10.065571,9.941799,3.384101,18.496586
1008.839844,3.658789,-3.791429,3.629343,5.135576
1008.843750,3.749815,3.768261,-0.217595,1.997783
1008.847656,6.914059,4.876480,-4.976251,5.366205
1008.851562,1.638296,-4.914174,2.574758,3.383296
1008.855469,-11.888072,-0.946417,-1.416558,-7.633838
1008.859375,1.959873,-10.736114,-11.122389,-11.046445
1008.863281,-7.489624,-18.459698,-13.526764,-4.224898
1008.867188,-1.107676,-14.927778,-7.562752,-1.322540
1008.871094,-7.422138,-12.324821,-5.981567,-5.311759
1008.875000,-12.246525,-10.992092,-12.209910,-10.243841
1008.878906,-4.400972,-0.738856,-13.005146,-4.479048
1008.882812,-12.470987,-0.235883,-6.376916,-6.863706
1008.886719,-10.733035,-7.126673,-8.879335,-16.468691
1008.890625,-4.381819,-3.697469,-4.771438,-5.317728
1008.894531,-3.924339,0.874381,-6.490085,1.274755
1008.898438,2.589446,0.378691,6.363098,4.030326
1008.902344,5.146321,3.527016,-0.288347,-0.322636
1008.906250,7.500612,4.856380,7.024191,2.269122
1008.910156,5.836770,4.088771,0.651148,2.017059
1008.914062,10.528770,8.640387,14.566835,12.801700
1008.917969,7.469441,11.790294,14.279834,8.211828
1008.921875,12.498910,3.560913,8.965539,8.813902
1008.925781,5.373105,5.819684,7.326832,11.466977
1008.929688,6.732239,12.258545,13.634682,11.638596
1008.933594,9.392750,6.301370,7.166477,9.087701
1008.937500,7.668728,12.580134,4.647835,-1.281591
1008.941406,3.450315,6.127236,6.664251,2.202876
1008.945312,9.144333,1.058249,0.237845,0.562131
1008.949219,0.143379,2.334353,1.966061,-3.725405
1008.953125,-5.918433,-2.533086,-6.580486,6.297096
1008.957031,-3.570256,2.067331,-7.540799,-6.000609
1008.960938,-2.882134,-0.609327,-3.900496,-0.873666
1008.964844,-2.366605,-11.637746,-14.528422,-6.172210
1008.968750,-16.753475,-10.930605,-6.039856,-12.067257
1008.972656,-17.782318,-14.092936,-15.539083,-17.803334
1008.976562,-18.976683,-9.909847,-5.122382,-10.409793
1008.980469,-13.143143,-10.513990,-12.656146,-8.399133
1008.984375,-1.864355,-7.155267,-15.563796,-4.911260
1008.988281,-12.673833,-7.208631,-0.050934,-0.544563
1008.992188,-10.023436,1.558192,-11.165172,-3.479546
1008.996094,2.185691,1.910172,-4.501865,-3.888993
1009.000000,6.828460,2.059008,-1.195084,-1.821331
1009.003906,-2.023665,2.745976,-2.642424,3.543285
1009.007812,8.174368,0.687060,2.225194,6.424574
1009.011719,-2.224999,8.010113,2.184964,3.523669
1009.015625,14.148867,10.202644,10.700996,5.043258
1009.019531,6.462635,10.978659,14.734586,11.743890
1009.023438,4.539601,2.500096,15.229872,1.971943
1009.027344,14.421442,3.362457,8.867896,7.095545
1009.031250,12.089215,7.189798,0.486596,11.436634
1009.035156,5.410725,5.280467,1.976583,16.329451
1009.039062,6.745923,0.110048,-0.657402,2.500622
1009.042969,5.309834,1.701933,8.762184,-0.411775
1009.046875,2.486343,1.550427,1.398806,5.601753
1009.050781,-2.960479,7.406382,5.441260,-6.981928
1009.054688,-2.611482,-5.032079,-0.500211,-6.762935
1009.058594,-4.770295,-2.262267,-3.323908,-7.796691
1009.062500,-2.435461,-12.053784,-6.745955,-5.832132
1009.066406,-12.826088,-9.939054,-8.658458,-8.274236
1009.070312,-0.581939,-13.220448,-12.087730,-5.183836
1009.074219,-2.884764,-7.638744,-18.002466,-15.884943
1009.078125,-9.758174,-4.465382,-16.354646,-11.783737
1009.082031,-7.053152,-8.771339,-13.451729,-13.292981
1009.085938,-12.047839,-7.912046,-12.570713,-1.523931
1009.089844,-4.143221,-0.240603,-10.131539,1.013435
1009.093750,-8.674750,-8.236965,-6.232053,1.993738
1009.097656,-11.552933,-3.294880,3.662852,0.585373
1009.101562,4.057921,-1.705382,7.740681,-0.647030
1009.105469,-1.717090,0.466537,8.996550,10.841945
1009.109375,8.481474,8.259144,6.350586,3.224527
1009.113281,13.614186,4.968654,7.594319,3.936877
1009.117188,9.489764,7.128271,9.385862,6.531587
1009.121094,12.275479,7.326063,9.189525,5.883354
1009.125000,10.594830,8.225538,5.088124,6.372941
1009.128906,10.185653,9.267222,6.767673,11.644551
1009.132812,7.267422,10.645880,9.371970,10.040002
1009.136719,11.981168,3.388908,12.486941,4.193433
1009.140625,-1.475559,3.922108,4.774842,3.621330
1009.144531,5.549069,0.818457,4.584004,3.205032
1009.148438,3.589660,0.241198,4.930700,-4.036927
1009.152344,1.785519,-5.842473,4.004036,-0.251116
1009.156250,5.237555,-2.132574,-2.447900,-0.161852
1009.160156,0.007188,-0.910602,-2.987034,-1.168894
1009.164062,-11.766806,-5.999692,-11.089538,-6.112238
1009.167969,-10.253904,-0.681567,-5.463950,-4.505277
1009.171875,-5.855864,-7.276675,-14.450729,-11.850711
1009.175781,-4.786369,-14.851794,-12.328052,-14.451858
1009.179688,-4.082500,-4.811362,-7.709861,-12.970620
1009.183594,-2.072543,-11.822474,-5.030477,-4.502016
1009.187500,-7.153228,-8.444127,-4.524016,-12.020666
1009.191406,-1.801419,-6.297659,-8.409456,-2.730432
