timestamp,TP9,AF7,AF8,TP10
1000.000000,0.338930,7.408819,3.996358,-0.074432
1000.003906,5.425483,-6.683426,7.751156,5.381876
1000.007812,2.171498,11.292864,2.448572,-1.202467
1000.011719,16.910288,6.793577,12.468022,3.748064
1000.015625,3.572634,13.164776,7.553758,6.047750
1000.019531,2.978660,14.726339,11.835980,14.272146
1000.023438,7.191339,11.958682,14.290863,14.177672
1000.027344,8.879360,3.532135,6.784398,15.574636
1000.031250,14.565418,8.440996,6.071630,17.038595
1000.035156,9.365453,10.041269,8.789547,5.425556
1000.039062,12.294359,4.573893,6.332040,12.119678
1000.042969,4.406990,3.269703,4.526979,6.790528
1000.046875,5.754261,8.172468,-2.041219,-11.503510
1000.050781,-6.722456,-0.336107,4.050416,0.546618
1000.054688,2.808895,-6.154751,-7.188152,-8.480722
1000.058594,-4.286622,-6.071099,-9.094444,-3.945620
1000.062500,-0.318445,1.663804,-4.319159,-1.355912
1000.066406,-11.880886,-5.846807,-9.253969,-4.629710
1000.070312,-8.762726,-15.560963,-11.248589,-5.429420
1000.074219,-15.058914,-14.784473,-13.062697,-11.898878
1000.078125,-20.180146,-9.486645,-14.113387,-5.854679
1000.082031,-11.547994,-9.810533,-6.639067,-7.677110
1000.085938,-5.069404,-5.675370,-4.609223,-6.206469
1000.089844,-8.084015,-2.893520,-5.596964,-11.707784
1000.093750,-5.488411,-7.447922,2.625094,-3.825409
1000.097656,-0.845640,-7.783453,-12.247614,2.283227
1000.101562,2.910937,10.233411,0.063611,-0.098497
1000.105469,-0.005572,5.766228,5.011582,0.790808
1000.109375,3.624700,3.536914,-2.694956,0.108264
1000.113281,7.577247,6.325566,13.337271,5.774395
1000.117188,10.655957,3.964741,5.444697,5.272401
1000.121094,9.440493,5.370938,9.989311,15.124072
1000.125000,11.487640,9.511263,4.660460,12.463388
1000.128906,8.699633,6.835732,6.896634,11.697013
1000.132812,6.717765,14.900079,9.195177,8.786675
1000.136719,12.337440,8.546338,5.530861,13.282996
1000.140625,11.501885,5.309740,5.008473,16.437020
1000.144531,8.479675,6.924869,2.287904,9.340643
1000.148438,-2.484828,-2.385031,7.025386,3.225829
1000.152344,-9.173882,-2.321096,2.124396,-2.867189
1000.156250,-0.279393,-4.855894,-6.410886,-6.755976
1000.160156,-6.530719,-4.327239,-4.451196,-9.302652
1000.164062,-10.936657,-5.683704,-9.999109,-10.196718
1000.167969,-10.574880,-8.547977,-9.893979,-5.658365
1000.171875,-14.006766,-7.025310,-12.933939,-5.348710
1000.175781,-11.524898,-7.012083,-18.442356,-6.923412
1000.179688,-14.352807,-7.218894,-15.625691,-8.451541
1000.183594,-7.903374,-5.687380,-6.921343,-7.114718
1000.187500,-1.445641,-9.496090,-9.598451,-14.771526
1000.191406,-2.742228,-6.338855,-8.376291,-4.848524
1000.195312,-0.855725,-0.454375,-1.853851,-3.024214
1000.199219,-7.725755,4.282007,-1.525108,-4.676022
1000.203125,0.985314,3.673246,-1.785609,-1.282585
1000.207031,5.101146,0.797341,1.688247,3.841500
1000.210938,8.800880,16.094421,1.570664,10.521500
1000.214844,11.625229,10.255114,0.326665,3.766946
1000.218750,3.776614,4.665445,12.562382,5.906601
1000.222656,12.310649,1.721992,12.748257,17.935468
1000.226562,19.436455,5.623508,8.469966,9.595766
1000.230469,10.691481,6.616836,13.352396,9.514013
1000.234375,8.983257,2.885407,15.521276,8.817369
1000.238281,8.111151,11.260640,4.021025,6.888772
1000.242188,7.305070,13.523756,8.875950,6.479321
1000.246094,3.226895,1.800938,6.892862,2.276788
1000.250000,4.221160,2.846323,-1.650238,0.872854
1000.253906,5.833917,-0.408256,-5.464026,-10.849208
1000.257812,-5.767091,-10.087083,-9.681195,-9.935379
1000.261719,-4.701432,-11.901230,-3.510803,-5.102037
1000.265625,-8.400930,-11.068667,-13.077877,-4.883421
1000.269531,-6.062726,-14.995803,-16.339158,-7.809884
1000.273438,-11.286574,-4.247086,-8.069855,-7.518265
1000.277344,-13.322224,-16.259082,-14.876575,-13.059916
1000.281250,-7.195258,-2.851944,-5.948777,-10.721794
1000.285156,-7.544487,-8.470895,-8.420225,-1.678521
1000.289062,-6.575705,0.485367,-10.364930,-4.952700
1000.292969,-7.745614,-5.115321,0.683723,-8.700759
1000.296875,0.133547,-3.340850,1.106942,-1.094548
1000.300781,3.650520,-0.616786,9.198005,-0.928291
1000.304688,3.940593,5.193084,-0.943919,7.764878
1000.308594,5.282254,5.108347,4.782844,2.152473
1000.312500,2.324568,14.313868,2.900508,11.081311
1000.316406,11.198574,13.197368,8.427827,9.779923
1000.320312,2.250571,6.921174,15.511910,4.801491
1000.324219,11.050640,11.161327,-1.303477,9.458604
1000.328125,12.405788,8.197326,15.625934,11.984427
1000.332031,9.254390,6.758165,6.988239,5.672898
1000.335938,9.313790,13.582982,6.654262,7.195367
1000.339844,13.173299,4.672600,8.952182,9.586794
1000.343750,3.044763,0.556181,8.463648,1.904092
1000.347656,-2.729163,2.679965,-1.390899,3.915590
1000.351562,2.174635,1.998934,-6.046658,-1.108645
1000.355469,0.841186,-2.374322,-0.544211,-3.630348
1000.359375,-3.587607,-7.395143,-5.803181,2.002494
1000.363281,-3.138846,-10.367856,-0.098085,-6.574832
1000.367188,-15.288399,-12.482218,-5.929756,-7.242868
1000.371094,-11.829643,-0.830512,-11.396765,-1.969799
1000.375000,-15.869060,-12.260595,-2.715619,-7.292727
1000.378906,-16.669845,-9.696657,-11.621402,-22.571219
1000.382812,-7.425224,-12.795839,-7.879539,-5.133428
1000.386719,-12.226150,-4.316888,-4.230654,-9.852722
1000.390625,-3.858047,-12.549652,-0.454680,-4.265839
1000.394531,-9.439196,0.872663,-2.098725,1.316241
1000.398438,3.869793,1.856220,-5.418171,-2.127316
1000.402344,-4.008238,-1.901457,-1.627548,2.364988
1000.406250,4.161988,11.039286,10.171318,0.721452
1000.410156,5.977915,9.286458,6.737985,4.325491
1000.414062,-2.236388,7.264978,10.798172,8.999067
1000.417969,7.583702,0.542947,5.972879,2.942605
1000.421875,10.166007,6.907242,3.053016,8.088310
1000.425781,10.968513,14.380083,10.297427,7.905183
1000.429688,8.841772,4.216137,13.203642,18.190700
1000.433594,14.562747,7.630754,17.378051,12.200914
1000.437500,13.559286,10.729951,10.661017,8.403781
1000.441406,4.521810,1.878125,7.432578,12.980970
1000.445312,-0.112638,-2.075771,0.709808,-1.647485
1000.449219,0.030669,-3.976717,-2.028308,1.071295
1000.453125,-1.017349,-4.608333,3.844350,-3.903651
1000.457031,-2.948969,-12.693264,-0.580683,1.194381
1000.460938,-7.368005,-5.322891,-6.048625,-6.016361
1000.464844,-8.728858,-15.587457,-5.263725,-15.802558
1000.468750,-12.897891,-9.344699,-12.392717,-6.464733
1000.472656,-18.852119,-5.953793,-5.673055,-9.445457
1000.476562,-15.405786,-11.544952,-11.759234,-7.614747
1000.480469,-14.604608,-12.591045,-8.941110,-8.572748
1000.484375,-13.005888,-12.463312,-10.291821,-7.294902
1000.488281,-1.187672,-10.721468,-2.055006,-6.281514
1000.492188,-5.768453,-8.804573,-2.327528,-1.905707
1000.496094,-6.086900,1.171593,-3.035895,8.801560
1000.500000,5.348587,-2.495644,-7.207794,-1.510678
1000.503906,4.704662,6.369158,-2.471875,6.696477
1000.507812,-0.479073,6.008564,6.886417,3.922388
1000.511719,-0.285051,8.982612,4.934918,-0.764237
1000.515625,8.997022,11.798706,16.018987,16.622665
1000.519531,10.223375,12.935113,15.812433,7.196650
1000.523438,7.905785,11.156099,9.780001,16.347623
1000.527344,6.272622,5.607226,13.251668,8.216191
1000.531250,11.625718,14.668609,4.855550,10.296926
1000.535156,10.631675,9.799686,10.394709,6.273398
1000.539062,11.694718,1.631734,13.738028,9.002808
1000.542969,10.485870,-2.782396,16.527797,2.082890
1000.546875,-0.868680,4.748345,9.381032,3.124744
1000.550781,0.377838,4.292831,-8.993911,2.340021
1000.554688,-2.814054,-8.748169,-3.690361,-0.959211
1000.558594,0.714301,-6.503294,-1.443694,-4.083347
1000.562500,-0.948930,-7.238177,-12.657245,-3.317194
1000.566406,-9.399815,-8.390153,-10.180575,-9.230169
1000.570312,-4.938239,-9.395390,-12.204601,-13.425153
1000.574219,-16.412462,-15.805351,-4.005650,-5.224057
1000.578125,-13.488948,-13.385430,-11.423729,-10.156043
1000.582031,-8.503795,-10.258762,-4.288095,-4.336410
1000.585938,-6.464373,-7.725461,-11.166494,-12.100960
1000.589844,-4.935498,-3.059600,-3.339658,-11.296042
1000.593750,-2.167581,-6.418955,-3.911123,-2.286728
1000.597656,-5.315436,-8.578520,1.805097,-3.836423
1000.601562,7.998888,0.383229,2.689893,2.876265
1000.605469,4.152886,4.675174,8.025717,7.329135
1000.609375,3.833407,5.888298,-0.023513,6.457960
1000.613281,9.398320,1.728820,1.888927,13.219305
1000.617188,8.239812,5.512600,6.111461,8.967639
1000.621094,17.433719,11.827065,10.232908,10.127091
1000.625000,11.598946,15.836769,9.324845,13.488801
1000.628906,12.345499,2.960071,4.125403,7.602498
1000.632812,11.949594,9.732768,9.498304,8.007047
1000.636719,11.563573,14.732698,9.706347,12.153919
1000.640625,6.268614,-0.993365,7.972401,3.452681
1000.644531,2.784815,2.571477,3.320750,5.011020
1000.648438,3.133103,-2.732309,2.023568,1.214326
1000.652344,2.504649,-3.031740,1.606110,-1.734179
1000.656250,-8.316568,-6.615014,-7.313468,-1.011379
1000.660156,-5.143302,-4.644245,-6.056464,-1.658629
1000.664062,-7.078629,-7.129189,-7.342850,-14.001380
1000.667969,-6.921907,-5.352736,-15.966757,-12.862022
1000.671875,-17.568321,-9.493384,-13.589202,-10.605551
1000.675781,-6.022638,-15.364692,-14.349200,-3.389776
1000.679688,-10.951317,-9.063150,-17.735592,-16.858452
1000.683594,-14.548877,-1.785364,-3.200304,-9.634386
1000.687500,-11.577905,-8.381239,-9.191374,-6.848612
1000.691406,-6.893969,-5.809734,-4.587210,-8.409310
1000.695312,1.116933,-3.465509,-2.580530,-2.071637
1000.699219,-1.390794,-8.164402,-0.185345,3.393260
1000.703125,2.922680,0.713738,3.778182,4.756839
1000.707031,9.381326,2.401057,1.476244,9.182157
1000.710938,4.305294,4.725459,7.989654,5.746984
1000.714844,9.367842,12.294642,9.878154,-3.262645
1000.718750,6.907891,13.365103,13.815781,6.133082
1000.722656,13.060546,-0.194946,10.637149,9.062356
1000.726562,6.369306,8.351381,12.606989,9.376453
1000.730469,8.236181,7.069284,6.085564,6.458052
1000.734375,11.956166,15.034977,7.994405,2.742800
1000.738281,-2.749513,4.189586,9.963367,-6.130229
1000.742188,4.424666,3.857652,-0.881481,7.037514
1000.746094,-1.351140,4.563118,-0.183522,3.493391
1000.750000,3.149866,-1.739922,3.285153,-10.038949
1000.753906,-5.276636,-6.750627,1.025433,-0.423642
1000.757812,-2.773701,-4.040809,-4.480921,-1.434660
1000.761719,-7.165478,-10.412122,-1.710264,-3.993734
1000.765625,-9.900018,-8.216929,-3.295478,-4.536632
1000.769531,-13.310927,-9.197482,-13.065183,-12.161367
1000.773438,-3.034380,-16.154011,-12.438257,-16.403306
1000.777344,-8.768823,-17.174508,-6.971027,-14.982403
1000.781250,-13.253964,-8.280370,-9.424681,-18.733024
1000.785156,-7.033989,-7.097509,-9.386031,-3.005710
1000.789062,-14.903464,-1.693079,-6.003795,-8.358268
1000.792969,-0.168814,-0.830565,0.501881,-13.690455
1000.796875,2.727251,3.557691,3.448797,-0.666411
1000.800781,6.926007,3.347730,4.986678,3.556617
1000.804688,-5.296543,-1.091527,6.333584,-0.073030
1000.808594,6.467903,6.206594,-1.035295,2.129979
1000.812500,7.237896,6.458366,10.706528,6.945635
1000.816406,8.589316,14.106952,6.683486,6.324151
1000.820312,7.535710,4.446103,3.691056,12.015094
1000.824219,15.392552,8.838308,16.367162,5.559695
1000.828125,6.858552,12.761993,15.155424,3.206996
1000.832031,8.613842,3.508804,7.615600,3.720761
1000.835938,8.482506,11.584337,5.867195,12.745303
1000.839844,3.683498,4.360783,9.953808,13.294834
1000.843750,5.743636,4.543275,2.402016,1.028804
1000.847656,1.258267,1.019945,1.511162,-2.082791
1000.851562,-5.291884,-1.087638,-3.995529,-0.395341
1000.855469,-5.244686,-7.472693,1.059177,-5.895458
1000.859375,-1.925430,-1.264095,-5.824048,-10.204410
1000.863281,-2.007901,-2.051866,-9.950718,-9.886624
1000.867188,-10.339282,-5.439235,-8.802019,-6.713500
1000.871094,-8.750028,-13.714219,-10.321654,-14.680045
1000.875000,-8.181390,-2.973678,-13.704399,-15.719951
1000.878906,-13.326775,-6.300912,-8.364777,-5.490458
1000.882812,-9.751352,-2.244706,-9.856318,-9.114602
1000.886719,-8.946822,-5.987053,-8.907485,-6.528034
1000.890625,-6.467714,-5.293210,-7.205488,-3.388947
1000.894531,0.743867,-6.463835,-7.933358,2.505210
1000.898438,-2.044214,-0.972526,1.553836,5.427736
1000.902344,-4.434550,4.988113,2.148297,2.097153
1000.906250,4.075288,6.396775,8.844283,4.169946
1000.910156,10.541401,4.503306,12.550149,3.950251
1000.914062,9.668529,6.620278,16.413418,7.813421
1000.917969,7.812944,12.731892,7.254841,14.913372
1000.921875,2.087590,5.804423,13.803212,5.505861
1000.925781,7.717261,11.123188,10.991416,7.705262
1000.929688,6.384544,10.709126,12.185225,16.690217
1000.933594,9.347938,13.139866,8.048095,8.305788
1000.937500,7.096774,11.137877,6.950703,4.759721
1000.941406,7.855258,-0.010285,5.028097,7.348941
1000.945312,3.694493,5.295821,-1.979919,0.145519
1000.949219,6.331105,0.148761,-0.452677,-1.854862
1000.953125,-4.640351,2.139437,-4.050898,3.130620
1000.957031,-4.807538,-15.247991,-8.750068,-9.997074
1000.960938,0.010487,-5.497122,-2.275674,0.377101
1000.964844,-2.540664,-7.056236,-3.939710,-4.731675
1000.968750,-5.142329,-4.106313,-9.901482,-7.752954
1000.972656,-9.080759,-1.812031,-14.693512,-8.903221
1000.976562,-14.022348,-9.238291,-5.776624,-6.509372
1000.980469,-9.308883,-3.365459,-12.682740,-4.725865
1000.984375,-14.378249,-9.753171,-11.318981,-7.304391
1000.988281,-5.885618,-5.380624,-1.658312,-6.098758
1000.992188,-6.658680,-2.491104,-3.311408,-3.256404
1000.996094,-2.354254,4.905546,2.634221,2.606586
1001.000000,-7.938098,0.486320,-8.514703,-5.125324
1001.003906,4.243627,2.441635,4.923246,2.024117
1001.007812,5.304907,9.386939,7.743278,10.998626
1001.011719,-1.314619,0.110482,4.176342,7.581381
1001.015625,6.339559,7.813068,7.529089,9.401275
1001.019531,13.484104,9.905765,4.838241,13.562027
1001.023438,7.397006,7.084676,11.162774,6.482557
1001.027344,11.214545,6.993673,11.788873,12.584074
1001.031250,9.570297,10.614445,5.438819,16.849586
1001.035156,8.253596,15.185913,13.092620,0.168998
1001.039062,3.161251,2.906770,8.825644,9.075163
1001.042969,6.985608,5.546370,0.910301,1.486128
1001.046875,3.939639,0.188984,-2.155597,3.745599
1001.050781,7.475006,-0.484805,3.408024,-1.713256
1001.054688,-2.107153,-3.038956,-0.832158,-0.839820
1001.058594,-11.411960,-8.056426,-5.382216,0.784550
1001.062500,-9.847982,-7.798971,-0.758958,-6.069074
1001.066406,-8.991199,-7.873289,-6.097984,-15.826552
1001.070312,-7.307942,-4.919736,-9.518216,-6.565818
1001.074219,-11.746696,-3.342760,-10.680422,-9.586409
1001.078125,-5.975035,-10.757969,-8.763648,-16.625644
1001.082031,-4.956646,-1.970728,-15.033665,-2.196884
1001.085938,-11.849454,-10.089013,-13.061067,-13.039885
1001.089844,-4.815678,-17.256408,-11.469218,-8.591248
1001.093750,-0.082418,-2.070103,-3.685929,-2.856088
1001.097656,-5.573914,-0.979891,-1.035607,1.592884
1001.101562,-0.857647,-0.175621,0.222212,4.723487
1001.105469,2.189173,1.844943,1.184265,8.164234
1001.109375,1.660012,9.003950,9.550094,2.857180
1001.113281,5.764013,7.599005,5.721878,1.956836
1001.117188,8.556814,11.863481,8.644481,19.338280
1001.121094,9.225909,15.231788,11.485791,6.035481
1001.125000,11.500571,13.105600,15.638548,9.782789
1001.128906,12.599432,8.774748,2.629296,10.489198
1001.132812,11.190900,6.147299,0.498277,9.727673
1001.136719,8.067714,16.170231,11.232495,11.620633
1001.140625,2.952888,5.257654,8.862398,5.444787
1001.144531,1.955743,8.378687,9.513318,1.861831
1001.148438,4.180529,-1.226922,4.257165,0.379724
1001.152344,1.877570,-2.375451,2.832182,-1.922543
1001.156250,-5.397748,1.298309,-3.151470,-4.158127
1001.160156,-6.334316,-1.171914,-0.272764,-8.395467
1001.164062,-9.985529,-14.210186,-7.879406,-9.005840
1001.167969,-19.808217,-5.473526,-13.615102,-14.619184
1001.171875,-16.184397,-9.811709,-5.459104,-11.986130
1001.175781,-9.772949,-12.108998,-13.448648,-5.125420
1001.179688,-15.554070,-14.975079,-15.794594,-14.767724
1001.183594,-10.937434,-15.294126,-7.885668,-11.061887
1001.187500,-11.843316,-8.103731,-10.155143,-8.319370
1001.191406,-12.992663,-6.094894,-1.468621,-6.395104
1001.195312,-4.633465,-3.975423,-6.173549,1.129563
1001.199219,-10.701782,4.852031,-3.934260,-2.770752
1001.203125,7.194639,1.019850,1.691481,4.744988
1001.207031,4.750912,-1.164268,3.127972,6.693310
1001.210938,9.354338,8.983777,8.666496,7.082565
1001.214844,13.696219,9.591557,11.604620,11.316119
1001.218750,2.299982,2.970085,6.237544,7.747437
1001.222656,16.812204,7.176493,4.667934,1.372157
1001.226562,8.710706,11.612503,11.064160,13.135471
1001.230469,14.072000,3.360899,11.171467,4.926119
1001.234375,8.635486,16.353880,14.426825,9.123997
1001.238281,7.773610,6.828484,-4.244182,9.714953
1001.242188,3.581013,3.783650,0.293184,-0.685702
1001.246094,2.873674,4.510257,3.387110,7.127818
1001.250000,-5.307909,-2.995504,-2.788334,1.340496
1001.253906,-1.064457,-9.784175,4.027868,-4.637374
1001.257812,-3.320404,-12.949006,-2.509766,-5.911310
1001.261719,0.422720,2.497723,0.848883,-9.256199
1001.265625,-11.687776,-4.597262,-10.910528,-2.738026
1001.269531,-11.128576,-7.737548,-11.876970,-10.004919
1001.273438,-11.137995,-13.576512,-12.368689,-15.861581
1001.277344,-19.887894,-16.127041,-10.514454,-18.697653
1001.281250,-0.978556,-7.623035,-15.330177,-14.426118
1001.285156,-7.242575,-10.141351,-8.982311,-4.380852
1001.289062,-6.070618,-10.986981,-17.059018,-0.689928
1001.292969,0.800559,-3.712320,-1.949283,-3.668448
1001.296875,4.690309,2.832567,-3.332097,-3.432719
1001.300781,7.531851,-4.409464,1.765017,2.131404
1001.304688,10.630075,5.054588,2.336771,2.897393
1001.308594,7.532486,-0.469914,9.285536,0.021294
1001.312500,6.358330,1.715668,4.555556,6.823297
1001.316406,6.913986,3.811285,7.237628,4.970654
1001.320312,11.052451,10.371810,12.563362,1.861009
1001.324219,8.853161,9.894921,13.169762,9.218528
1001.328125,1.063892,8.496912,17.033183,13.653325
1001.332031,15.276661,6.207208,4.269511,7.956513
1001.335938,15.415584,7.894920,8.736058,0.780442
1001.339844,5.141446,11.579433,1.957927,6.072530
1001.343750,-0.483560,6.130374,5.509388,4.935262
1001.347656,0.746640,-3.754681,4.755575,10.109939
1001.351562,1.447626,7.964851,-0.838368,-3.079005
1001.355469,3.248323,-3.497747,-3.197767,-3.338582
1001.359375,-8.999180,5.766605,2.653404,-13.222730
1001.363281,-6.540507,-7.623876,-5.146797,-12.884266
1001.367188,-6.991569,-7.408207,-7.582670,-11.375279
1001.371094,-10.481416,-7.766699,-7.366712,-12.212972
1001.375000,-7.820804,-13.469030,-12.587220,-8.320748
1001.378906,-14.841648,-14.621405,-2.993990,-12.677379
1001.382812,-1.434107,-5.492799,-8.449819,-8.014805
1001.386719,-4.461943,-8.756066,-5.381787,-10.361795
1001.390625,-7.802504,-7.728472,-12.927414,-5.698281
1001.394531,5.024110,-6.903417,-9.624328,7.046434
1001.398438,-1.416211,-0.977820,3.432729,-0.438860
1001.402344,0.947954,0.497988,0.094634,-0.518007
1001.406250,3.282567,3.844302,4.413381,3.834368
1001.410156,-2.027041,8.248798,2.076985,3.330648
1001.414062,8.687585,4.530549,1.806581,3.640441
1001.417969,9.847412,6.961724,7.182695,7.469923
1001.421875,14.531654,11.757823,3.478020,11.457564
1001.425781,6.408801,14.423465,18.491071,8.989312
1001.429688,11.687301,4.529806,11.242593,15.421208
1001.433594,7.117051,11.007146,14.418936,8.919396
1001.437500,2.533426,12.066538,10.264557,11.645875
1001.441406,1.323697,0.563498,3.920908,7.391143
1001.445312,-1.477814,12.235915,4.828273,1.670778
1001.449219,4.452781,-7.060229,-8.658520,-6.041919
1001.453125,-7.040139,-6.727617,-0.095257,-1.394330
1001.457031,-0.212220,0.786692,-2.092290,-4.342471
1001.460938,-8.198236,-2.640701,-10.729962,-10.144141
1001.464844,-12.251420,-9.916178,-9.655801,-8.146844
1001.468750,-13.236870,-10.441055,-9.073501,-17.785885
1001.472656,-4.060610,-8.854340,-5.936097,-8.478794
1001.476562,-12.953295,-7.766844,-10.136728,-8.329536
1001.480469,-10.025826,-12.750834,-9.523456,-11.757739
1001.484375,-3.471320,-13.029242,-10.295516,-10.038661
1001.488281,-3.711919,-13.790918,-8.477126,-12.369612
1001.492188,-4.584861,-3.802903,1.813945,-10.331686
1001.496094,8.020597,0.285543,-6.659880,-6.843254
1001.500000,3.032941,0.863987,2.094894,4.341323
1001.503906,3.051272,-0.568209,1.171817,2.949725
1001.507812,3.722728,2.247973,5.007726,7.170203
1001.511719,4.456796,1.386087,2.559256,9.768256
1001.515625,11.341657,8.827679,4.025792,4.651159
1001.519531,6.561628,7.027985,11.206307,12.040676
1001.523438,4.130861,16.636281,8.463917,12.142682
1001.527344,11.126487,9.613985,15.154921,12.160486
1001.531250,4.307743,13.390215,9.970787,6.105964
1001.535156,14.437709,12.751380,-1.568285,15.967667
1001.539062,0.841065,2.334658,7.514667,8.090828
1001.542969,0.640083,2.808261,2.486821,5.284722
1001.546875,-4.193290,4.205815,1.814512,-3.040140
1001.550781,-3.799917,-9.314277,2.559870,1.446369
1001.554688,-6.184062,0.733004,-3.830673,-2.768292
1001.558594,-4.227498,-8.056743,-3.085675,0.564958
1001.562500,-9.517770,-5.681722,-10.009863,-11.925043
1001.566406,-10.574612,-10.763398,-12.548774,-16.481058
1001.570312,-9.217590,-2.065120,-6.611568,-13.959590
1001.574219,-5.409634,-16.785364,-8.988007,-13.685581
1001.578125,-7.939020,-6.845514,-13.006925,-10.813487
1001.582031,-13.795421,-13.022912,-11.796969,-5.346983
1001.585938,-3.647199,-5.699609,-4.334243,-7.033536
1001.589844,-2.399973,-5.949774,-2.905201,-5.775124
1001.593750,-4.642922,-1.711734,-6.870239,-0.293974
1001.597656,-5.093031,-3.647914,6.264525,-0.563547
1001.601562,3.793552,6.915370,-0.212939,-0.321213
1001.605469,5.981532,13.257497,-0.231075,-0.752238
1001.609375,8.569522,9.685319,6.274725,6.505195
1001.613281,9.625391,12.791957,8.378043,5.991926
1001.617188,15.688978,11.436904,9.497151,5.240875
1001.621094,10.952216,6.269668,3.193967,19.604569
1001.625000,13.712851,3.634894,15.969085,5.265482
1001.628906,10.866143,15.237131,4.392317,12.673836
1001.632812,6.775294,5.938719,6.951660,3.484639
1001.636719,-0.873064,8.510270,6.324900,13.949570
1001.640625,5.913871,-3.032556,1.022756,7.531751
1001.644531,-3.722560,-5.921748,1.576287,3.381486
1001.648438,2.838521,6.681743,1.745178,-7.646857
1001.652344,-2.841246,1.645182,0.320918,-4.552586
1001.656250,-4.477119,-2.405554,-1.310385,-3.094380
1001.660156,-7.923403,-5.940348,-6.709896,-10.033885
1001.664062,-8.803989,-10.480400,-8.282259,-7.313484
1001.667969,-0.672341,-5.542433,-15.501581,-10.886109
1001.671875,-5.235439,-14.018659,-11.520294,-13.737789
1001.675781,-13.262651,-11.256733,-9.639079,-11.269068
1001.679688,-8.469560,-10.138805,-5.939704,-16.564299
1001.683594,-8.650875,-11.938122,-15.650676,-3.823488
1001.687500,-5.612183,-11.995713,-2.762623,-0.103729
1001.691406,-7.176421,-6.980638,-4.226158,0.251187
1001.695312,-6.776140,-5.444079,-0.888466,-1.673765
1001.699219,-1.223124,-11.852290,5.625386,-4.790569
1001.703125,-1.567566,0.179823,-4.410196,4.236208
1001.707031,3.133792,9.176267,6.540832,6.534793
1001.710938,7.093755,10.366503,7.841920,14.387664
1001.714844,3.911210,15.849073,9.953872,5.503451
1001.718750,9.740708,7.938025,7.132904,5.560688
1001.722656,12.234519,2.914850,8.973965,8.169492
1001.726562,0.505283,9.708648,5.483207,4.293135
1001.730469,13.376268,9.567851,10.513227,13.553038
1001.734375,14.590304,13.020531,5.433719,10.533210
1001.738281,6.413011,7.660206,4.551284,3.578527
1001.742188,2.250690,6.568791,6.626819,9.180315
1001.746094,-0.287979,5.437379,8.956002,9.060295
1001.750000,-5.656057,-1.718647,2.187208,-9.371420
1001.753906,-2.582689,-6.180166,-8.700162,0.003099
1001.757812,-6.456076,-5.243164,-6.803772,-7.112671
1001.761719,-10.972789,-2.251540,-1.038514,-5.322689
1001.765625,-15.183525,-4.905690,-4.762392,-6.368999
1001.769531,-15.069986,-5.924637,-3.003656,-10.376162
1001.773438,-9.949685,-4.535854,-3.153070,-12.030407
1001.777344,-5.222564,-11.595954,-17.863254,-0.113398
1001.781250,-19.036782,-11.471599,-10.777140,-7.334253
1001.785156,-3.402741,-16.653870,-8.547265,-8.159806
1001.789062,-9.176252,-12.979675,-6.244070,-6.172396
1001.792969,-8.171669,-2.447549,-7.273195,-5.554055
1001.796875,0.314138,-7.611425,-1.488529,0.635019
1001.800781,4.635645,-0.381019,-3.026996,-4.370603
1001.804688,7.921409,4.258942,3.228803,7.156205
1001.808594,7.576509,5.532750,13.534638,4.246080
1001.812500,0.826247,17.732409,11.009405,4.542835
1001.816406,15.425353,6.656009,5.767697,9.509723
1001.820312,2.957275,11.793959,8.361523,9.727875
1001.824219,7.489404,11.615845,3.856156,17.624771
1001.828125,5.414942,10.897611,9.892716,6.076493
1001.832031,8.446637,7.631669,11.725320,11.802083
1001.835938,11.058950,8.256688,2.429061,4.743602
1001.839844,7.996178,11.764639,4.516296,-1.331249
1001.843750,9.233272,1.900146,2.943821,7.253716
1001.847656,-0.789172,-3.348969,1.073022,-0.331140
1001.851562,2.152386,0.725730,-2.468478,-6.778660
1001.855469,-11.267413,-1.516721,-7.709290,-1.454087
1001.859375,-2.721514,-11.210730,-4.919979,-9.044531
1001.863281,-8.180838,-9.954987,-4.577788,-9.200252
1001.867188,-16.800985,-11.080180,-11.790757,-6.760967
1001.871094,-8.226141,-10.145607,-3.108423,-9.235849
1001.875000,-4.946287,-5.542815,0.723550,-8.068392
1001.878906,-10.585885,-9.481825,-2.105563,-15.461727
1001.882812,-6.034012,-8.497142,-13.480022,-8.353556
1001.886719,-8.156984,-8.229734,2.412730,-5.169931
1001.890625,-6.979783,-12.951686,-1.958129,-9.216211
1001.894531,-3.813538,-6.953883,-3.450320,-3.283344
1001.898438,1.209767,-13.885877,1.921298,-4.811403
1001.902344,0.980351,-3.285284,6.113637,4.704257
1001.906250,3.705945,10.267325,1.322236,8.720330
1001.910156,7.072161,7.686133,11.867799,0.493624
1001.914062,8.275110,8.033348,15.148769,3.464578
1001.917969,9.081372,4.281276,8.353107,5.428189
1001.921875,10.595226,17.368451,6.356190,3.801367
1001.925781,7.376327,12.972410,12.156119,7.946273
1001.929688,3.850463,12.879207,11.689997,11.139417
1001.933594,5.208924,12.994967,11.767371,14.716717
1001.937500,11.188639,9.434645,5.590750,-1.611879
1001.941406,5.261337,5.538460,5.711451,1.810283
1001.945312,3.006892,-1.183797,7.572561,3.077386
1001.949219,5.352502,-0.700660,0.446756,2.156132
1001.953125,1.386834,-0.237263,-2.572771,-9.351867
1001.957031,2.737595,-11.478894,-11.383858,-4.257307
1001.960938,-8.477385,-10.378901,-6.543912,-0.447181
1001.964844,-14.406246,-7.837869,-11.804810,-13.039418
1001.968750,-8.025141,-13.607922,-8.204111,-4.615821
1001.972656,-8.937434,-8.477851,-9.129433,-6.981390
1001.976562,-9.266213,-12.317047,-10.966153,-16.615645
1001.980469,-10.815742,-10.566056,-4.868566,-12.357910
1001.984375,-3.772362,-11.280495,-3.532126,-17.162159
1001.988281,-6.946272,-5.087979,-4.240910,-5.029409
1001.992188,-9.519663,-0.845152,1.395207,0.592303
1001.996094,-4.999478,-3.584947,-5.996643,-5.738758
1002.000000,-8.563769,4.937426,-5.106293,-5.331495
1002.003906,4.469689,6.180372,3.868637,-0.414409
1002.007812,8.309063,12.955922,3.338183,4.991232
1002.011719,6.090107,9.378755,6.266836,2.465547
1002.015625,6.967489,4.730548,15.465588,2.832984
1002.019531,-0.693137,9.484505,7.493677,8.817207
1002.023438,7.495437,7.008540,4.984821,7.574196
1002.027344,7.196107,7.611177,12.197767,11.795488
1002.031250,5.546183,6.987679,11.992748,13.019779
1002.035156,6.376811,5.336991,0.712753,9.031577
1002.039062,3.246484,4.687631,0.963285,9.634626
1002.042969,7.126639,5.014788,8.980702,0.522206
1002.046875,5.159038,7.774013,1.204141,4.812226
1002.050781,-9.845549,-0.876573,-6.119977,1.994343
1002.054688,-8.715887,-4.379543,0.395092,-4.655937
1002.058594,-1.219389,-10.119198,-4.305625,-5.030415
1002.062500,-7.965257,-9.276125,-1.390269,-12.533938
1002.066406,-9.810384,-13.957133,-4.114366,-6.500694
1002.070312,-9.708815,-13.534572,-7.908576,-10.119125
1002.074219,-5.944235,-13.179902,1.966735,-5.049134
1002.078125,-7.863099,-4.412104,-2.577355,-10.000738
1002.082031,-10.139540,-9.230075,-13.479750,-6.498823
1002.085938,-9.849340,-11.443773,-4.644713,-13.897344
1002.089844,-7.556668,-5.160572,-1.720276,-0.980124
1002.093750,-0.838588,0.029469,-0.999053,-1.781562
1002.097656,-2.701842,-0.042177,7.768763,-4.809142
1002.101562,3.363316,3.720201,1.349436,2.907534
1002.105469,4.222391,1.981413,10.514633,-9.120948
1002.109375,9.685330,4.407606,0.381421,2.450423
1002.113281,2.429592,7.534002,12.603412,14.285812
1002.117188,8.833783,-1.872065,10.498459,12.151761
1002.121094,15.021877,11.182220,11.729614,6.262900
1002.125000,9.874179,10.109002,14.060788,6.770119
1002.128906,4.324787,10.239353,13.912103,11.268483
1002.132812,6.891511,10.133146,13.007045,10.843370
1002.136719,2.469059,5.464995,9.485872,8.380182
1002.140625,3.020433,3.843007,-2.414774,0.603760
1002.144531,8.368979,-1.824042,2.971463,1.352009
1002.148438,-0.024426,-9.184972,0.356063,2.610838
1002.152344,-9.000086,2.953764,2.157812,-3.946664
1002.156250,-8.624854,-0.633293,-7.801273,-3.331223
1002.160156,-10.230765,-8.476525,-3.892168,-4.315587
1002.164062,-10.954859,-5.235876,-16.927423,-0.927421
1002.167969,-1.601323,-10.091515,-4.393820,-9.191279
1002.171875,-14.087947,-10.062028,-9.979086,-7.227159
1002.175781,-6.917751,-3.918790,-16.296968,-7.996939
1002.179688,-12.926443,-12.634686,-8.307190,-3.310747
1002.183594,-1.131983,-6.630331,-11.997584,-7.093747
1002.187500,-4.902021,-4.515795,-11.327731,-8.298585
1002.191406,-6.308726,-8.457883,-7.037438,-2.889108
1002.195312,-11.577142,-2.780493,-4.935142,3.445258
1002.199219,-1.633610,-3.200003,8.536383,-5.237706
1002.203125,0.317615,-3.200929,9.134080,-0.368161
1002.207031,4.981717,9.876803,-3.478800,2.925419
1002.210938,8.345039,5.579802,6.517750,5.590923
1002.214844,6.621863,9.626977,9.204578,4.699337
1002.218750,7.266306,11.235829,3.762632,8.819288
1002.222656,10.360857,14.991525,13.954070,11.846601
1002.226562,18.007996,0.333109,5.649443,5.966397
1002.230469,7.345039,10.944008,12.927867,10.421377
1002.234375,16.080275,9.184833,9.960555,3.871932
1002.238281,3.614160,8.357928,10.296262,11.895105
1002.242188,10.491363,4.741763,4.201886,7.793345
1002.246094,5.616490,7.177593,-0.348506,-0.939369
1002.250000,3.848759,-1.823466,-0.375324,1.889564
1002.253906,1.105043,-9.564670,1.296946,-5.734270
1002.257812,0.381474,-7.187358,-6.411318,-6.053729
1002.261719,-11.711018,-7.770545,-4.937146,-3.291648
1002.265625,-14.767263,-15.000417,-8.216418,-9.940221
1002.269531,-12.157181,-12.383649,-10.661535,-7.946958
1002.273438,-11.657945,-11.765690,-5.845416,-8.307948
1002.277344,-5.964356,-11.568408,-9.745248,-3.967522
1002.281250,-7.576592,-9.359064,-16.754456,-7.110338
1002.285156,-1.665078,-5.632065,-14.844257,-6.730177
1002.289062,-8.900393,-1.204153,-4.916532,-2.396427
1002.292969,1.086274,1.413018,0.447544,-4.596624
1002.296875,-2.157433,-1.042631,-7.725782,2.432005
1002.300781,1.025896,-0.559382,6.647692,3.543272
1002.304688,3.080539,-1.222217,3.536848,8.714087
1002.308594,0.811733,5.583407,13.478540,1.886152
1002.312500,7.130256,9.963553,6.826507,6.753839
1002.316406,11.437357,6.092181,4.282817,14.126810
1002.320312,12.744036,15.496696,9.072695,21.011195
1002.324219,8.889632,9.305606,8.247537,15.079587
1002.328125,11.473693,10.912687,12.474926,8.907284
1002.332031,8.523978,15.429956,12.940949,3.735862
1002.335938,6.891402,0.865645,8.947602,11.698680
1002.339844,0.362988,7.175130,-1.705198,6.901020
1002.343750,0.537982,6.786658,5.123726,0.433413
1002.347656,-1.325875,-2.441747,-1.341607,2.819995
1002.351562,6.233281,2.894932,4.012164,-2.998176
1002.355469,-1.537002,-4.399440,-0.476781,0.826671
1002.359375,-1.219046,-6.389038,-4.167530,-4.174693
1002.363281,-8.835447,-9.516543,-4.097739,-9.037475
1002.367188,-11.412733,-3.456830,-5.997556,-4.288006
1002.371094,-2.412012,-8.530866,-14.762485,-10.195007
1002.375000,-6.205295,-6.576826,-11.884699,-8.022756
1002.378906,-10.973379,-10.107294,-12.710633,-11.413572
1002.382812,-13.897304,-12.755638,-8.409756,-4.957538
1002.386719,1.909883,-6.844613,-12.625839,-1.021307
1002.390625,-6.347596,-7.265989,-6.261594,-6.255104
1002.394531,-5.441275,4.012965,0.313248,0.596009
1002.398438,0.530727,-1.663962,-5.287370,-3.725243
1002.402344,6.966063,1.280470,-1.698198,-0.110506
1002.406250,6.155271,6.237878,0.755295,0.093306
1002.410156,-1.508673,6.512328,9.332250,1.399031
1002.414062,9.419792,11.086051,6.104955,5.800832
1002.417969,2.039816,12.860385,11.752766,6.449878
1002.421875,6.118409,8.217850,8.167333,13.351976
1002.425781,9.133727,10.738316,5.609648,7.081293
1002.429688,5.640991,5.910725,5.916792,8.862956
1002.433594,14.906256,8.334914,6.850779,9.736020
1002.437500,2.397248,11.719744,9.436638,7.240210
1002.441406,10.569003,2.072442,4.120023,3.270584
1002.445312,1.963695,2.056910,4.471811,2.103939
1002.449219,4.825199,-1.025080,0.319855,9.712504
1002.453125,-2.732865,-0.956955,-1.704162,-3.333825
1002.457031,-10.850473,-0.745736,-2.865920,-4.917031
1002.460938,-8.422750,-6.007323,-1.062137,-7.884822
1002.464844,-10.227357,-6.949364,-2.930745,-9.723862
1002.468750,-8.268213,-14.822512,-0.630072,-5.900207
1002.472656,-11.201349,-8.707951,-8.568406,-11.431295
1002.476562,-20.655961,-12.431531,-14.012494,-3.320151
1002.480469,-4.805444,-10.374324,-16.019996,-14.348339
1002.484375,-12.492738,-11.222505,-13.924433,-6.259196
1002.488281,-3.918948,-6.918258,-5.617540,-2.474795
1002.492188,-12.139281,-5.027898,-7.107342,-6.398592
1002.496094,-1.096591,-7.212750,-5.882633,1.732028
1002.500000,4.065862,2.078453,-2.376614,3.147303
1002.503906,2.366282,3.090596,3.235009,5.750824
1002.507812,0.158779,5.654115,2.330985,9.772851
1002.511719,6.300076,-0.498426,7.186198,9.515815
1002.515625,12.929891,7.608191,11.643422,14.575112
1002.519531,10.725338,13.830308,8.883102,7.991517
1002.523438,9.422741,13.495225,9.374326,12.294482
1002.527344,7.364409,10.547090,13.737559,12.036137
1002.531250,9.987636,9.705843,11.952131,8.247263
1002.535156,7.810888,4.484666,6.702993,10.738575
1002.539062,6.336931,11.748157,5.073248,10.731097
1002.542969,-2.386396,7.787696,8.410809,4.426046
1002.546875,1.272333,5.305946,2.441269,-0.070795
1002.550781,6.818236,-2.137262,4.380433,0.718084
1002.554688,-5.452726,-6.033081,-1.342310,-7.661796
1002.558594,-9.136877,-1.789325,0.768233,-4.405565
1002.562500,-4.379382,-9.083040,-9.686677,-6.244741
1002.566406,-8.655574,-4.859843,-8.567845,-8.387263
1002.570312,-8.912521,-9.048669,-10.409135,-17.659900
1002.574219,-16.111765,-4.148847,-2.446587,-9.264655
1002.578125,-10.232902,-10.693438,-15.470723,-15.248077
1002.582031,-8.056916,-12.845733,-9.240187,-4.516142
1002.585938,-2.888426,-3.977076,-5.992655,-12.748761
1002.589844,-9.028232,-10.520933,-6.803570,-6.654723
1002.593750,-7.430680,-6.844856,-4.474202,-8.719828
1002.597656,-2.128054,-2.768047,-6.337235,4.046915
1002.601562,7.087328,2.024795,3.553133,6.411707
1002.605469,1.788380,5.272151,8.498704,1.273029
1002.609375,4.409884,2.507248,-0.028622,1.407243
1002.613281,16.216782,8.644145,7.420262,5.721682
1002.617188,15.312128,9.568196,3.879877,11.402037
1002.621094,7.817928,3.818345,9.646309,16.237793
1002.625000,11.636039,12.492650,4.008936,16.499710
1002.628906,5.186850,1.741872,8.789382,14.728741
1002.632812,4.436587,4.335440,10.825903,6.896267
1002.636719,4.266839,0.442887,11.743677,6.818599
1002.640625,4.191097,8.164608,7.577903,-2.381932
1002.644531,3.035105,3.797505,4.583444,-0.777789
1002.648438,-2.160857,2.008693,1.216001,-0.183860
1002.652344,4.089586,-5.636639,-0.329840,-0.492943
1002.656250,-4.324944,-3.144289,-1.188361,-8.549991
1002.660156,-5.330734,-7.858855,-1.878372,-7.964694
1002.664062,-9.366255,-7.102948,-6.129806,-6.269497
1002.667969,-17.965047,-15.792714,-12.984612,-9.014098
1002.671875,-9.108931,-10.734603,-8.398303,-10.080070
1002.675781,-6.809821,-6.516588,-10.925067,-8.954137
1002.679688,-12.514332,-9.853702,-8.997367,-11.310994
1002.683594,-14.539718,-10.219478,-4.159828,-9.518082
1002.687500,-11.304189,-3.393829,-3.779184,-2.594447
1002.691406,4.616634,-5.783807,-6.055427,-5.920557
1002.695312,0.521263,-5.236671,-7.777879,-2.665512
1002.699219,-1.284053,-1.112563,2.138649,1.185752
1002.703125,-5.506831,-1.702803,0.384285,7.300001
1002.707031,1.354036,8.700362,1.582018,0.834613
1002.710938,9.172456,6.749414,14.631690,9.315688
1002.714844,10.434981,5.067106,10.320457,2.676187
1002.718750,15.359980,11.418489,3.381745,12.554771
1002.722656,3.844059,10.230525,13.548456,7.070100
1002.726562,6.957000,4.427515,8.511929,16.645866
1002.730469,1.869592,11.358120,10.058051,5.089849
1002.734375,11.033480,9.310830,10.992152,3.111202
1002.738281,6.448994,10.826696,6.168267,-0.665882
1002.742188,8.311711,3.863634,2.477068,9.282078
1002.746094,2.403338,1.177691,-1.242881,-6.022397
1002.750000,1.986690,1.631451,-3.266127,4.976274
1002.753906,-4.183945,3.488123,-0.056274,1.741462
1002.757812,-3.723847,-8.555819,-2.899557,-5.989383
1002.761719,-6.933062,-19.049180,-2.953207,-12.083311
1002.765625,-12.537331,-5.402968,-7.679428,-0.520696
1002.769531,-11.846498,-7.851031,-4.849501,-10.895386
1002.773438,-4.940582,-10.141283,-5.924711,-5.237812
1002.777344,-9.957116,-9.591864,-5.396282,-9.634444
1002.781250,-16.207688,-13.480275,-5.212979,-7.766197
1002.785156,-12.398105,-8.291829,-10.648530,-8.351184
1002.789062,-5.369625,-11.551189,1.547596,-3.997800
1002.792969,-1.962599,-7.481803,-0.115272,6.625706
1002.796875,-3.888041,-1.232698,-3.018606,-0.227083
1002.800781,-1.196728,-2.143688,-5.154871,1.165482
1002.804688,5.079524,2.810609,-1.066379,11.562125
1002.808594,2.539919,5.801839,11.105965,4.436347
1002.812500,8.323224,2.581554,8.198144,2.033437
1002.816406,8.523677,9.359217,13.315989,13.758843
1002.820312,11.450295,11.129224,13.780247,6.615346
1002.824219,9.657574,16.665245,9.452208,15.255790
1002.828125,5.480243,9.692670,11.361159,8.444450
1002.832031,3.492767,2.870952,11.823464,10.070917
1002.835938,11.129444,7.732809,8.043623,6.123014
1002.839844,3.569943,6.500252,7.066411,7.921132
1002.843750,9.419586,3.170248,0.058599,3.436368
1002.847656,-1.012032,7.389502,1.773660,-1.152349
1002.851562,1.806613,-8.790761,-1.318348,-0.079732
1002.855469,-4.366490,-2.913773,-0.907605,-7.842997
1002.859375,-6.810296,-6.093901,-9.053268,-9.039912
1002.863281,-7.512442,-4.118433,-5.970522,-13.861324
1002.867188,-10.858114,-16.692299,-3.802645,-10.719131
1002.871094,-9.545255,-5.984486,-15.011484,-7.775531
1002.875000,-5.626434,-8.118441,-9.808295,-8.672564
1002.878906,-5.597273,-6.686587,-5.194165,-3.599379
1002.882812,-10.345056,-14.233222,-8.551634,-0.398676
1002.886719,-3.104572,-11.313150,-9.108050,-8.930897
1002.890625,-8.766990,-8.415911,0.528891,-0.027824
1002.894531,1.438902,-4.927108,-1.482577,-7.874948
1002.898438,0.441104,-2.987275,3.093946,-7.219425
1002.902344,5.121386,0.906744,2.327277,0.126349
1002.906250,-1.120715,2.011186,3.719778,7.890115
1002.910156,2.329540,0.285635,4.231313,8.954156
1002.914062,6.188171,6.271167,9.153197,7.650721
1002.917969,8.627847,13.216584,9.058580,9.943454
1002.921875,4.588750,15.680793,17.815840,12.624352
1002.925781,17.334656,11.096451,5.853058,11.152568
1002.929688,16.077247,7.817061,14.057765,7.242195
1002.933594,10.981374,2.627598,9.240668,11.480186
1002.937500,3.236518,9.819585,5.300497,10.280836
1002.941406,4.709655,5.993871,-0.709683,13.039252
1002.945312,2.939573,6.919817,-4.643522,1.815912
1002.949219,-0.543326,5.249981,-2.285378,2.631339
1002.953125,-3.552387,1.826949,-6.423071,-3.095411
1002.957031,-6.107043,-4.102452,-7.343761,-8.660804
1002.960938,-10.137120,-8.118371,-13.145823,-8.958293
1002.964844,-7.954055,-11.350116,-6.332213,-12.255849
1002.968750,-16.196959,-9.007656,-2.822066,-16.646991
1002.972656,-6.411579,-7.004460,-8.225072,-16.366874
1002.976562,-4.848362,-7.925113,-10.488483,-5.807358
1002.980469,-4.950396,-5.584135,-4.411559,-9.249339
1002.984375,-8.947305,-10.592822,-2.822056,-8.929269
1002.988281,-6.647254,-8.722452,-9.113123,-6.041793
1002.992188,0.713867,-7.132853,-0.342709,-6.548781
1002.996094,-3.583512,-3.302072,-1.690867,2.839648
1003.000000,-1.173866,-9.911335,3.214849,-9.065443
1003.003906,9.996323,-3.277794,0.404319,3.664455
1003.007812,4.545973,8.684912,8.891438,0.202817
1003.011719,10.357722,1.027628,10.492527,12.316273
1003.015625,15.174254,3.484023,16.266817,5.417003
1003.019531,6.801146,13.985395,9.539041,5.930996
1003.023438,7.911100,11.047600,10.636464,14.247981
1003.027344,9.676192,18.572427,8.333501,11.619319
1003.031250,0.610402,15.382371,8.072754,8.181009
1003.035156,6.459321,5.740807,5.668782,14.465757
1003.039062,1.679413,5.187297,6.411877,4.071090
1003.042969,2.524413,2.448172,8.483870,1.915360
1003.046875,6.569641,5.059309,-0.150588,-4.314982
1003.050781,0.269638,-5.190792,5.776175,-0.190624
1003.054688,-1.521931,-5.528388,-9.472744,-6.632730
1003.058594,-8.644529,-4.757024,-9.094356,-8.398222
1003.062500,-16.446813,-5.094035,-5.640890,-2.684068
1003.066406,-8.810274,-13.321464,-12.295916,-12.016543
1003.070312,-9.572852,-3.413106,-9.956705,-11.429536
1003.074219,-13.282958,-14.872850,-9.056442,-12.782734
1003.078125,-10.466077,-8.267241,-2.535344,-11.170730
1003.082031,-7.639330,-9.521610,-3.786816,-7.202565
1003.085938,-8.806408,-5.489292,-6.653429,-14.556623
1003.089844,-5.694601,-4.402941,-5.363811,-10.994546
1003.093750,-3.807043,-3.677861,0.568915,-4.879060
1003.097656,-6.052893,-1.063778,-0.848767,4.892654
1003.101562,1.512297,3.498795,-1.089820,3.355723
1003.105469,3.322101,3.331721,2.021437,11.354487
1003.109375,4.976310,1.245511,0.850486,11.932492
1003.113281,7.954472,4.206734,6.570614,12.149435
1003.117188,12.953615,12.601492,9.520400,14.044764
1003.121094,9.029002,12.920395,7.718979,13.722151
1003.125000,9.615568,16.593269,7.320616,6.423447
1003.128906,6.407494,8.055773,9.237925,8.771813
1003.132812,3.512245,14.825523,-0.130986,6.358449
1003.136719,12.280186,-3.352228,3.713543,6.469469
1003.140625,-1.499318,6.231584,1.654207,6.014690
1003.144531,3.970384,7.139712,4.736752,-0.507962
1003.148438,-1.632578,4.071575,-2.541033,5.305807
1003.152344,-1.047346,3.597572,-3.907128,-3.448467
1003.156250,-7.291066,-3.765576,-9.909543,4.574481
1003.160156,-6.066931,-7.109366,-7.694498,-7.110721
1003.164062,-9.603221,-15.963358,-7.670645,-12.855016
1003.167969,-7.277885,-8.137508,-10.431976,-10.912752
1003.171875,-15.859617,-8.906214,-6.632739,-10.774175
1003.175781,-12.085840,-13.317800,-9.637606,-6.445566
1003.179688,-13.901678,-5.239607,-8.992310,-10.390262
1003.183594,-5.475103,-7.891125,-6.071093,-20.912430
1003.187500,-4.392926,-4.813766,-4.885134,-8.894596
1003.191406,-1.543598,-6.364118,-8.964255,-7.104806
1003.195312,-0.579717,0.807998,-2.286823,0.706818
1003.199219,-0.109181,-5.585201,0.161705,-1.396538
1003.203125,-3.034412,-2.896625,1.321573,-5.388346
1003.207031,6.057738,17.408323,4.034799,9.812116
1003.210938,11.402315,6.624123,10.167451,3.695305
1003.214844,9.829029,5.519210,7.574166,6.335537
1003.218750,13.087006,10.367947,13.911071,7.975584
1003.222656,5.493121,8.499062,10.026279,2.869716
1003.226562,15.198390,13.223921,12.319104,10.184879
1003.230469,10.717160,12.527983,7.790000,12.067531
1003.234375,6.836949,0.022905,12.924535,7.871820
1003.238281,-3.402960,10.013419,4.940671,6.181792
1003.242188,10.157573,15.030981,2.390887,5.260027
1003.246094,0.443408,-2.818347,8.899400,0.850465
1003.250000,-0.023757,5.221896,6.633312,5.968867
1003.253906,-7.993549,-9.265097,-4.747909,3.926045
1003.257812,2.791456,-6.165489,-7.700031,-0.132409
1003.261719,-7.277240,-9.545380,-1.956744,-3.690119
1003.265625,-7.715826,-11.800585,-12.883422,-4.217038
1003.269531,-11.379514,-13.832467,-7.216903,-18.788126
1003.273438,-7.859450,-7.044140,-15.074040,-7.800819
1003.277344,-6.965421,-6.510770,-13.440786,1.567402
1003.281250,-8.037025,-9.880553,-15.054898,-5.605170
1003.285156,-4.404964,-7.266979,-6.788959,-6.094304
1003.289062,2.687035,-2.850884,-7.582756,-1.137721
1003.292969,-6.428261,-2.160727,-9.313880,-5.504467
1003.296875,-4.794486,-3.736741,-8.763183,2.792033
1003.300781,-3.174003,3.254063,-0.517075,-0.267551
1003.304688,4.504752,2.185684,3.538711,8.147211
1003.308594,10.931850,0.183820,11.277567,0.585158
1003.312500,6.022159,9.033057,2.359564,6.653491
1003.316406,11.148045,14.405628,7.697733,5.874225
1003.320312,12.893028,8.446926,5.744378,7.669152
1003.324219,5.799050,4.078894,7.460505,6.046655
1003.328125,6.928214,6.472208,16.025761,5.661713
1003.332031,5.269928,15.497316,7.078923,10.902444
1003.335938,6.543115,7.407546,9.464788,11.877077
1003.339844,7.304326,3.459999,4.397735,1.032417
1003.343750,-1.422970,12.609770,5.326282,4.110490
1003.347656,2.686623,7.702255,2.528562,1.778932
1003.351562,3.580668,9.201536,-1.637050,-2.312863
1003.355469,-8.970997,-7.761097,-6.389670,-4.170168
1003.359375,-2.948365,-7.877292,-8.320440,-5.549449
1003.363281,-8.570145,-8.544687,-6.166315,-7.495940
1003.367188,-9.061916,0.773045,-0.702576,-13.266989
1003.371094,-9.941543,-12.830904,-7.763800,-8.034084
1003.375000,-2.675876,-17.036398,-12.975587,-13.759068
1003.378906,-14.222938,-12.643619,-8.395777,-3.092919
1003.382812,-10.000982,-12.677690,-9.892601,0.708192
1003.386719,-12.599567,-11.739189,-7.181442,-3.846136
1003.390625,-7.837283,-8.123174,-3.448315,-5.882249
1003.394531,-6.377948,2.153093,-2.742609,-2.672145
1003.398438,-3.703545,1.244190,-0.512113,-5.060164
1003.402344,1.605084,2.205898,1.753918,5.610745
1003.406250,7.098297,1.179492,1.659650,0.059433
1003.410156,11.084139,2.493374,10.083321,1.021713
1003.414062,5.823231,10.489427,10.667363,7.470340
1003.417969,8.768629,12.690815,16.675797,11.799300
1003.421875,3.835852,12.165732,8.814915,14.812771
1003.425781,6.304191,4.676915,4.407416,8.543906
1003.429688,13.335836,5.474899,11.212070,12.419370
1003.433594,11.971870,3.118321,10.209013,5.696291
1003.437500,8.399654,-1.062015,1.965564,2.837842
1003.441406,3.267164,4.192968,11.170462,7.876984
1003.445312,0.454993,8.252455,1.785249,-1.528847
1003.449219,4.052838,5.117275,2.683328,4.230599
1003.453125,-0.006740,-10.267976,-0.718782,9.088392
1003.457031,-6.596882,-2.919733,-5.905318,-5.235247
1003.460938,-1.268086,-9.974384,-5.851990,-7.448050
1003.464844,1.819144,-9.100009,-9.801326,-4.596812
1003.468750,-17.427225,-12.445553,-9.794921,-11.305877
1003.472656,-18.601452,-19.023000,-16.613217,-10.657278
1003.476562,-10.231502,-9.557518,-12.360650,-9.765589
1003.480469,-15.435477,-10.388986,-3.925516,-1.523474
1003.484375,-4.745515,-12.916032,-9.738571,-8.622559
1003.488281,-5.540257,-5.922844,-7.982735,-10.278992
1003.492188,-1.097679,-6.342187,-6.115435,-1.606336
1003.496094,-5.770505,1.042939,0.729758,-7.130031
1003.500000,0.921149,1.774619,3.224032,0.049809
1003.503906,2.134000,3.978748,-2.145177,0.837638
1003.507812,3.240184,8.777222,5.592194,-0.008930
1003.511719,11.261376,5.378166,4.992470,-1.434913
1003.515625,8.973334,2.020105,11.906251,9.231188
1003.519531,8.385564,8.389026,12.611226,12.494814
1003.523438,8.850171,9.553009,11.553258,10.610809
1003.527344,11.017279,11.152773,10.066795,15.682177
1003.531250,8.373992,6.544210,16.108524,11.787336
1003.535156,2.717059,6.585469,7.076203,8.689787
1003.539062,4.739908,8.200888,8.467224,9.132377
1003.542969,1.130578,-1.110090,-1.862391,2.610734
1003.546875,5.515949,1.773439,-0.795224,0.646935
1003.550781,4.831056,-7.082359,-0.935785,1.580008
1003.554688,0.526093,3.198910,-7.491753,-1.355916
1003.558594,-7.902792,-4.615765,-6.893840,-13.967687
1003.562500,-6.389880,-3.192753,-5.820111,-9.922330
1003.566406,-5.785357,-8.110160,-7.193108,-6.871500
1003.570312,-14.148915,-7.758622,-3.098259,-5.464643
1003.574219,-6.349240,-9.577284,-11.152920,-12.388715
1003.578125,-11.752675,-10.943236,-12.341367,-15.373747
1003.582031,-10.176028,0.146556,-7.773020,-11.442963
1003.585938,-3.693423,-10.331715,-5.247865,-14.752241
1003.589844,-0.078118,-5.982091,-0.542068,-0.942329
1003.593750,-7.794871,-7.683565,0.891050,-7.689453
1003.597656,0.075223,-0.070504,-2.909927,-0.703149
1003.601562,-8.478648,-0.502365,6.330170,4.132335
1003.605469,3.594211,0.620968,-1.538247,-0.084209
1003.609375,2.635274,4.471236,2.566216,-4.365303
1003.613281,8.776098,-0.915777,9.500986,-0.132956
1003.617188,8.803979,6.502362,15.903972,7.639469
1003.621094,14.084638,12.480004,10.860179,8.842512
1003.625000,4.988829,8.956844,8.112760,9.333928
1003.628906,0.696893,8.111359,14.236948,9.406734
1003.632812,6.203505,8.438200,10.303773,6.890144
1003.636719,17.388320,11.145170,1.297391,-0.043580
1003.640625,10.169335,7.465226,12.592411,0.075862
1003.644531,9.401749,1.942984,0.399931,8.665599
1003.648438,-7.089593,-4.469979,1.550502,0.085933
1003.652344,0.896081,4.255158,3.813086,-2.802116
1003.656250,-5.347677,-4.200334,1.788282,-2.053122
1003.660156,0.773288,-12.769297,-8.595557,-5.755612
1003.664062,-4.099809,-7.824470,-12.568133,-4.843394
1003.667969,-8.891105,-12.210926,-5.204438,-5.820989
1003.671875,-14.338423,-10.193632,-3.317854,-11.423261
1003.675781,-3.610163,-6.244585,-12.481078,-4.329110
1003.679688,-11.879330,-13.805730,-8.603682,-6.371776
1003.683594,-13.760347,-8.368161,-8.551815,-11.150407
1003.687500,1.223298,-6.415237,-12.979688,-3.105254
1003.691406,-6.906738,-6.887154,0.479794,-4.068209
1003.695312,3.929539,-6.467714,-4.138285,-9.569510
1003.699219,2.499200,-0.374992,1.593275,2.626095
1003.703125,2.088334,3.829403,1.782519,-2.206031
1003.707031,-0.239023,4.096229,6.622229,8.280853
1003.710938,7.492677,5.749911,11.823955,4.822376
1003.714844,8.862773,11.270825,5.313857,6.864947
1003.718750,4.490847,8.369047,5.730805,14.963302
1003.722656,6.797147,10.565900,7.660470,6.854442
1003.726562,8.189850,14.906879,-0.199880,5.658762
1003.730469,10.772144,11.035129,14.634509,8.907172
1003.734375,5.668477,5.785903,4.479769,4.861442
1003.738281,4.462655,3.013770,4.913568,11.539848
1003.742188,4.508566,3.659199,-0.064510,0.324843
1003.746094,0.127421,7.160386,0.204197,3.736227
1003.750000,3.628726,0.355279,-4.161569,1.263944
1003.753906,-3.330620,-1.108578,-6.910482,-0.695798
1003.757812,-4.789408,-2.590285,-6.697033,-10.814611
1003.761719,-7.126712,-1.554979,-5.333025,-8.993526
1003.765625,-5.010278,-5.782486,-16.565025,-3.245064
1003.769531,0.699140,-7.108965,-14.242806,-4.050526
1003.773438,-8.221537,-6.740341,-12.329230,-9.548279
1003.777344,-10.512355,-1.823753,-18.345451,-4.784976
1003.781250,-9.896629,-6.710283,-6.766185,-4.212136
1003.785156,-9.084763,-2.993082,-6.806571,-0.870955
1003.789062,-4.622856,2.032951,-10.674989,-10.377019
1003.792969,-4.704555,-5.942817,2.546206,-3.376111
1003.796875,-0.283879,-1.130117,0.276453,-2.122332
1003.800781,-2.047565,-0.216438,-3.461050,5.101403
1003.804688,7.528295,1.968369,1.936777,-0.669465
1003.808594,9.514268,7.961110,5.879772,-0.270982
1003.812500,1.056541,6.823877,12.570546,7.863050
1003.816406,0.663552,16.385428,14.533003,14.156605
1003.820312,13.062243,11.384180,10.692502,7.140571
1003.824219,7.726999,14.572298,9.395320,10.222628
1003.828125,11.289133,10.662868,15.025387,15.804540
1003.832031,10.503449,8.673880,11.370635,11.642182
1003.835938,11.141330,7.530642,5.932217,8.032441
1003.839844,-1.836767,5.897494,4.682323,-1.160642
1003.843750,4.065925,6.662859,12.211032,-1.805333
1003.847656,7.841481,0.670140,0.583939,-5.650362
1003.851562,-11.166906,1.820032,-5.259779,-5.124501
1003.855469,-5.622438,-4.301325,-3.983068,1.239548
1003.859375,-1.443711,-7.386473,-8.468983,-5.881982
1003.863281,-6.838882,-2.719653,-14.888709,-11.074530
1003.867188,-7.059620,-5.213438,-7.649258,-7.831238
1003.871094,-1.947726,-3.117454,-12.058224,-11.855515
1003.875000,-7.356298,-10.639077,-11.690605,-8.529436
1003.878906,-11.415726,-7.098780,-6.453185,-7.280597
1003.882812,-4.787433,-10.353566,-9.342302,-6.457601
1003.886719,0.361728,-10.751613,-11.779260,-13.533078
1003.890625,-7.281336,-13.867087,-1.677223,-10.845468
1003.894531,-0.893624,-4.161075,-4.795081,-3.948546
1003.898438,-1.909882,-2.351963,4.832615,-8.034225
1003.902344,-0.016015,7.995927,6.249587,-0.706364
1003.906250,7.602968,8.176191,-2.154894,-1.472317
1003.910156,5.017069,10.093554,3.739088,5.745767
1003.914062,15.420715,3.607839,-1.938832,5.109320
1003.917969,12.311337,8.697709,7.145553,11.715567
1003.921875,3.173940,12.306149,9.083994,13.765562
1003.925781,16.247238,6.794122,4.381433,6.080048
1003.929688,11.219781,13.345292,10.564802,12.612764
1003.933594,8.077892,12.033732,12.900027,10.104524
1003.937500,9.610187,7.177647,9.801110,4.923458
1003.941406,1.247900,2.047785,5.347029,2.065294
1003.945312,0.852228,5.881083,9.409696,7.510530
1003.949219,2.256160,6.306799,0.992753,2.651044
1003.953125,-3.456869,1.378935,-1.485664,-4.329087
1003.957031,-4.911557,-5.869839,-6.664058,-4.782732
1003.960938,-10.250021,-8.016004,-10.082757,-12.374169
1003.964844,-6.540996,-16.435669,-6.940177,-2.563711
1003.968750,-15.027059,-9.116127,-15.866612,-1.785127
1003.972656,-13.074320,-2.233002,-10.865995,-9.994128
1003.976562,-17.247598,-7.157310,-7.189249,-10.874058
1003.980469,-13.316714,-2.311568,-9.754340,-6.708391
1003.984375,-12.076870,-8.969024,-11.718993,-14.460441
1003.988281,-7.835189,-2.722109,-5.284861,-7.155470
1003.992188,-10.475891,-3.467090,-3.187362,-0.277554
1003.996094,-4.462918,4.499588,-4.528584,1.628839
1004.000000,-4.435739,-9.250947,3.916370,-3.864336
1004.003906,-5.313735,3.253599,-0.918575,6.613472
1004.007812,-0.012580,5.787496,-0.350851,12.163632
1004.011719,8.515773,15.767334,4.174261,4.585217
1004.015625,5.152904,15.112058,3.666621,8.023641
1004.019531,10.381223,10.925547,8.625407,10.768928
1004.023438,15.091717,10.049730,10.914695,9.472749
1004.027344,12.360314,11.948750,9.285669,12.368692
1004.031250,9.545060,10.581962,8.894190,8.534446
1004.035156,12.911578,10.871451,9.204769,11.202059
1004.039062,5.383746,10.185724,7.822085,3.542617
1004.042969,3.303660,4.698346,-2.303556,-0.708760
1004.046875,1.235839,3.942486,1.672006,12.887065
1004.050781,-2.689979,-0.888059,-4.295438,-3.798652
1004.054688,-5.775651,-6.113479,1.451203,-5.037867
1004.058594,-11.948040,-7.689631,-8.180675,-9.547049
1004.062500,-9.223633,-9.490767,-5.569281,-10.869351
1004.066406,-5.320862,-5.254148,-2.191890,-12.319293
1004.070312,-7.174321,-12.461227,-16.072666,-9.546824
1004.074219,-12.306094,-2.484455,-11.208471,-15.567735
1004.078125,-8.578314,-7.932624,-12.810431,-10.015935
1004.082031,-8.280827,-7.483414,-6.486143,-9.472764
1004.085938,-5.996613,-6.336864,-9.575993,-7.076754
1004.089844,-4.273067,-7.783169,-10.134941,-12.170288
1004.093750,-4.705167,-0.336052,-6.347993,-5.328559
1004.097656,-2.580927,2.757460,1.885501,2.041442
1004.101562,3.389488,1.818640,-4.004543,7.146987
1004.105469,4.092230,2.280346,-5.975763,6.506738
1004.109375,8.305024,4.490245,8.471980,6.050748
1004.113281,6.991860,5.504659,9.672978,11.914753
1004.117188,6.829380,7.914169,17.233981,11.964593
1004.121094,7.968552,15.825024,13.020099,8.266278
1004.125000,4.460245,8.204662,17.571894,9.694556
1004.128906,6.993376,10.626654,5.026720,6.743518
1004.132812,10.417650,6.740551,10.489929,5.028687
1004.136719,8.455907,3.308626,5.399592,-1.272647
1004.140625,7.284688,6.825588,14.507001,0.501671
1004.144531,-2.640795,-2.584122,-3.211345,-1.234128
1004.148438,0.251326,3.903190,-2.797307,2.839991
1004.152344,-3.550584,-0.865695,-3.448572,0.885408
1004.156250,7.818840,0.577271,-5.408375,-5.455405
1004.160156,-8.677688,-8.906919,-2.423900,-2.114557
1004.164062,-11.669456,-7.024426,-7.452086,-3.698256
1004.167969,-10.593439,-6.359188,-11.675625,-7.389752
1004.171875,-2.091842,-14.509937,-11.553424,-9.068171
1004.175781,-11.891978,-17.500239,-8.954418,-7.275763
1004.179688,-12.293448,-13.063022,-14.604087,-6.135114
1004.183594,-10.267382,-9.001655,-8.971047,-20.135157
1004.187500,-5.084510,-1.155561,-12.630169,-7.566291
1004.191406,0.285355,-7.307283,-4.962170,-3.205123
1004.195312,2.955238,-10.384737,1.206213,-1.416429
1004.199219,2.947617,2.373698,1.858418,-1.017878
1004.203125,-0.042419,9.587584,3.146484,6.258259
1004.207031,-1.718788,-1.398302,9.173654,-2.803262
1004.210938,6.214582,7.421504,0.717104,6.311778
1004.214844,13.090251,4.937497,12.299299,6.503605
1004.218750,6.166650,15.566309,4.116059,3.618704
1004.222656,12.779345,11.947638,9.962924,2.321407
1004.226562,6.611429,8.862124,7.818386,6.078593
1004.230469,12.896758,18.898444,17.329293,9.123456
1004.234375,6.733511,18.133385,13.893086,7.190239
1004.238281,2.787132,8.747059,5.129340,5.260077
1004.242188,4.324735,3.078814,5.388319,4.946751
1004.246094,9.745437,11.089056,3.010566,4.496390
1004.250000,0.856728,-2.583082,0.686452,-2.389172
1004.253906,2.232366,2.459652,4.425725,-1.191134
1004.257812,-1.946693,-5.195779,-5.384647,-2.317726
1004.261719,1.297451,-5.778052,-9.938591,-5.609963
1004.265625,-8.919191,-10.977151,-10.698368,-13.877905
1004.269531,-10.176103,-10.117804,-12.635164,-5.015559
1004.273438,-14.490747,-0.403798,-3.398166,-9.212393
1004.277344,-16.889030,-18.915326,-8.168459,-17.742081
1004.281250,-11.366841,-1.448498,-10.646319,-11.430901
1004.285156,-8.316474,-10.269528,-9.969091,-4.473315
1004.289062,-1.115558,-6.924040,-2.218913,-10.246189
1004.292969,0.269677,-8.437634,-2.866908,-9.017939
1004.296875,-11.415622,3.251306,-5.880807,-1.522681
1004.300781,-2.323424,0.130988,-2.001647,-6.018969
1004.304688,3.190713,4.174247,5.349832,-3.015872
1004.308594,6.202009,1.763926,9.665680,8.722608
1004.312500,1.812146,10.686465,-0.075223,7.978795
1004.316406,6.845520,12.005144,4.783524,11.385913
1004.320312,9.612634,11.227193,15.767029,4.000296
1004.324219,8.501577,11.167733,13.058629,18.170389
1004.328125,12.148136,-1.925944,4.395595,4.264519
1004.332031,15.367685,9.575464,10.599668,7.971897
1004.335938,4.667862,13.307067,5.519576,6.861025
1004.339844,6.534527,7.188638,4.317631,5.131293
1004.343750,4.503159,4.375310,1.889185,8.807937
1004.347656,7.682180,1.690434,8.398038,5.813585
1004.351562,-4.651228,0.600633,-0.965758,4.923519
1004.355469,-1.825744,-5.186578,-8.513930,-0.875119
1004.359375,-6.127517,-12.385483,-8.098496,-7.337162
1004.363281,-5.074521,-10.407800,-11.626607,-7.576602
1004.367188,-10.185564,-8.799394,-2.791187,-3.693005
1004.371094,-9.354855,-5.990555,-4.248708,-7.655113
1004.375000,-7.876121,-4.386454,-11.127788,-2.330003
1004.378906,-6.087386,-9.503412,-9.194241,-13.644471
1004.382812,-13.937117,-10.092456,-13.261519,-5.883033
1004.386719,1.235659,-6.391609,6.039252,-18.105070
1004.390625,-6.609379,-7.207425,-7.020342,-8.121692
1004.394531,-9.275555,-5.531175,-5.225932,0.180541
1004.398438,-5.771911,-6.457295,-2.499705,-2.424004
1004.402344,-2.279119,2.093268,-0.209367,11.152520
1004.406250,-0.114555,2.995571,-0.486372,10.844091
1004.410156,2.806903,6.058724,2.540027,3.845977
1004.414062,13.610970,9.411088,10.986595,6.836080
1004.417969,11.409924,6.577266,6.510267,11.191793
1004.421875,2.512532,11.655457,11.777760,8.434975
1004.425781,14.181692,21.664614,10.289794,8.861503
1004.429688,8.015951,10.074021,9.781287,4.290792
1004.433594,4.142062,9.368213,7.049894,4.225855
1004.437500,12.729262,6.741756,-0.582569,5.774745
1004.441406,4.231252,3.979690,4.927935,0.012422
1004.445312,2.468219,1.697468,7.125839,3.888411
1004.449219,3.647929,-3.809809,-3.435355,-3.021527
1004.453125,-2.249364,1.924077,0.623661,1.357534
1004.457031,-1.446852,-3.607320,-4.777746,-6.326807
1004.460938,-3.843887,-7.674149,-14.065703,-4.351698
1004.464844,-11.072556,-7.005013,-3.323395,-2.581147
1004.468750,-12.401356,-5.584657,-8.846311,-4.540798
1004.472656,-6.728013,-10.079004,-4.158262,-12.287249
1004.476562,-9.032949,-13.108326,-11.994569,-9.752389
1004.480469,-6.718305,-11.914001,-6.573750,-11.913600
1004.484375,-8.758804,-6.104570,-6.169992,-7.490465
1004.488281,-0.036449,-8.282591,-14.602166,-4.590336
1004.492188,-1.174939,-4.054720,-3.324567,-0.629547
1004.496094,-2.953760,-1.483352,3.407195,4.441333
1004.500000,-1.125629,-11.673838,6.956037,-9.913584
1004.503906,2.332140,9.813768,-0.385304,8.822213
1004.507812,0.008643,8.044173,5.791150,5.411343
1004.511719,6.196861,9.352240,4.286073,3.845430
1004.515625,3.728835,10.479677,3.362491,11.958855
1004.519531,13.395839,10.545260,6.941733,8.107393
1004.523438,2.109754,9.654105,15.743601,10.861934
1004.527344,6.986097,7.780692,1.546349,10.327912
1004.531250,12.599509,6.338020,4.702346,10.299259
1004.535156,6.359147,10.402487,5.557915,10.595233
1004.539062,2.969176,9.981511,8.118184,4.936232
1004.542969,1.124368,2.858827,8.760203,8.425360
1004.546875,2.713358,-2.825190,-4.321405,2.908713
1004.550781,-4.270719,-1.253442,1.335235,-1.170388
1004.554688,-4.858973,-2.896598,0.043439,-2.056214
1004.558594,-3.684069,-5.307755,-1.098759,-5.557791
1004.562500,-6.134745,-4.052764,-14.142005,-6.161506
1004.566406,-9.988082,-1.195259,-11.921212,-4.919241
1004.570312,-12.604483,-6.349899,-4.519384,0.771912
1004.574219,-9.051424,-3.960196,-15.468961,-9.356984
1004.578125,-7.726501,-4.190146,-13.128553,-17.968395
1004.582031,-5.504730,-8.263765,-9.296670,-4.859784
1004.585938,-5.281508,-5.907593,-10.275710,-9.974748
1004.589844,-3.391982,-1.634753,-7.954757,-3.927294
1004.593750,-4.407295,-1.438526,-6.694966,-4.617417
1004.597656,0.320310,0.256035,-8.699782,0.596283
1004.601562,4.123955,2.666345,4.121369,7.615968
1004.605469,-3.244771,-1.405122,6.470778,5.633494
1004.609375,10.016308,-0.624235,5.083604,-4.041498
1004.613281,2.288541,0.092873,13.330958,10.443793
1004.617188,14.085626,2.304628,10.560156,12.116335
1004.621094,13.396684,8.116760,5.882083,5.675825
1004.625000,8.289634,10.847269,3.047054,8.155943
1004.628906,10.133734,14.780372,2.843676,7.625200
1004.632812,4.335419,5.356390,4.096871,9.559524
1004.636719,8.057464,2.708822,3.767303,2.976064
1004.640625,1.343141,5.939247,1.170209,12.256522
1004.644531,-5.447643,3.438735,3.720926,4.728941
1004.648438,-0.808069,-6.077124,2.186929,1.418084
1004.652344,-1.536919,0.176227,-0.791308,-8.759663
1004.656250,-3.523866,-5.710367,-1.850745,-5.376965
1004.660156,-6.544708,-8.417644,-8.548302,-11.500938
1004.664062,-9.774580,-4.154697,-2.521216,-7.884994
1004.667969,-8.339748,-11.149250,-13.625227,-13.473337
1004.671875,-7.700490,-8.556428,-12.412053,-8.134430
1004.675781,-5.651285,-7.663821,-4.771853,-10.289036
1004.679688,-7.987649,-5.622612,-12.755442,-8.005075
1004.683594,-4.509695,-13.420680,-8.674927,-3.522193
1004.687500,2.589429,-5.927743,-8.763199,-8.536379
1004.691406,-0.897903,0.125197,-2.721008,-8.222448
1004.695312,-1.151556,-1.298849,0.004628,-1.936072
1004.699219,-3.583813,6.061601,-0.852975,8.468307
1004.703125,0.591744,2.193037,1.773364,-3.044631
1004.707031,2.083784,4.706717,4.429135,1.233055
1004.710938,15.478656,1.422534,11.150056,10.234971
1004.714844,2.874904,1.150388,2.964452,7.017717
1004.718750,10.074468,12.530101,4.623421,3.679195
1004.722656,11.577578,3.531210,6.704585,7.781996
1004.726562,7.677705,9.869181,11.077759,12.082727
1004.730469,10.720485,10.635281,12.074836,13.807881
1004.734375,5.256943,5.696335,11.378403,10.877784
1004.738281,6.823222,5.083830,11.293401,8.994611
1004.742188,4.607986,5.910406,2.049264,0.899280
1004.746094,-2.547848,1.580312,-0.593727,0.973233
1004.750000,4.180709,-5.589563,8.353691,4.075629
1004.753906,-2.923386,-2.153757,-0.154588,2.724790
1004.757812,-8.283270,-6.716026,2.151505,-12.023470
1004.761719,-2.903350,-3.815665,-13.094052,-9.353253
1004.765625,-5.082949,-8.612100,-3.222732,-12.799657
1004.769531,-8.013245,-15.073970,-11.828406,-16.685365
1004.773438,-8.331132,-8.457923,-10.617141,-9.040864
1004.777344,-10.093216,-10.420657,-6.211579,-5.725204
1004.781250,-13.671827,-15.561342,-8.981945,-4.807841
1004.785156,-15.665312,-6.082393,-6.877370,-4.401453
1004.789062,-6.151890,-8.089109,-13.033983,-10.500575
1004.792969,-4.133427,1.371745,-5.127675,-6.241610
1004.796875,3.296783,-2.314358,-1.496108,-4.133797
1004.800781,-6.246464,-0.520344,4.438944,3.689833
1004.804688,6.626017,0.921872,-4.650877,5.237202
1004.808594,10.765765,5.903003,9.474083,2.625885
1004.812500,7.725190,11.982014,6.681906,6.500598
1004.816406,13.533668,11.114548,7.422116,9.613850
1004.820312,7.406328,8.117154,16.893537,12.971672
1004.824219,8.479196,13.887473,11.227224,14.936312
1004.828125,9.137599,9.268776,12.952154,8.699220
1004.832031,5.619300,16.759826,7.660043,7.057099
1004.835938,8.580576,0.361882,4.094938,6.284152
1004.839844,7.685738,9.121509,3.237136,2.423222
1004.843750,8.639052,6.741401,3.201587,11.579572
1004.847656,0.832080,-1.324558,2.780616,7.869073
1004.851562,0.931390,4.358872,5.769406,6.020869
1004.855469,-7.802821,-3.396429,2.132297,-11.428512
1004.859375,-9.393586,-9.749280,-9.754448,-6.854621
1004.863281,-9.678935,-0.892302,-11.144160,-13.624958
1004.867188,-9.668152,-8.252426,-8.019602,-10.303320
1004.871094,-11.238472,-4.515839,-8.585493,-10.254096
1004.875000,-8.381095,-13.820834,-10.304642,-10.447076
1004.878906,-5.552652,-10.920075,-7.769625,-3.298607
1004.882812,2.482858,-11.173693,-8.689125,-4.748093
1004.886719,-14.233769,-0.472025,-8.380605,-3.766987
1004.890625,-8.545123,-2.972811,-13.479927,-2.403060
1004.894531,-4.501592,-6.745718,-4.851455,2.197285
1004.898438,-0.695461,1.758783,-1.119142,-6.168128
1004.902344,0.073210,6.679637,-4.244847,-3.131768
1004.906250,3.643348,3.364576,7.290948,5.637379
1004.910156,6.873053,1.609923,2.973381,3.770175
1004.914062,2.989072,8.607480,9.205146,9.274736
1004.917969,7.353355,3.859465,9.651438,15.201812
1004.921875,16.781331,13.529144,13.834308,10.246977
1004.925781,11.278837,9.416219,11.834927,0.588496
1004.929688,8.249877,3.064153,10.538017,15.948052
1004.933594,0.565479,7.932501,7.791894,9.803090
1004.937500,9.653113,9.423142,11.756765,4.632943
1004.941406,14.450403,6.810125,1.633180,8.817925
1004.945312,2.688361,-3.134990,-0.345542,3.892161
1004.949219,-6.581146,6.649592,-3.232268,-6.124662
1004.953125,1.806692,0.911082,-2.435659,-4.027198
1004.957031,-2.361322,-6.698095,-2.136908,1.348979
1004.960938,-4.815588,-1.945756,-5.008259,-5.993795
1004.964844,-12.962088,-7.812931,-4.713021,-3.051066
1004.968750,-9.597968,-16.513658,-12.772035,-13.185850
1004.972656,-6.280477,-6.243230,-13.986704,-1.576750
1004.976562,-8.629151,-13.205442,-13.293380,-12.816909
1004.980469,-6.021060,-9.234057,-14.791236,-7.606273
1004.984375,-5.998076,-17.170770,-11.186172,-5.817798
1004.988281,-11.075667,-7.763977,-10.194015,-9.797602
1004.992188,-6.118880,-7.387370,-4.348360,-1.102281
1004.996094,4.422857,-1.200173,0.373475,0.161727
1005.000000,-0.152357,-1.070480,-3.516139,9.840914
1005.003906,8.612217,2.198915,4.802400,4.417472
1005.007812,6.232027,3.626229,7.734284,4.231288
1005.011719,2.947590,11.038735,10.383902,9.642395
1005.015625,9.834287,3.693897,11.857978,7.993263
1005.019531,5.581353,14.763264,5.414895,8.586146
1005.023438,7.478239,7.755636,6.749272,15.994909
1005.027344,7.241246,5.463820,17.876210,11.782070
1005.031250,12.446690,8.121363,9.227029,6.038434
1005.035156,1.412628,8.802004,7.472853,8.331639
1005.039062,-1.956562,2.407380,5.213270,12.568031
1005.042969,3.103852,7.566849,8.705297,7.085141
1005.046875,4.126017,8.410427,-0.692008,4.169046
1005.050781,-5.229980,0.254253,-0.063128,3.144025
1005.054688,-1.778139,-0.948673,5.115868,-1.554994
1005.058594,1.642761,-9.492901,-7.686407,-4.678155
1005.062500,-16.280617,-5.664817,-8.603935,-8.162113
1005.066406,-4.304348,-6.109207,-10.946161,-12.855364
1005.070312,-9.063666,-15.071397,-17.760490,-2.071775
1005.074219,-12.917790,-11.401252,-12.919102,-17.660439
1005.078125,-14.828478,-16.336837,-9.689672,-6.491648
1005.082031,-14.197853,-7.643516,-12.911545,-9.512474
1005.085938,-15.997567,-10.631915,-12.326314,-18.083262
1005.089844,-7.211174,-10.191136,-4.562697,-2.274017
1005.093750,-11.116972,3.968796,-4.760277,-3.248498
1005.097656,-6.444320,2.916611,3.551473,6.729863
1005.101562,-5.547678,0.049124,0.399195,4.643930
1005.105469,5.495156,5.030031,7.242144,-2.207321
1005.109375,6.246814,2.982745,6.591911,6.699432
1005.113281,7.262890,12.345625,2.949542,13.062742
1005.117188,9.860487,7.995507,2.728129,7.883814
1005.121094,8.716094,9.726526,7.134154,13.126199
1005.125000,17.482608,14.103460,11.663513,8.967332
1005.128906,17.210985,9.348547,3.760505,10.535659
1005.132812,8.647277,3.510842,10.448361,7.021741
1005.136719,3.178508,4.950204,10.329707,6.119112
1005.140625,2.875077,9.877442,4.446715,4.216305
1005.144531,-0.216902,7.972434,7.917792,3.542583
1005.148438,-5.373937,3.425768,-4.034955,0.245109
1005.152344,2.490126,-2.901325,-5.217421,-2.207154
1005.156250,-5.680595,-0.724339,-7.048745,-4.019854
1005.160156,-3.203744,-4.147888,-12.405090,-12.033180
1005.164062,-11.869481,-2.089636,-7.277943,-8.616254
1005.167969,-6.600282,-16.733583,-17.048949,-7.835528
1005.171875,-10.935544,-8.404591,-10.539818,-13.614662
1005.175781,-11.216740,-14.448033,-5.685380,-17.627176
1005.179688,-7.777052,-11.219505,-11.429357,-2.231625
1005.183594,-6.646097,-7.809832,-10.292262,-5.289428
1005.187500,-8.903192,-10.853397,-7.468472,-4.698197
1005.191406,1.198309,-7.642909,-6.348639,-4.680141
1005.195312,0.211939,-2.286372,-5.031625,-3.043538
1005.199219,-4.034253,-3.426279,-0.582266,2.570615
1005.203125,1.548674,-3.781554,5.407589,-1.689644
1005.207031,4.537825,-1.157433,11.227367,7.720047
1005.210938,4.215247,8.981085,5.392434,12.312695
1005.214844,2.480570,9.253386,12.594994,7.297270
1005.218750,1.827359,9.373341,11.617571,9.292815
1005.222656,-3.828265,4.518067,5.986539,11.328889
1005.226562,6.169430,9.425830,11.782973,3.589401
1005.230469,7.471454,7.535280,1.530663,7.969919
1005.234375,17.362189,13.168414,10.484577,8.942578
1005.238281,3.374692,-0.729174,10.292968,4.609674
1005.242188,4.842322,4.888136,3.936912,8.424277
1005.246094,4.529479,3.740499,-2.386862,6.463565
1005.250000,9.782846,-0.194530,0.048567,-2.953304
1005.253906,-8.516659,-3.411399,4.814791,2.407989
1005.257812,-10.896030,0.667802,0.885050,-5.923693
1005.261719,-4.738602,-6.977331,-6.627408,-1.758264
1005.265625,-11.197652,-14.175296,-9.295132,-0.555556
1005.269531,-1.468706,-11.564766,-7.421104,-13.190652
1005.273438,-6.677310,-3.123319,-10.925062,-9.198372
1005.277344,-9.879767,-7.217289,-10.168215,-12.391572
1005.281250,-5.702764,-7.912378,-8.910063,-9.898617
1005.285156,-4.381947,-11.767860,-11.340040,-8.560806
1005.289062,-5.224514,-8.998090,-8.929016,-11.256629
1005.292969,-8.956632,5.699693,-2.557653,-1.182539
1005.296875,4.620790,0.570097,-3.656730,-1.364044
1005.300781,-1.199214,1.053077,-0.768741,-1.699494
1005.304688,3.033218,-0.062946,4.814207,3.620623
1005.308594,11.317278,8.104562,6.121583,7.983966
1005.312500,4.152565,11.908220,0.156748,10.515747
1005.316406,3.225501,14.162412,7.058746,10.710542
1005.320312,8.916145,4.463209,13.323062,6.251082
1005.324219,5.680382,11.198012,5.445218,6.620032
1005.328125,11.933428,9.542004,2.641645,6.568271
1005.332031,10.361340,16.423597,9.255330,5.326089
1005.335938,5.502341,6.597123,8.146126,9.408553
1005.339844,7.375086,9.002922,0.987985,3.571568
1005.343750,3.443683,4.856775,2.559013,9.967947
1005.347656,9.414633,0.689732,4.491468,1.347301
1005.351562,-0.001777,-5.073932,0.447991,-2.251930
1005.355469,-5.571953,0.984198,-3.787464,-0.936247
1005.359375,-3.167154,-0.993379,-10.875470,-1.468045
1005.363281,-2.605304,-0.360946,-5.845226,-11.784807
1005.367188,-13.314974,-9.233906,-3.626520,-8.030779
1005.371094,-13.273841,-2.940796,-6.021442,-3.544085
1005.375000,-8.512387,-10.391672,-1.941752,-6.648783
1005.378906,-5.508883,-10.878862,-8.405570,-6.270128
1005.382812,-6.220161,-13.146395,-18.669293,-8.725927
1005.386719,-8.835749,-7.897206,1.927244,-5.507330
1005.390625,-3.194753,4.547735,-4.225184,-0.952586
1005.394531,5.259749,-7.250334,7.341106,-8.995109
1005.398438,2.081712,-4.324346,1.932319,-9.889321
1005.402344,5.498864,1.245635,11.991971,-4.911949
1005.406250,2.365795,1.685776,3.547641,7.261008
1005.410156,8.894419,8.163137,5.291807,4.470109
1005.414062,11.923879,6.535510,3.194089,14.813516
1005.417969,9.665574,11.116690,14.129470,15.226395
1005.421875,5.424622,10.168917,13.887741,2.362701
1005.425781,11.622113,12.690857,9.719592,7.234841
1005.429688,12.272549,4.930777,13.892772,14.583437
1005.433594,7.220365,12.431821,9.548196,10.371868
1005.437500,7.332170,15.076266,0.777399,0.427056
1005.441406,11.802438,5.728546,7.272460,9.177233
1005.445312,0.920770,6.137737,0.500861,3.764648
1005.449219,-0.880101,4.923064,-2.560427,-1.839395
1005.453125,-8.092017,0.655883,0.653058,-2.336877
1005.457031,-2.130916,-3.214986,-6.999166,6.622599
1005.460938,-11.320620,-3.047569,-3.301315,-3.530745
1005.464844,1.511776,-4.889937,-12.967216,-6.856327
1005.468750,-16.765749,-10.025242,-15.775384,-9.962119
1005.472656,-9.311681,-11.467181,-18.783623,-11.734329
1005.476562,-8.018379,-9.787887,-1.297232,-10.890652
1005.480469,-6.801118,-8.056464,-5.204691,-12.054135
1005.484375,-11.548074,-13.239761,-13.092367,-5.166048
1005.488281,-5.868805,-5.071590,-2.103364,-6.675116
1005.492188,-3.037432,0.318065,0.506544,-2.573769
1005.496094,-2.399371,-4.340776,0.022767,-2.031420
1005.500000,-2.355421,3.115112,3.482815,4.276077
1005.503906,2.117204,5.323207,0.018038,0.005825
1005.507812,2.276471,5.713160,-2.665653,3.752402
1005.511719,3.452168,9.131372,9.410691,0.668604
1005.515625,7.907501,5.757071,6.688850,3.957849
1005.519531,10.552386,9.642750,13.839792,11.810031
1005.523438,6.502898,7.802589,13.212958,13.444649
1005.527344,3.794494,15.350886,14.952466,12.933528
1005.531250,13.603960,7.622298,11.519577,10.495506
1005.535156,7.669469,9.794564,10.560572,16.827738
1005.539062,5.520399,2.449302,8.561972,7.107757
1005.542969,7.279007,0.467110,4.854037,4.590934
1005.546875,-0.545042,4.409968,4.701123,9.374710
1005.550781,3.319996,-3.155009,-5.612621,-3.315627
1005.554688,-3.900733,0.574041,-4.246811,4.114129
1005.558594,-2.742340,-1.792446,-7.951501,-6.236447
1005.562500,-7.762599,-5.189361,-19.857816,-3.663249
1005.566406,-8.642826,-6.211967,-5.675935,-12.325397
1005.570312,-10.666232,-12.257170,-4.256524,-11.159507
1005.574219,-6.952472,-11.379810,-13.202865,-8.774843
1005.578125,-7.904924,-6.159258,-14.397498,-5.088537
1005.582031,-10.194903,-10.816553,-6.473396,-8.842767
1005.585938,-9.445567,-11.524488,-4.854375,-9.704397
1005.589844,-12.193031,-9.321478,-4.470273,-10.955644
1005.593750,0.035082,-8.322543,-2.479455,-3.142115
1005.597656,-4.868080,-0.572431,-9.741861,0.112046
1005.601562,-6.881230,0.965849,-5.432414,0.917679
1005.605469,7.911499,3.291223,-0.043659,1.004438
1005.609375,2.896531,5.110662,9.087464,7.584932
1005.613281,14.058567,11.700992,4.930117,8.624736
1005.617188,6.750357,1.683430,6.633974,4.742034
1005.621094,13.967762,12.694874,4.862315,13.264830
1005.625000,9.930149,9.610233,5.163274,9.698983
1005.628906,6.869563,0.906515,9.330568,13.610406
1005.632812,8.256342,16.007298,12.414690,17.784637
1005.636719,7.487899,1.790362,10.651899,7.533661
1005.640625,5.424552,8.012506,7.984655,-0.029799
1005.644531,2.548296,-0.299579,-5.461297,0.540777
1005.648438,9.481805,-1.878141,-4.454168,10.210033
1005.652344,-6.480749,4.512115,-5.796698,-3.380200
1005.656250,-4.647142,-4.737937,0.193244,0.062287
1005.660156,-6.854059,0.720529,-8.390116,1.013675
1005.664062,-11.629130,-9.432522,-8.803263,-2.784226
1005.667969,-13.149124,-12.221230,-9.721469,-9.949815
1005.671875,-8.719730,-7.830000,-11.562890,-5.571774
1005.675781,-12.471783,-13.827690,-5.999074,-15.196452
1005.679688,-12.692696,-14.142179,-9.115154,-12.448151
1005.683594,-9.718767,-9.925067,-11.762771,-7.359743
1005.687500,-1.100130,-10.316955,-13.066783,-11.659926
1005.691406,-5.957450,-19.284040,-7.568748,-10.361650
1005.695312,-3.829586,-0.947802,7.381443,-7.805819
1005.699219,1.077417,9.435963,1.353014,-6.090022
1005.703125,2.856855,8.667854,4.626010,7.796227
1005.707031,3.507603,9.985594,10.983291,1.569180
1005.710938,0.168902,9.095382,7.252875,7.740806
1005.714844,1.537477,4.974482,12.201540,9.317192
1005.718750,7.456768,11.141408,2.257898,11.652067
1005.722656,10.820217,5.426347,9.799181,9.261713
1005.726562,12.302591,3.656141,12.703477,12.926319
1005.730469,5.887480,11.126324,7.842385,12.426120
1005.734375,4.645181,6.827532,9.743123,9.289541
1005.738281,17.366983,6.603138,8.058183,4.573200
1005.742188,6.597670,-0.259115,5.624430,10.674548
1005.746094,-2.630052,5.497497,3.808716,4.182371
1005.750000,-1.775563,-1.042597,5.856238,-3.010130
1005.753906,-8.446945,-14.467320,-4.265933,7.314373
1005.757812,-7.470196,-7.455398,-1.703413,-2.583492
1005.761719,-1.215388,-4.991697,-5.880067,-4.464743
1005.765625,-8.655632,-5.409731,-9.269967,-9.346981
1005.769531,-3.339583,-9.973865,-6.362819,-9.130233
1005.773438,-10.213972,-14.860166,-9.627032,-10.887722
1005.777344,-13.674057,-3.326508,-19.099277,-10.310610
1005.781250,-9.840397,-6.558321,-10.406011,-11.568858
1005.785156,-13.911425,-11.970020,-13.022295,-4.741772
1005.789062,-7.810139,-7.769708,-11.960193,-3.294791
1005.792969,-0.169399,-1.561005,-3.361484,-3.109780
1005.796875,-1.815009,5.799663,-0.049656,-2.479931
1005.800781,-2.733747,3.376482,4.707812,-4.699086
1005.804688,0.052562,10.244197,6.208592,11.280418
1005.808594,5.046898,9.181317,4.366788,4.277066
1005.812500,0.208847,1.559864,16.421728,-3.616438
1005.816406,11.116192,1.458673,9.712245,14.542410
1005.820312,11.142390,11.838934,8.858990,7.892777
1005.824219,9.059449,17.471892,8.332434,17.567085
1005.828125,10.221404,11.832259,7.037296,12.483876
1005.832031,8.389775,9.846477,8.974487,8.882069
1005.835938,5.960288,8.649656,2.524676,9.207687
1005.839844,8.391731,6.172205,3.572784,4.517615
1005.843750,-2.188696,4.267916,4.315550,5.376294
1005.847656,-5.374340,2.455182,4.196827,-1.335919
1005.851562,-4.926884,-2.211009,-0.256499,-5.439556
1005.855469,-3.456620,-10.981828,-0.087516,-6.535499
1005.859375,-0.854453,-4.825412,2.116393,-4.969612
1005.863281,-5.126367,-2.200315,-10.959944,-9.727188
1005.867188,-6.545125,-19.912709,-5.675805,-4.051512
1005.871094,-8.060477,-15.962200,-11.306834,-5.661705
1005.875000,-7.836956,-13.666280,-4.595891,-16.243059
1005.878906,-10.087788,-21.258592,-6.393338,-16.807891
1005.882812,-12.658117,-11.078772,-18.098178,-4.903006
1005.886719,-10.213970,-15.479895,-7.640600,2.724944
1005.890625,-0.297340,-5.837126,-3.871545,-7.131671
1005.894531,0.067759,-7.803655,0.563959,-5.136211
1005.898438,-0.820556,3.494047,5.205539,-2.333911
1005.902344,5.617377,6.283004,6.848107,0.660515
1005.906250,2.498234,0.408664,-1.999209,-0.149944
1005.910156,7.704692,1.574058,6.549868,5.771021
1005.914062,4.794098,8.608795,9.184878,13.707123
1005.917969,4.554616,8.756476,13.955787,7.630313
1005.921875,7.446802,8.180104,5.746974,12.858034
1005.925781,7.550150,8.292185,17.074888,8.149955
1005.929688,11.790815,10.308464,9.543339,16.703653
1005.933594,14.813653,11.275266,9.382188,14.123783
1005.937500,11.719843,1.754923,2.407285,7.725710
1005.941406,3.862542,10.296637,7.193610,1.851998
1005.945312,1.540449,12.112152,-4.951447,-0.193720
1005.949219,1.437660,8.903999,0.389992,4.279389
1005.953125,1.765859,-4.325634,-10.233598,7.009244
1005.957031,3.582638,-14.231100,-9.540678,0.399218
1005.960938,-3.359540,1.441359,-3.459390,-6.050070
1005.964844,-9.033039,-8.550105,-13.786412,-8.012680
1005.968750,-12.858004,-11.494468,-16.974810,-6.994048
1005.972656,-13.873463,-14.780199,-9.320135,-7.906866
1005.976562,-8.395656,-8.204347,-8.870282,-8.249652
1005.980469,-10.256843,-15.767608,-11.629421,-7.049967
1005.984375,-12.886215,-9.375201,-12.693513,-13.045906
1005.988281,-2.318306,-12.885869,-5.404282,-3.237419
1005.992188,-10.795951,-7.011740,-7.346754,0.213098
1005.996094,-0.624294,-4.035933,-1.875204,-2.285719
1006.000000,-0.277100,1.129508,1.788201,-2.447021
1006.003906,4.905384,3.259300,9.005915,9.142109
1006.007812,7.613224,-2.317106,3.498152,11.675213
1006.011719,-0.506022,11.467278,4.120532,9.255621
1006.015625,3.949045,6.734868,8.303093,4.210828
1006.019531,10.820956,17.063846,8.531259,8.793335
1006.023438,12.172268,13.541660,16.674795,13.343875
1006.027344,4.132756,9.568171,11.333971,2.729793
1006.031250,16.077530,5.221119,6.419600,16.556154
1006.035156,3.866211,10.491247,7.670876,7.868674
1006.039062,9.071372,-0.108010,2.699774,5.109198
1006.042969,2.107068,3.695067,8.159064,6.853816
1006.046875,0.799921,-2.933521,7.765124,-5.531876
1006.050781,1.186120,-2.989444,5.065598,1.519573
1006.054688,-0.899492,-1.727008,2.885982,0.675128
1006.058594,-2.492751,-7.029097,-1.259139,-9.379299
1006.062500,-4.737325,-2.030227,-0.978091,-5.331618
1006.066406,-12.210673,-5.324047,-10.702085,-3.573161
1006.070312,-10.167611,-8.848238,-8.671004,-8.022422
1006.074219,-5.818895,-14.894021,-14.251323,-2.736470
1006.078125,-10.529017,-6.531272,-1.501146,-12.640971
1006.082031,-11.882839,-12.220131,-11.266937,-8.579254
1006.085938,-9.074469,-10.209808,-10.904670,-17.145445
1006.089844,1.619365,-7.837436,-6.594715,-6.005466
1006.093750,-2.301704,-10.175911,2.787175,-5.209065
1006.097656,0.754720,-0.691741,-6.144997,-0.494480
1006.101562,-7.063619,6.708004,4.164787,2.755060
1006.105469,4.276357,0.642656,2.350928,7.680145
1006.109375,6.846648,-0.121540,8.810285,-2.310584
1006.113281,-0.054950,9.309160,4.032744,11.365717
1006.117188,8.598432,13.622863,10.078124,6.926521
1006.121094,5.907476,6.103934,7.223140,11.543553
1006.125000,20.802053,9.858966,6.193363,11.342640
1006.128906,9.336624,8.542756,5.573465,13.403985
1006.132812,4.894232,10.384302,11.230255,1.899135
1006.136719,4.134509,12.714674,11.931055,3.092205
1006.140625,8.117974,0.911893,-0.919936,5.225154
1006.144531,7.653697,0.310742,1.836460,2.047961
1006.148438,-3.377763,-4.413644,0.112444,-1.180672
1006.152344,-1.231624,-1.962225,-11.157742,-0.831436
1006.156250,-3.070361,-2.083286,-6.301593,-1.185133
1006.160156,-8.575812,-7.959313,-5.797279,-6.918165
1006.164062,-0.495321,-12.497572,-6.440480,-11.232848
1006.167969,-10.157992,-12.063429,-7.616721,-6.594289
1006.171875,-5.676698,-4.484373,-17.256759,-9.763626
1006.175781,-12.044987,-9.814534,-11.850087,-7.057527
1006.179688,-12.674962,-5.229654,-10.541996,-11.727460
1006.183594,-9.500624,-9.813340,-2.444906,-7.134557
1006.187500,-10.974664,-10.505757,-4.918086,-6.452636
1006.191406,-4.068304,-3.733401,-6.537879,-3.165129
1006.195312,-2.600992,0.804397,-2.564000,-1.322496
1006.199219,-1.217502,-6.149270,-4.343390,1.143042
1006.203125,4.084498,7.645055,0.426380,1.095799
1006.207031,5.264917,3.089640,-0.059217,0.348131
1006.210938,10.518242,8.463928,0.159458,-0.123206
1006.214844,13.655668,10.609133,13.994567,5.008942
1006.218750,15.165220,4.698055,10.362616,3.824489
1006.222656,11.546085,12.642657,7.789533,13.913038
1006.226562,19.527736,15.961411,16.273959,7.562480
1006.230469,7.127414,16.287112,4.974758,8.281913
1006.234375,5.227792,9.173791,3.864947,-0.830885
1006.238281,2.263526,6.769455,2.925216,0.126441
1006.242188,4.816581,-0.490517,4.395652,5.334462
1006.246094,0.251348,-0.691301,6.682002,3.180220
1006.250000,-5.568990,5.201046,-0.911741,0.128818
1006.253906,-0.543350,-5.053621,3.788324,-8.415952
1006.257812,-9.618546,-9.422867,-7.250767,-6.179427
1006.261719,-4.479316,-7.152574,-10.114569,-3.322069
1006.265625,-2.661552,-7.984326,-3.329990,-6.544647
1006.269531,-11.155749,-7.706915,-7.039947,-11.743127
1006.273438,-11.618467,-12.237875,-8.819867,-13.679066
1006.277344,-7.287255,-16.446568,-9.614535,-8.897692
1006.281250,-17.297701,-15.283104,-9.677061,-7.180724
1006.285156,-4.398553,-6.656548,-14.164724,-6.777356
1006.289062,-7.075919,-0.447780,-9.353956,-9.681988
1006.292969,-9.164613,2.764471,-6.972278,-9.174361
1006.296875,-7.131804,4.346110,-2.578841,-0.730845
1006.300781,-2.327813,-0.224113,-1.218883,-2.786692
1006.304688,11.669564,1.376368,-0.307380,8.932211
1006.308594,7.377952,9.491485,7.218136,6.122214
1006.312500,1.271024,3.024602,4.674417,1.789652
1006.316406,3.620769,8.649146,9.368812,11.637102
1006.320312,9.244034,15.111864,18.260233,12.915332
1006.324219,8.289209,11.954401,12.284797,3.394989
1006.328125,7.839572,8.590391,6.608893,16.281960
1006.332031,4.754448,7.285929,9.269343,13.372404
1006.335938,14.602006,9.157974,3.156792,8.026774
1006.339844,2.430055,8.254297,4.718562,11.582969
1006.343750,4.666255,1.560350,9.090235,1.182111
1006.347656,6.639662,1.422632,3.469164,-2.204205
1006.351562,4.071389,-4.571578,-5.118834,-3.743313
1006.355469,-0.774116,0.649921,-6.155396,-3.722253
1006.359375,-5.598916,-8.175058,-5.607990,-9.040908
1006.363281,-11.104642,-9.816539,-3.636496,-7.251659
1006.367188,-16.155494,-13.984564,-8.812343,-7.780814
1006.371094,-5.323569,-8.984201,-10.544685,-13.055091
1006.375000,-9.232323,-7.051543,-10.940359,-8.492598
1006.378906,-13.590117,-8.490351,-7.880938,-17.271293
1006.382812,6.975205,-9.168782,-3.957295,-5.045969
1006.386719,-8.318618,-12.890879,-14.463708,-9.503476
1006.390625,-2.256736,-1.134762,-13.672324,2.988309
1006.394531,-8.491940,-6.358487,5.503811,-1.017997
1006.398438,3.301256,0.410343,-1.688802,0.288569
1006.402344,-5.304034,2.444825,3.659652,-7.677493
1006.406250,3.364692,5.852670,4.883680,6.147656
1006.410156,7.180662,10.264504,8.382459,9.342934
1006.414062,7.609315,6.598066,12.507577,-2.417384
1006.417969,8.738979,10.166968,4.538642,3.174922
1006.421875,10.922582,15.930844,12.888039,9.607031
1006.425781,5.345096,12.502597,4.075579,8.912700
1006.429688,7.632151,14.215819,9.352503,15.376594
1006.433594,14.541861,8.988816,3.244854,6.958003
1006.437500,5.747379,9.726457,5.193207,5.296880
1006.441406,3.929502,-2.193955,1.051483,4.639905
1006.445312,-5.166827,1.010934,3.077134,10.479318
1006.449219,2.600692,-8.817488,1.868474,-0.424284
1006.453125,-5.220873,-5.246590,-3.402798,-1.748172
1006.457031,2.181369,-2.512673,-13.333032,-8.254253
1006.460938,-9.172633,-11.394841,-9.003752,-10.760523
1006.464844,-6.276073,-10.754325,-4.683758,-1.773440
1006.468750,-16.309049,-9.486700,-10.569244,-7.712114
1006.472656,-9.365365,-9.529751,-8.799289,-13.636020
1006.476562,-16.441955,-3.913605,-12.384417,-7.133210
1006.480469,-10.172087,-1.699259,-15.862925,-9.490956
1006.484375,-5.721947,-7.642802,-8.196564,-1.358514
1006.488281,-15.309086,-9.568924,-6.659384,-8.066811
1006.492188,-2.048149,-11.266140,-3.873181,-0.988898
1006.496094,5.873221,-7.417752,-4.135874,-2.372752
1006.500000,-1.819458,2.494266,0.489168,6.781648
1006.503906,-4.254434,2.877153,1.467855,2.581745
1006.507812,0.473515,5.485837,3.119982,1.998126
1006.511719,1.792306,1.469469,9.795738,11.930507
1006.515625,7.124052,1.560747,14.494073,8.635931
1006.519531,9.807090,7.527546,10.348147,7.857881
1006.523438,8.663547,15.309067,7.256193,6.023581
1006.527344,7.591682,11.588325,9.219464,10.383058
1006.531250,9.742700,4.120321,14.202403,9.142949
1006.535156,4.752853,5.628731,10.760534,9.323254
1006.539062,9.615896,9.053598,1.131811,7.391188
1006.542969,2.620601,8.439914,4.081757,11.608926
1006.546875,0.282428,-1.264918,-1.533236,-3.601515
1006.550781,-2.092033,3.226535,-3.053382,-7.807009
1006.554688,-5.111924,0.044511,-8.110707,-4.867886
1006.558594,-8.714315,-1.105181,-6.147463,-3.971316
1006.562500,-3.500271,-0.526752,-1.996549,-6.071555
1006.566406,-8.516461,-1.500785,-7.052664,-6.500817
1006.570312,-7.655438,-8.794489,-10.324804,-3.740758
1006.574219,-9.892658,-9.257820,-6.099939,-14.941300
1006.578125,-11.547526,-9.011332,-4.384980,-4.784535
1006.582031,-5.223190,-11.391474,-7.550228,-9.376363
1006.585938,-7.357845,1.289379,-5.864966,-9.604177
1006.589844,-8.769669,-13.151154,-3.389830,-10.965627
1006.593750,-3.848180,-8.264349,-8.116762,-3.456202
1006.597656,-1.948676,-0.376847,0.652170,-7.565776
1006.601562,3.457391,0.282211,1.276906,-6.092625
1006.605469,5.356383,-1.061929,7.178053,0.114182
1006.609375,6.927752,4.127895,9.214836,4.362071
1006.613281,2.433803,4.082794,11.184552,20.339770
1006.617188,9.763979,7.186869,7.383290,10.927146
1006.621094,10.040755,9.753992,12.938912,6.846406
1006.625000,13.857151,7.783282,12.061467,10.593552
1006.628906,9.422430,13.765628,7.831064,9.356763
1006.632812,10.532545,12.236579,5.107438,14.184877
1006.636719,13.181283,10.619474,7.842636,0.439363
1006.640625,-1.527501,7.566580,2.877889,6.417112
1006.644531,7.088959,-1.546474,3.281611,2.158570
1006.648438,6.123531,-5.751623,1.125055,-1.564410
1006.652344,-2.313385,0.471062,1.955350,-1.782218
1006.656250,-6.796359,-1.127080,-5.639794,-5.796282
1006.660156,-4.236650,-6.491369,-14.296567,-12.957861
1006.664062,-7.989161,-12.129725,-4.266081,-1.740340
1006.667969,-7.735780,-12.214974,-9.621023,-0.970939
1006.671875,-17.432839,-11.736362,-9.645769,-6.933492
1006.675781,-16.426852,-11.890736,-11.564795,-7.417225
1006.679688,-14.010627,-1.312074,-9.016582,-12.547898
1006.683594,-9.541837,-7.351355,-12.691690,-3.590645
1006.687500,-6.220350,-8.173714,-7.427497,-11.721864
1006.691406,-3.433089,-13.604224,-5.763796,-4.708580
1006.695312,2.253384,-0.864591,-7.511399,1.565355
1006.699219,-7.271561,-0.104576,3.814148,5.643621
1006.703125,2.143768,0.784293,9.503237,2.550938
1006.707031,-2.808084,7.804115,-3.553211,1.461058
1006.710938,5.855057,2.910217,7.192510,9.889795
1006.714844,6.137603,11.876511,9.579119,5.810791
1006.718750,10.389675,12.919220,12.768539,-1.090706
1006.722656,11.180284,18.474424,13.432327,10.936851
1006.726562,17.060669,4.594133,6.067999,3.201469
1006.730469,10.697793,8.950532,14.718700,13.082319
1006.734375,7.656349,9.577327,12.914919,6.216627
1006.738281,9.073160,-1.606340,13.238174,3.881085
1006.742188,6.169661,5.739477,0.963880,12.718172
1006.746094,5.337358,-1.664688,5.829891,7.805885
1006.750000,-1.343738,-0.052034,-0.918976,-0.666780
1006.753906,-2.136565,-5.135438,-3.003217,-9.300947
1006.757812,-7.281481,-10.921014,-5.606660,-10.216112
1006.761719,-9.326379,-1.214785,-4.897517,-5.912213
1006.765625,-1.009051,0.849686,-8.340186,-9.806708
1006.769531,0.696239,-10.930417,-10.589242,-7.556403
1006.773438,-9.828575,-13.807611,-4.933191,-11.555948
1006.777344,-11.063576,0.090868,-13.828160,-14.142200
1006.781250,-6.372657,-6.937074,-7.453111,-9.026855
1006.785156,-8.929445,-5.997226,-2.282292,-5.516679
1006.789062,-5.339322,-9.595444,-8.854561,-1.932395
1006.792969,-8.021038,-11.183459,-4.651446,-5.562991
1006.796875,-5.830171,-4.767675,-3.910508,2.357313
1006.800781,0.263208,-3.225450,-6.765045,-2.619989
1006.804688,-0.913629,9.269807,2.643952,1.862463
1006.808594,6.137999,1.229508,11.872980,-0.417414
1006.812500,9.333559,17.398904,10.985672,6.698760
1006.816406,7.630802,9.387531,5.392456,8.308384
1006.820312,3.430150,8.429652,6.278857,8.713656
1006.824219,12.491878,14.328639,13.756022,4.954997
1006.828125,3.714395,14.840865,8.092477,12.027700
1006.832031,6.296941,8.787941,10.018085,5.476386
1006.835938,2.031568,9.324181,2.752059,5.673534
1006.839844,9.322615,1.598911,5.423278,6.244009
1006.843750,6.638151,4.190012,7.759171,0.159716
1006.847656,5.610474,5.958302,3.587994,6.414028
1006.851562,0.873588,-0.622226,-3.421147,-1.183344
1006.855469,3.354910,-1.288398,-8.055984,-13.180211
1006.859375,-7.157208,2.855088,-5.872055,-6.516304
1006.863281,-5.131097,-3.601788,-11.998852,-13.786525
1006.867188,-8.620574,-6.929366,-7.705732,-4.585459
1006.871094,-11.628148,-11.897192,-10.882159,-17.860560
1006.875000,-13.934697,-11.079747,-9.316109,-12.349196
1006.878906,-8.049932,-4.423180,-13.999713,-10.443491
1006.882812,-9.729109,-7.740706,-8.398767,-6.955307
1006.886719,-10.076612,-4.345810,-4.809706,-11.735483
1006.890625,-10.298872,-9.242063,-7.102933,-13.568004
1006.894531,3.693355,-12.867069,-5.373898,-3.927601
1006.898438,5.040245,-2.473176,1.006931,-1.890041
1006.902344,-1.761795,-1.924084,3.581527,2.712225
1006.906250,6.698968,2.954928,7.983252,5.863543
1006.910156,6.725771,9.401804,3.303023,4.655053
1006.914062,4.178757,8.766809,11.254668,15.333456
1006.917969,9.651848,11.047465,9.325712,10.827574
1006.921875,3.350853,15.014291,10.836528,16.537752
1006.925781,8.797173,13.834699,11.695317,18.233960
1006.929688,10.814216,7.810856,9.218281,10.030679
1006.933594,6.958187,9.050644,11.828818,5.878009
1006.937500,8.606822,8.619640,5.437131,5.440503
1006.941406,5.668031,4.845801,3.077234,9.723951
1006.945312,3.103853,-3.523397,-6.549905,3.809278
1006.949219,-0.759345,7.845119,-5.225365,6.028395
1006.953125,1.944941,-1.607772,4.397606,-12.671428
1006.957031,-1.604602,-4.592413,-0.395416,-5.708442
1006.960938,2.741540,-3.298971,-6.542674,-3.617922
1006.964844,-6.623399,-6.361787,-4.193796,-9.918817
1006.968750,-10.537166,-6.252632,-11.238042,-11.978379
1006.972656,-14.085469,-9.728375,-16.768670,-9.397594
1006.976562,-12.859748,-6.130064,-7.161013,-8.160327
1006.980469,-15.745053,-10.954309,-3.467755,-3.770169
1006.984375,-13.409381,-11.171469,-10.610621,-4.747772
1006.988281,-14.856162,-9.505454,-0.625533,-1.871876
1006.992188,-6.688555,-7.171725,-8.802650,-5.850894
1006.996094,-4.072573,-3.135969,-9.453522,0.059599
1007.000000,0.996213,-0.492238,2.005466,2.876462
1007.003906,0.324350,-5.006048,4.648789,5.252448
1007.007812,5.156665,2.146714,5.872925,0.576761
1007.011719,13.734812,11.082508,8.363012,5.980526
1007.015625,3.921598,4.638309,13.002267,10.061105
1007.019531,7.949045,13.035723,0.522175,19.783522
1007.023438,9.432313,12.351008,2.320637,6.914457
1007.027344,14.317692,4.025505,7.062785,9.144529
1007.031250,14.447012,14.635556,11.113477,5.459858
1007.035156,8.472248,10.766672,7.907838,0.431201
1007.039062,2.678251,2.492369,-0.667674,7.066900
1007.042969,6.357022,0.370432,4.785123,-2.339407
1007.046875,-5.003016,-0.187240,0.468537,-1.617898
1007.050781,-4.465584,0.260729,1.441027,-5.896709
1007.054688,-1.133789,1.837254,-3.398505,-8.535748
1007.058594,-3.613271,-7.311843,-12.527917,-4.979221
1007.062500,-4.180257,-9.189667,0.058273,-1.752644
1007.066406,-5.923691,-5.280379,-12.670390,-8.670306
1007.070312,-5.371389,-6.970007,-6.647515,-12.756242
1007.074219,-7.561897,-14.026950,-6.713935,-9.432766
1007.078125,-4.941736,-6.285082,-13.319731,-10.887395
1007.082031,-15.162542,-2.704703,-15.194613,-4.979521
1007.085938,-15.962720,-13.849064,-11.120801,-7.926006
1007.089844,-1.809374,-10.777978,-3.076605,-7.128079
1007.093750,-6.104136,-3.646859,-4.607947,2.163191
1007.097656,-5.267857,-3.794240,-2.075024,1.351187
1007.101562,5.025213,-0.023578,-1.787845,4.232018
1007.105469,2.167070,5.293965,-2.468944,3.806078
1007.109375,-1.030614,9.759223,1.752741,8.007914
1007.113281,7.400860,5.225526,3.327220,9.967692
1007.117188,7.637033,3.469592,10.239654,11.554438
1007.121094,11.669218,13.867825,8.347597,16.441138
1007.125000,4.542650,12.611477,12.701903,13.921967
1007.128906,10.073227,5.969123,5.898025,14.266974
1007.132812,1.101570,4.778351,4.709973,6.149536
1007.136719,18.039215,12.238031,2.264448,14.033951
1007.140625,4.496123,2.405208,8.922536,1.411350
1007.144531,1.181393,4.026463,8.984653,2.582048
1007.148438,-0.412266,7.638855,0.165531,-5.206007
1007.152344,-0.488596,-1.698657,-1.886580,3.320172
1007.156250,-0.591736,-6.331637,-14.832052,-4.020903
1007.160156,-10.932772,-8.640976,-3.109033,-6.109193
1007.164062,-3.110097,-6.563501,-7.636409,-9.951477
1007.167969,-7.255550,-1.856839,-6.650299,-9.028876
1007.171875,-10.958094,-9.925987,-12.159992,-6.978248
1007.175781,-7.664104,-7.342960,-9.100470,-11.086707
1007.179688,-12.087150,-14.678653,-5.396888,-10.612144
1007.183594,-7.485244,-15.243870,-5.638861,-11.798720
1007.187500,-9.691002,-6.299810,-6.755948,-8.287897
1007.191406,-7.373315,-0.227123,-5.991947,-9.800761
1007.195312,0.389597,-3.236228,-3.570753,-5.499916
1007.199219,-2.794687,-2.200700,-5.558253,-5.944314
1007.203125,-0.857147,-0.023815,-0.896155,-0.338727
1007.207031,6.023709,0.417685,5.971252,-1.819671
1007.210938,7.686634,4.955347,6.449133,6.019184
1007.214844,0.550559,12.386289,8.278315,11.552535
1007.218750,3.971098,7.853453,6.879632,7.981060
1007.222656,7.417997,6.498765,12.917556,11.974072
1007.226562,20.909810,8.263259,0.542562,12.248164
1007.230469,10.150139,10.599612,8.154734,14.977832
1007.234375,9.116144,11.370762,10.510288,7.904678
1007.238281,3.843098,2.707376,6.743466,1.006554
1007.242188,-0.139932,7.599780,2.302483,-2.141558
1007.246094,15.130912,1.654992,-7.981086,4.700401
1007.250000,-1.830649,4.148246,3.476661,-4.990247
1007.253906,3.730865,-2.702652,-8.039575,-5.343424
1007.257812,-13.020317,-2.939869,-5.324282,-5.285153
1007.261719,-6.085488,-5.289594,-10.552391,-10.055867
1007.265625,-13.098647,-7.115806,-9.618595,-8.319937
1007.269531,-8.460746,-10.492455,-12.695801,-15.691789
1007.273438,-14.973261,-12.599051,-11.319039,-5.358722
1007.277344,-1.313761,-6.804825,-7.060314,-2.784901
1007.281250,-11.221842,-12.215581,-5.210721,-10.826097
1007.285156,-11.945347,-9.306837,-7.030217,-8.382232
1007.289062,1.127983,-2.151764,-6.790587,-10.572728
1007.292969,-1.380627,-4.973796,5.823980,-1.702511
1007.296875,-2.669583,-1.044217,-2.064098,1.813323
1007.300781,7.870843,3.816059,3.079953,0.393481
1007.304688,-2.849912,4.680292,1.851251,5.887357
1007.308594,0.657969,9.844880,1.062077,2.520646
1007.312500,6.115274,6.215697,6.346690,6.197145
1007.316406,12.991849,8.753710,6.000777,6.528980
1007.320312,5.287847,11.092918,13.700348,6.453001
1007.324219,9.307141,15.014841,6.097323,14.579471
1007.328125,10.740671,16.957630,12.658231,10.099000
1007.332031,9.716411,5.967068,13.797230,9.721472
1007.335938,9.180446,11.642058,11.148362,14.833114
1007.339844,-1.439387,5.712660,10.969496,3.569612
1007.343750,15.819642,3.482870,0.583759,-5.423839
1007.347656,-2.000782,-4.884598,-6.689999,-1.832246
1007.351562,2.033416,-3.190403,-4.434128,-1.654554
1007.355469,-1.290144,-3.928492,-2.615637,-0.228603
1007.359375,-0.908634,1.122928,-7.926782,-6.972263
1007.363281,-3.239510,-2.495364,-2.485538,-10.297869
1007.367188,-7.602438,-14.863200,-3.902427,-8.871989
1007.371094,-12.042115,-15.722248,-6.137055,-7.649712
1007.375000,-9.490785,-10.654402,-19.549544,-9.779844
1007.378906,-11.407619,-8.587098,-11.810465,-10.665269
1007.382812,-8.712531,-9.910275,-11.036171,-6.094327
1007.386719,-11.980571,-6.009985,-9.506477,-8.234551
1007.390625,-8.753066,-4.948881,1.273984,-2.718211
1007.394531,-4.672702,-1.387045,-4.028465,-4.909701
1007.398438,-1.336567,-2.348419,-8.034908,1.807388
1007.402344,-2.206775,0.374827,-3.167468,0.895647
1007.406250,7.483274,6.339204,7.078996,5.223820
1007.410156,5.913826,2.378651,10.044665,4.077150
1007.414062,6.549878,11.320950,5.094265,9.325402
1007.417969,12.396194,4.667310,8.983269,8.476365
1007.421875,7.016411,11.394899,7.230167,12.692708
1007.425781,6.188280,12.838086,7.222304,16.837569
1007.429688,10.134025,7.602174,11.894313,12.325827
1007.433594,8.590640,16.192815,15.871772,11.196919
1007.437500,8.051132,14.423248,12.884481,0.779685
1007.441406,-1.496751,6.674655,-0.976963,-0.947517
1007.445312,3.719480,3.653565,-0.666959,-3.912212
1007.449219,-0.966417,-4.577655,4.585972,9.913244
1007.453125,-2.376759,-7.174324,2.313250,0.323465
1007.457031,-5.651555,-3.872403,-4.666324,-7.480511
1007.460938,-4.022310,-10.821158,-5.814580,-5.305986
1007.464844,-5.974893,-9.144982,-13.098062,-9.605380
1007.468750,-8.668339,-5.654974,-15.893017,-12.713284
1007.472656,-5.669505,-12.366226,-11.824560,-9.257919
1007.476562,-8.395745,-5.966828,-9.896696,-7.950674
1007.480469,-8.675239,-12.293591,-10.867783,-11.893727
1007.484375,-9.389091,-10.525447,-14.267550,-6.764267
1007.488281,-10.270438,-6.227057,-5.497977,-8.294351
1007.492188,-13.133119,1.360819,-3.168013,-0.729892
1007.496094,4.743995,0.127428,-2.466405,0.586473
1007.500000,-11.734264,0.188110,1.659905,-5.630785
1007.503906,8.980241,2.188146,9.418301,2.906267
1007.507812,9.773604,0.580930,5.734421,5.978698
1007.511719,9.227499,13.469491,12.243495,8.296424
1007.515625,12.909815,1.184651,20.671809,10.380655
1007.519531,7.054651,13.434467,-0.941912,8.096925
1007.523438,10.243535,3.671355,10.626918,10.945411
1007.527344,7.590721,13.351125,7.479965,9.578743
1007.531250,13.646400,6.194646,1.160742,9.864755
1007.535156,4.263991,13.678287,7.279203,7.491238
1007.539062,4.441260,1.597074,7.278441,1.024438
1007.542969,-2.281727,-2.571349,4.785558,3.613140
1007.546875,8.942496,7.253247,-0.106729,3.363188
1007.550781,1.343794,-1.057603,-3.133004,-1.629832
1007.554688,-9.213392,-5.983730,-3.834989,2.094799
1007.558594,-1.657232,-2.422134,-11.537896,-2.869005
1007.562500,-12.386052,-5.308297,-9.206147,-2.667897
1007.566406,-2.127024,-2.300076,-6.888241,-3.477093
1007.570312,-4.158953,-11.172064,-7.940192,-10.059606
1007.574219,-5.948403,-9.908650,-9.380888,-11.876178
1007.578125,-14.568459,-3.330120,-11.698785,-11.928607
1007.582031,-11.439446,-12.584027,-5.176543,-3.987043
1007.585938,-11.524827,-7.565186,-8.169431,-9.667653
1007.589844,-7.194526,-4.870422,-6.403408,-4.883117
1007.593750,0.145615,3.584980,-6.634109,-4.270770
1007.597656,-2.805915,2.910485,1.294220,3.954918
1007.601562,4.589633,-4.164255,2.204359,-2.342500
1007.605469,10.071005,3.337573,-1.354497,9.208344
1007.609375,-1.319253,3.052232,8.194766,2.050707
1007.613281,5.962506,10.290279,6.772830,12.670816
1007.617188,7.303007,3.466893,17.191086,10.516524
1007.621094,10.310142,9.046060,18.268960,13.559048
1007.625000,18.307827,6.373748,7.519343,7.162470
1007.628906,9.285053,9.837372,5.310336,8.248835
1007.632812,7.370652,8.118739,8.010767,6.980247
1007.636719,7.793700,15.143357,11.092756,7.852793
1007.640625,1.092594,8.637341,9.135834,3.460293
1007.644531,-1.321503,0.285543,3.790271,2.112541
1007.648438,-2.170433,-2.075152,3.342644,1.628400
1007.652344,-1.908897,-2.063146,2.844300,3.011144
1007.656250,-2.169697,-9.641486,-12.179501,0.166085
1007.660156,-5.259515,-2.973837,-7.967767,-5.502594
1007.664062,-5.990187,-7.586574,-10.833964,-11.780612
1007.667969,-7.343134,-4.539670,-14.941448,-2.882115
1007.671875,-9.592183,-12.684841,-9.162462,-15.816542
1007.675781,-4.171700,-3.102990,-10.891134,-16.736665
1007.679688,-0.316044,-11.368732,-15.615565,-11.633942
1007.683594,-9.597345,-9.016937,-13.096287,-11.360950
1007.687500,-12.439314,-7.043656,-7.582602,-4.482765
1007.691406,-5.742742,-7.757715,-5.518675,-1.159026
1007.695312,-2.261294,-5.240052,-9.123698,-6.698072
1007.699219,2.853116,-8.149303,0.063775,0.702890
1007.703125,5.997581,-1.584594,7.912890,-1.832167
1007.707031,1.180339,1.080539,-6.639470,8.077792
1007.710938,10.738918,3.909935,4.346324,-1.356452
1007.714844,5.881563,13.154563,14.412354,19.801368
1007.718750,7.984784,12.547671,4.293477,8.277269
1007.722656,5.108836,5.612843,4.757797,13.661172
1007.726562,11.178597,5.435212,7.630900,9.095111
1007.730469,7.502019,5.946695,12.765797,6.757144
1007.734375,2.143924,5.335757,1.736436,15.108187
1007.738281,1.487708,2.029743,3.157547,4.406372
1007.742188,6.266451,8.118048,7.591846,0.507293
1007.746094,0.204973,2.243796,2.473324,-1.673879
1007.750000,2.363336,3.855025,6.496822,-3.025449
1007.753906,2.213487,-3.467643,5.614162,-2.566704
1007.757812,-1.124475,-7.537763,-3.167168,-13.797918
1007.761719,-5.559699,-6.862732,-12.759337,-8.304049
1007.765625,8.322501,-10.219811,-11.795266,-5.195325
1007.769531,-11.053871,-12.031533,-10.516753,-16.525909
1007.773438,-12.370775,-8.683786,-13.468286,-12.280613
1007.777344,-6.130239,-15.599418,-9.951484,-16.400389
1007.781250,-9.436638,-10.996232,-8.515776,-12.116846
1007.785156,-10.659578,-5.760805,0.536268,-9.964909
1007.789062,-4.009361,-7.186470,-0.328133,-6.758184
1007.792969,0.608023,-9.210138,-7.108285,-2.061252
1007.796875,-4.252752,-0.141946,-9.141287,2.131150
1007.800781,-3.113524,3.705655,1.109284,-5.582794
1007.804688,5.866845,1.157235,7.404315,-0.453031
1007.808594,12.595572,7.620582,9.341541,6.331150
1007.812500,12.942698,9.024162,3.950462,9.011119
1007.816406,8.364722,5.278086,2.948064,9.286278
1007.820312,11.107552,10.548880,5.406122,19.402744
1007.824219,17.672791,10.205066,13.062301,9.735857
1007.828125,7.333475,19.780049,15.627202,12.570214
1007.832031,3.003200,2.740140,2.536359,7.979648
1007.835938,2.548132,8.733807,2.465161,9.833325
1007.839844,11.693226,11.395603,2.782646,7.377804
1007.843750,2.358366,2.984295,4.706826,10.910784
1007.847656,-3.041525,2.419769,-2.187209,0.238403
1007.851562,2.134855,6.008244,-2.196264,2.804741
1007.855469,-6.113191,-3.825604,-2.623881,-10.497219
1007.859375,-9.551044,-0.570681,-9.945039,-3.977976
1007.863281,-8.758974,-5.278753,-8.088044,-8.245154
1007.867188,-3.384671,-16.486667,-7.702981,-6.339228
1007.871094,-8.193199,-6.778277,-8.294256,-10.627181
1007.875000,-19.789371,-13.586181,-18.557906,-19.473221
1007.878906,-13.103918,-5.936299,-7.914386,-7.486269
1007.882812,-7.413130,-3.544057,-5.604250,-8.647708
1007.886719,-7.361114,-11.749335,-3.877374,-10.166936
1007.890625,-10.021275,-7.157033,-4.126693,-6.782796
1007.894531,-4.953481,-5.234378,-5.674340,-2.723578
1007.898438,4.157025,4.668771,-1.932776,-6.577598
1007.902344,5.964675,-0.746490,-1.898824,1.270198
1007.906250,12.233404,2.528163,2.650485,10.889987
1007.910156,6.115852,9.242806,15.708053,6.432820
1007.914062,5.980444,15.849287,5.080966,10.491486
1007.917969,6.566228,7.573747,11.806160,13.529760
1007.921875,11.524205,11.668617,12.631342,13.791851
1007.925781,8.962586,14.329416,7.526984,20.358650
1007.929688,13.609230,9.418013,10.681992,12.684260
1007.933594,5.624884,8.114261,9.666503,1.049408
1007.937500,8.006644,4.849358,7.360122,4.608071
1007.941406,11.396707,5.341853,2.290437,0.301883
1007.945312,-2.127855,2.001799,7.787161,11.726710
1007.949219,-2.761354,-0.577199,-1.522573,-4.502574
1007.953125,-2.024716,-5.813249,-6.966310,0.839981
1007.957031,-0.487539,-2.715768,-5.921057,7.772400
1007.960938,-2.694493,-3.249618,-9.293662,-10.012749
1007.964844,-9.562306,-3.013408,-7.516234,-9.312609
1007.968750,-7.188262,-9.122452,-9.279204,-15.491778
1007.972656,-9.708719,-3.614866,-10.645585,-8.659619
1007.976562,-4.887700,-13.166541,-10.298667,-10.147751
1007.980469,-8.870525,-17.205417,-7.822554,-11.269963
1007.984375,-8.126013,-6.500823,-6.185905,-15.132730
1007.988281,-6.835668,-13.044562,-4.422603,-6.993602
1007.992188,-5.546617,-4.667702,-5.747073,3.840458
1007.996094,-3.771601,-0.924791,-3.729886,-6.827615
1008.000000,-1.685269,2.640909,3.191761,6.507844
1008.003906,8.133062,4.843469,2.549657,0.836078
1008.007812,5.962252,1.378157,0.030568,5.925077
1008.011719,4.810632,11.768548,5.789405,12.162750
1008.015625,6.936602,8.374854,16.038199,8.875334
1008.019531,11.135432,5.421683,6.683789,5.518502
1008.023438,2.524207,4.013002,14.177866,10.350936
1008.027344,12.453151,0.054006,8.102011,9.432434
1008.031250,9.525126,7.928896,13.403156,9.743786
1008.035156,8.893564,7.799613,7.352545,18.007078
1008.039062,2.324673,10.846795,8.079609,-3.116903
1008.042969,1.266435,5.541615,4.142471,-2.765833
1008.046875,4.689993,6.987708,4.053674,-0.047633
1008.050781,-0.083139,-2.796900,4.634102,0.225354
1008.054688,-3.051211,-5.638731,-5.198540,-0.272273
1008.058594,3.287224,-2.882405,-15.764703,-4.900897
1008.062500,-3.228114,-3.250218,-3.635087,-0.393786
1008.066406,-15.563028,-7.199173,-5.014324,-6.264167
1008.070312,-13.516001,-12.228043,-10.421128,-4.027402
1008.074219,-5.429885,-11.091559,-7.977160,-13.159270
1008.078125,-13.515841,-6.719160,-6.851258,-12.367203
1008.082031,-9.776209,-2.074759,-1.564068,-9.614286
1008.085938,-9.121022,0.104017,-9.441924,-7.996836
1008.089844,-5.642441,-3.341284,-11.977358,-2.687305
1008.093750,-10.120895,-5.664032,-5.902640,-6.647344
1008.097656,-2.813134,-5.780919,5.019393,-8.698680
1008.101562,-1.658029,-0.453970,0.240395,4.567840
1008.105469,1.155978,5.573611,-4.095189,1.086872
1008.109375,1.271800,3.851013,10.554609,2.919151
1008.113281,6.806996,6.757261,10.639490,2.480760
1008.117188,3.144722,6.943117,12.353848,10.968531
1008.121094,14.499516,6.063863,3.993421,12.265419
1008.125000,7.259168,8.510196,16.247840,6.705633
1008.128906,11.905871,16.317222,8.558757,2.016519
1008.132812,10.516227,7.591688,11.661246,10.085808
1008.136719,0.379125,5.836512,12.762992,7.406288
1008.140625,10.191672,8.606585,9.103786,7.539519
1008.144531,4.604095,2.558450,-4.441679,0.572107
1008.148438,4.144407,9.496475,1.334633,0.860082
1008.152344,-0.396701,-2.446621,-1.365794,2.383888
1008.156250,-0.477513,-0.026215,-6.667194,-4.043817
1008.160156,-5.077960,-4.874651,-9.137726,-8.963451
1008.164062,-9.142890,-10.929835,-12.886389,-8.296383
1008.167969,-10.735010,-11.064800,-7.596542,-6.554805
1008.171875,-9.791558,-9.402994,-10.760189,-11.501468
1008.175781,-8.944282,-6.068172,-6.835234,-9.342649
1008.179688,-8.645864,-8.578183,-14.055374,-11.986073
1008.183594,-9.381272,-14.209279,-10.034941,-2.380354
1008.187500,-5.043619,-8.405729,-14.294546,-7.146805
1008.191406,-3.970764,-0.286825,-7.661023,-6.491266
1008.195312,-5.719477,-10.110025,-8.514909,-2.538907
1008.199219,-1.186443,1.641348,-6.537162,1.260944
1008.203125,7.472093,3.062924,10.076013,-4.484552
1008.207031,0.942796,2.475304,10.197373,0.814000
1008.210938,7.964990,11.521803,8.056941,14.445243
1008.214844,5.684586,2.991011,7.179312,14.859831
1008.218750,9.349245,8.687846,12.873463,4.312917
1008.222656,18.286723,6.704412,12.204474,11.545317
1008.226562,13.025117,13.635557,20.951714,12.155517
1008.230469,10.919286,12.541412,5.264102,9.999548
1008.234375,12.183210,2.933167,20.479924,6.781397
1008.238281,3.857565,3.954595,13.723305,6.924363
1008.242188,6.577490,11.059046,-1.747071,1.639553
1008.246094,2.644727,-0.275236,4.175126,2.511473
1008.250000,-0.367412,-0.395012,-2.240848,8.727522
1008.253906,2.981108,0.829411,-6.265206,-1.214311
1008.257812,-13.825510,-3.060394,-1.682004,-12.664297
1008.261719,-12.420099,0.162863,-7.992981,-1.141448
1008.265625,-10.614095,-9.293733,-15.063412,-4.067455
1008.269531,-6.338876,-12.257452,-9.423835,-3.664366
1008.273438,-12.025762,-13.821965,-8.656734,-13.977143
1008.277344,-9.971079,-12.459539,-5.217877,-1.956397
1008.281250,-9.878260,-9.556647,-10.148470,-17.942249
1008.285156,-9.074571,-10.280191,-12.830529,-9.437190
1008.289062,-0.132872,2.488783,-9.362674,-11.428023
1008.292969,0.441774,-7.302354,-0.355806,-3.382950
1008.296875,-11.037445,-4.057952,-2.442098,4.784202
1008.300781,-4.281756,4.111229,1.064931,1.884905
1008.304688,5.915787,1.636412,-1.926419,-2.102315
1008.308594,11.773628,5.703514,11.875067,5.250941
1008.312500,1.025326,3.901716,8.338592,8.820388
1008.316406,7.299660,12.312327,3.958245,8.341134
1008.320312,4.868466,5.460689,7.031701,4.273994
1008.324219,10.773609,8.250676,7.741793,15.505169
1008.328125,-2.645808,7.228698,10.703594,13.634019
1008.332031,11.031970,10.377946,4.746111,9.659561
1008.335938,5.808442,8.788893,8.148320,12.046338
1008.339844,11.610790,-3.076096,11.183490,6.799423
1008.343750,3.626464,3.339416,7.148978,1.200478
1008.347656,5.046590,4.260600,1.960442,7.339728
1008.351562,0.415772,-1.081513,0.495088,2.323292
1008.355469,-1.339626,-0.116772,-10.751231,-5.159163
1008.359375,-9.852550,-6.060616,-6.069562,-7.338553
1008.363281,-13.318104,-13.657211,-1.991734,-8.848081
1008.367188,-11.177904,2.311783,-11.608026,-9.615999
1008.371094,-12.505361,-0.233556,-7.820219,-8.168013
1008.375000,-10.726852,-8.044821,-7.359248,-8.638039
1008.378906,-12.224028,-10.011767,-5.706131,-4.137500
1008.382812,-12.376172,-3.006651,1.542658,-4.960919
1008.386719,-10.101803,-3.175231,-1.794638,-5.077400
1008.390625,0.496841,-4.123241,-6.844308,-11.805168
1008.394531,-11.695120,0.005924,-6.101319,-1.627656
1008.398438,-4.381605,1.468497,7.781402,2.900612
1008.402344,6.617090,5.009214,5.125363,-7.089527
1008.406250,-5.978229,6.454468,5.963674,4.430646
1008.410156,5.093256,8.276885,7.552913,3.639953
1008.414062,3.275899,-4.674595,7.195153,10.562448
1008.417969,16.351371,13.771001,7.423537,7.955424
1008.421875,10.756915,13.830730,11.411513,3.460908
1008.425781,6.614348,15.463944,11.587841,8.780319
1008.429688,3.987002,9.766854,8.521221,7.630603
1008.433594,12.674050,11.419902,8.389001,7.990941
1008.437500,6.849606,2.155600,9.207555,11.466943
1008.441406,5.109067,3.011908,3.964750,4.540759
1008.445312,2.683063,10.958026,0.948408,7.603859
1008.449219,-4.823096,0.339990,-0.435940,0.677676
1008.453125,-3.188046,-6.164961,-1.015944,1.576904
1008.457031,-4.632225,-0.940264,0.083100,-3.404311
1008.460938,-2.165892,-7.990734,-5.625188,-5.201456
1008.464844,-7.117348,-11.330901,-1.086407,-4.800155
1008.468750,-12.721333,-5.870037,-1.673336,-14.652917
1008.472656,-10.759011,-12.923041,-4.960799,-17.738511
1008.476562,-11.807746,-11.311229,-13.189907,-5.026038
1008.480469,-12.346636,-5.865002,-14.723272,-8.764436
1008.484375,-9.033505,-9.496220,0.266134,-4.919571
1008.488281,-7.585500,-7.521004,-9.332307,-7.733380
1008.492188,-8.717119,-11.507406,-2.125860,-4.391188
1008.496094,-2.465427,-5.129535,2.083363,3.638842
1008.500000,4.650913,-10.574172,-0.387745,-2.019287
1008.503906,-0.062207,-2.102492,-3.099811,4.394336
1008.507812,7.037016,6.728723,3.829883,6.906076
1008.511719,11.768469,5.559760,8.279177,14.537534
1008.515625,-0.226662,4.960485,1.858916,12.702724
1008.519531,6.359915,3.444932,9.890183,12.768308
1008.523438,14.465698,7.737342,11.364504,12.338565
1008.527344,11.120708,11.241748,13.505900,7.971746
1008.531250,16.513601,12.039841,11.544637,4.119312
1008.535156,7.558188,15.677573,2.933121,9.017839
1008.539062,10.901649,0.104558,6.465015,1.828730
1008.542969,3.785786,6.243791,2.287902,8.854379
1008.546875,0.019065,5.160937,6.719979,-4.747767
1008.550781,-7.663638,5.261957,7.956162,-0.810593
1008.554688,0.913995,-4.195107,-2.564732,-8.616065
1008.558594,-3.824904,-3.492060,-6.390423,-6.636236
1008.562500,0.576381,-6.609156,-11.964267,-3.787309
1008.566406,-12.956233,-4.236499,-9.730669,-11.763760
1008.570312,-14.119079,-12.868766,-13.720721,-7.660920
1008.574219,-1.404267,-10.495155,-13.683634,-3.298354
1008.578125,-13.384006,-13.340696,-16.988466,-12.344350
1008.582031,-7.161368,-7.012636,-8.636874,-13.125229
1008.585938,-10.338905,-10.493173,-21.348995,-9.529696
1008.589844,-7.323179,-5.517970,-7.983038,-3.560146
1008.593750,0.724435,-3.285039,4.850495,-6.331725
1008.597656,3.114448,1.568363,0.822812,-1.713053
1008.601562,0.836892,5.531391,-3.334013,1.844095
1008.605469,-1.926187,-2.093998,3.459019,3.708699
1008.609375,16.868374,0.328355,7.555201,7.540104
1008.613281,14.615116,9.401734,16.884796,8.563944
1008.617188,11.913443,8.927575,8.062313,4.187465
1008.621094,11.892182,12.655369,10.045768,8.878845
1008.625000,8.404120,12.573045,9.961920,6.672646
1008.628906,9.651993,5.309494,2.850708,4.757952
1008.632812,6.323806,8.715713,10.348960,5.239609
1008.636719,12.100834,9.017742,1.383643,6.256548
1008.640625,3.006294,7.325928,1.647320,1.664625
1008.644531,3.559377,8.169297,3.793673,2.345771
1008.648438,1.407137,4.652281,-5.022312,7.398818
1008.652344,-2.425720,-8.349793,3.288918,1.657303
1008.656250,0.093300,-5.786807,-3.313874,1.267752
1008.660156,-3.675997,-1.796865,-10.200774,-7.697885
1008.664062,-6.772075,-10.888882,-13.574494,-4.509841
1008.667969,-8.237111,-9.083225,-11.096739,-9.055949
1008.671875,-9.162398,-9.954507,-11.191925,-8.076490
1008.675781,-14.226461,-8.817538,-11.309675,-9.519373
1008.679688,-7.751746,-7.043711,-9.212581,-6.805027
1008.683594,-13.277436,-4.449052,-13.497342,-8.262400
1008.687500,-2.518813,-1.770968,-12.968184,-2.017991
1008.691406,-3.777229,2.936018,-2.920954,-1.698936
1008.695312,6.159818,-4.583491,-8.202251,-4.732213
1008.699219,-4.582559,-1.187580,6.254854,4.834665
1008.703125,0.750627,7.558449,0.384010,-10.682228
1008.707031,3.148144,0.432829,2.528224,3.593661
1008.710938,9.161809,-0.106274,4.829147,12.181580
1008.714844,1.555202,12.494244,10.631240,-0.038241
1008.718750,8.154306,12.579316,8.827892,9.494733
1008.722656,10.762113,4.927381,15.388985,6.953125
1008.726562,14.449345,9.720853,15.897686,1.040810
1008.730469,7.961646,6.869924,13.275116,7.875286
1008.734375,6.060333,4.932093,11.392195,4.206008
1008.738281,0.826952,11.251002,10.687255,9.697339
1008.742188,2.401318,6.130586,0.638938,2.945928
1008.746094,-3.865887,1.241359,3.912990,3.868213
1008.750000,1.823050,2.710838,7.554407,-0.044713
1008.753906,2.919583,-7.558505,-8.446728,5.731426
1008.757812,-8.014823,-6.130537,-3.884658,-7.960581
1008.761719,-2.783839,-6.582098,-0.902067,-6.449923
1008.765625,-10.940500,-12.646817,-5.870455,-1.946856
1008.769531,-5.458795,-10.755565,-8.848896,-0.982089
1008.773438,-8.246514,-13.740600,-4.853842,-11.393351
1008.777344,-9.825766,-2.404157,-15.851332,-13.232685
1008.781250,-9.649330,-1.664643,-4.575148,-11.584817
1008.785156,-6.482857,-2.545043,-6.426523,-14.106583
1008.789062,-12.663706,-9.093225,-14.309239,-10.607909
1008.792969,-6.553845,-2.094600,-7.013751,5.530847
1008.796875,0.031267,-4.903944,-9.773075,-0.574624
1008.800781,3.802369,1.664175,-1.699474,-0.481561
1008.804688,9.835695,1.223794,1.065471,-3.854996
1008.808594,5.505190,8.981645,3.768940,6.980520
1008.812500,4.673984,-3.133089,6.763638,6.308938
1008.816406,2.174281,9.753547,13.899364,6.032761
1008.820312,10.072899,12.721535,7.481188,14.753814
1008.824219,11.119460,10.541940,12.982642,9.527092
1008.828125,15.187944,8.746396,2.897520,11.990110
1008.832031,15.271639,10.697692,12.529115,6.730259
1008.835938,5.640341,-3.134751,5.954955,6.912764
1008.839844,10.115230,3.863201,10.262079,4.408814
1008.843750,8.042749,2.247516,1.287242,-1.002056
1008.847656,-3.493888,1.387140,-5.169954,-0.641706
1008.851562,-1.617313,-3.825705,-4.901133,-5.690211
1008.855469,2.152270,-5.669643,-1.621333,-6.522516
1008.859375,-9.234230,-3.182121,-5.605370,-0.069360
1008.863281,-4.555346,-7.865696,-7.146005,-6.452330
1008.867188,-7.175296,-6.458940,-6.718475,-5.143941
1008.871094,-10.819726,-8.556443,-10.510045,-7.098819
1008.875000,-0.898683,-1.901295,-8.211934,-11.246103
1008.878906,-8.854499,-6.041267,-19.337829,-12.421057
1008.882812,-9.886705,-14.275767,-15.411565,-11.709122
1008.886719,-6.344804,-7.287460,-5.384670,-2.842155
1008.890625,-1.454323,-8.780029,-6.521472,0.146717
1008.894531,-5.196249,-3.254677,-3.726178,-6.312643
1008.898438,2.219239,2.384442,-0.192158,-5.663883
1008.902344,-3.595863,2.549553,1.022619,-1.544982
1008.906250,6.859309,5.212680,5.380450,6.358955
1008.910156,5.759406,2.061604,4.466997,10.131082
1008.914062,7.194888,5.014009,14.829986,7.684006
1008.917969,7.447765,14.073306,8.822098,6.976518
1008.921875,10.057390,7.697429,10.954092,6.161912
1008.925781,8.754917,12.797982,5.724211,3.647454
1008.929688,6.046465,6.801392,14.589038,9.054964
1008.933594,10.189029,12.302367,13.529971,13.051937
1008.937500,11.744483,2.725318,9.131050,8.485869
1008.941406,3.552988,5.075153,4.967459,15.562279
1008.945312,-0.677451,1.685154,1.723632,-2.153000
1008.949219,2.847951,-5.466606,-1.013905,-1.843895
1008.953125,-1.364643,-0.064954,-2.857749,-5.843212
1008.957031,-6.446872,-2.169645,-11.190190,-6.938701
1008.960938,-5.386660,-5.566645,-10.333752,-4.888609
1008.964844,-13.040550,-9.825502,-8.145176,-8.955460
1008.968750,-9.869217,-2.482977,-3.256488,-9.578160
1008.972656,-10.546382,-7.324661,-16.633150,-7.559617
1008.976562,-15.721913,-11.738431,-11.699952,-8.798236
1008.980469,-16.537611,-15.316437,-20.076290,-11.772904
1008.984375,-13.104628,-3.450704,-4.913426,-8.533274
1008.988281,-11.885922,-8.961110,-12.205839,-7.109795
1008.992188,-3.141151,-7.332547,-6.217955,-2.673918
1008.996094,1.418481,-10.937281,-5.604712,-8.889343
1009.000000,0.032375,-1.418771,1.561236,-2.771081
1009.003906,3.645939,4.784027,2.141257,7.554816
1009.007812,3.030186,5.946935,5.247239,5.178983
1009.011719,3.077060,3.661726,4.703083,3.664867
1009.015625,0.757119,11.045675,4.515288,6.773076
1009.019531,10.251524,5.168510,12.076965,10.242632
1009.023438,13.580884,21.469372,11.925324,5.588322
1009.027344,13.955907,11.357752,14.137228,11.205009
1009.031250,9.819014,7.639959,15.204716,15.862986
1009.035156,4.865836,9.097727,17.252729,6.529897
1009.039062,4.556591,9.132691,2.526697,5.184915
1009.042969,7.290987,11.463041,2.329724,-2.991001
1009.046875,-2.763098,-9.264748,0.369681,-2.190044
1009.050781,-4.578890,-6.619911,-2.008831,-5.653778
1009.054688,3.721365,2.027277,0.368097,-1.985597
1009.058594,1.996426,-7.141269,-0.082564,-7.420100
1009.062500,-4.930397,-15.907979,-12.467680,-3.135090
1009.066406,-2.927553,-5.017332,-10.149074,-3.849262
1009.070312,-14.282964,-9.217849,-13.617425,-6.648478
1009.074219,-5.615466,-10.587547,-11.399970,-11.058668
1009.078125,-8.590509,-8.667911,-7.814703,-8.715767
1009.082031,-8.529710,-10.596146,-7.619695,-4.167859
1009.085938,-5.992050,-1.482237,-9.351598,-7.186857
1009.089844,-4.824404,-0.926213,-10.738656,-10.291432
1009.093750,2.672794,-3.209727,-4.328835,-9.899135
1009.097656,-4.958118,5.372360,-6.294887,-2.993767
1009.101562,-0.012803,-2.971939,1.547399,1.978212
1009.105469,6.302064,3.885725,5.268485,1.913637
1009.109375,7.837200,5.028849,7.482627,6.320759
1009.113281,12.329744,13.760938,4.642851,2.531940
1009.117188,10.560594,2.571479,10.779687,13.470804
1009.121094,7.381155,6.286710,9.836567,15.232775
1009.125000,9.018645,8.460816,7.447172,7.040556
1009.128906,9.456364,15.542648,5.046127,9.380926
1009.132812,12.360816,11.104079,6.659645,9.496229
1009.136719,5.861367,7.299002,5.237671,0.965827
1009.140625,7.809710,11.323604,13.008056,4.134641
1009.144531,2.454259,14.024269,4.077052,0.886774
1009.148438,-4.282149,-2.892215,-2.113663,-3.046450
1009.152344,-5.511484,-3.795445,-8.493547,-5.004507
1009.156250,-8.092184,-7.062152,-3.490650,-8.058834
1009.160156,-1.704550,-3.371576,-5.152749,-2.097041
1009.164062,-10.214755,-14.095859,-6.008313,5.890953
1009.167969,-13.364390,-7.198136,-10.846906,-8.716398
1009.171875,-6.935840,-9.008329,-6.741684,-16.708336
1009.175781,-6.198445,-11.196346,-7.735153,-17.071185
1009.179688,-8.156125,-7.279843,-22.186126,-15.873183
1009.183594,-13.636764,-12.094137,-8.571644,-7.846944
1009.187500,-7.653945,-2.705782,-11.721575,-8.560768
