timestamp,TP9,AF7,AF8,TP10
1000.000000,-3.775062,4.120620,3.894680,8.944507
1000.003906,4.812559,2.295018,2.756570,-5.680773
1000.007812,6.975070,6.689362,1.911297,4.943774
1000.011719,9.149765,2.857897,3.557202,4.237686
1000.015625,8.134243,2.700073,11.366971,10.363907
1000.019531,13.842638,13.707962,7.355446,12.762293
1000.023438,13.430312,13.821586,10.731448,9.478790
1000.027344,12.452061,6.798969,16.893241,13.490569
1000.031250,5.023798,13.165111,2.094482,10.557387
1000.035156,9.959887,6.838088,4.210129,9.194651
1000.039062,5.838136,5.205345,4.316708,3.951922
1000.042969,9.098188,5.028823,0.744392,7.887379
1000.046875,5.199895,-4.742039,1.202375,6.853995
1000.050781,-3.340659,-2.554478,2.686801,1.562108
1000.054688,-0.305047,-10.771967,-3.467713,3.787070
1000.058594,-6.270931,-2.259576,-8.263480,-14.081711
1000.062500,-12.665067,-11.420292,3.706079,-3.519189
1000.066406,-2.114621,-12.367160,-8.547847,-4.501911
1000.070312,-12.611525,-7.021602,-7.856216,-5.881734
1000.074219,-7.897142,-6.558760,-2.205688,-9.734202
1000.078125,-8.599516,-13.159795,-10.888702,-3.277833
1000.082031,-10.447150,-5.471583,-13.267864,-8.213402
1000.085938,-5.738132,-8.996223,-12.434117,-4.360691
1000.089844,-9.855144,-9.035531,-8.794458,-5.913221
1000.093750,-4.920346,-5.440478,-5.261532,-3.778279
1000.097656,0.336226,-1.106634,0.768822,-0.396445
1000.101562,-3.153262,1.350616,6.922892,-0.911690
1000.105469,-0.628007,3.299642,4.782604,3.156423
1000.109375,-3.066257,0.797528,0.861295,11.214581
1000.113281,6.270772,8.584495,15.739643,8.277855
1000.117188,8.146054,11.056429,7.620102,-2.413085
1000.121094,7.850833,6.459696,16.167469,14.848628
1000.125000,15.991196,2.879672,1.594556,10.253813
1000.128906,8.809881,5.545531,19.443860,12.418748
1000.132812,9.731648,7.710012,7.225031,8.912242
1000.136719,6.863993,11.552860,0.574975,9.053690
1000.140625,2.592165,7.687582,15.206635,10.309743
1000.144531,6.732477,-2.249059,4.217133,1.602163
1000.148438,-5.959319,2.552760,0.185338,0.785499
1000.152344,-7.245240,2.865022,-6.563315,-8.972352
1000.156250,-5.002080,-0.958772,1.444261,1.148433
1000.160156,-5.113015,-5.040128,-9.331956,-4.700420
1000.164062,-8.569026,-8.315599,6.311046,-5.024191
1000.167969,-14.537225,-3.525996,-10.091536,-12.300837
1000.171875,-12.999783,-11.062192,-9.426366,-10.090326
1000.175781,-9.893099,-9.480670,-16.432571,-17.540347
1000.179688,-7.072634,-11.421255,-16.965600,-7.935410
1000.183594,-10.481739,-7.345615,-17.870150,-7.218432
1000.187500,-1.866063,-5.383165,-8.900198,-5.997343
1000.191406,-9.748100,-6.186575,-6.102235,-0.435543
1000.195312,-8.796982,-1.879857,-4.056250,-6.593437
1000.199219,8.662986,-5.542163,0.147606,-0.061933
1000.203125,-1.609045,2.155248,6.003067,0.272720
1000.207031,1.474005,7.670877,8.335126,2.849840
1000.210938,7.237280,5.362725,5.320454,-1.559222
1000.214844,7.330426,2.205299,7.765205,5.652433
1000.218750,4.385887,9.210734,10.140893,4.722262
1000.222656,11.948811,13.937799,16.395247,10.460662
1000.226562,5.848692,3.905242,15.351373,9.649092
1000.230469,9.256484,14.663472,11.085314,7.316826
1000.234375,7.217292,5.405095,4.509190,11.067947
1000.238281,11.634908,11.550190,3.062665,10.166269
1000.242188,6.196525,-2.063200,9.016494,9.329929
1000.246094,0.957140,3.669512,9.105937,7.662049
1000.250000,-3.911768,-0.177576,4.080442,1.316101
1000.253906,-4.898444,-3.497839,-2.196749,-6.179191
1000.257812,-1.798086,-13.445624,-7.294032,3.505993
1000.261719,-6.023959,-1.562336,-5.247678,-2.989414
1000.265625,-15.080397,-15.408910,-6.940756,-8.266517
1000.269531,-9.148031,-13.556705,-15.085599,-13.974745
1000.273438,-8.797891,-14.858389,-17.103296,-6.174062
1000.277344,-7.906725,-7.066559,-10.567310,-11.891492
1000.281250,-1.987868,-10.555336,-8.838204,-6.386378
1000.285156,-6.577885,-13.402301,-7.597541,-6.242656
1000.289062,-9.309641,-14.347167,-12.553548,-3.051552
1000.292969,-4.916766,-10.072528,-13.507671,-1.952225
1000.296875,-0.093428,-5.174501,-1.682295,-0.579272
1000.300781,-0.189535,1.478106,1.710574,1.898749
1000.304688,2.384459,-0.526314,8.876491,3.074914
1000.308594,9.359674,6.535892,5.460880,8.784956
1000.312500,8.026753,2.741962,8.114123,9.066715
1000.316406,17.731852,5.451511,5.418724,5.417149
1000.320312,7.819643,18.051738,4.256848,6.626465
1000.324219,14.632052,12.761776,15.930350,8.956555
1000.328125,9.941960,12.185734,7.373913,14.968916
1000.332031,0.958452,11.414739,14.403163,6.878744
1000.335938,6.605301,11.698251,14.454785,3.871260
1000.339844,1.179266,2.670770,3.819282,4.696453
1000.343750,-3.816807,9.652000,7.105247,5.697986
1000.347656,3.083933,-0.764761,4.962291,2.983192
1000.351562,0.327394,-3.416182,-0.397322,6.734581
1000.355469,-2.061564,-2.636204,-3.362621,-0.341875
1000.359375,-7.027283,0.570646,-8.984541,1.100465
1000.363281,-4.169588,-4.341972,-6.505396,-10.951801
1000.367188,-7.241162,-13.293832,-15.080675,-7.887901
1000.371094,-7.205483,-8.872032,-8.253081,-4.906636
1000.375000,-2.317451,-8.597964,-12.718458,-3.136842
1000.378906,-5.401949,-6.072151,-13.981828,-5.497641
1000.382812,-2.439771,-9.049100,-13.232953,-9.394734
1000.386719,-7.714081,-2.455268,-14.434635,-4.755170
1000.390625,-7.709196,0.123331,-6.284715,0.161131
1000.394531,-6.507764,0.648353,3.452598,-1.530003
1000.398438,-5.214276,3.444152,-4.188683,-1.808181
1000.402344,-1.679388,-7.722375,-0.765832,6.942130
1000.406250,-0.538587,6.927647,13.379982,-3.591840
1000.410156,5.478771,2.879695,2.811777,8.720533
1000.414062,6.478741,11.033936,2.606391,6.159654
1000.417969,9.485183,4.331414,12.060284,9.455112
1000.421875,7.702722,12.742031,2.094904,10.996966
1000.425781,8.306815,15.217853,5.743283,13.044292
1000.429688,12.351547,6.545458,11.551945,8.445340
1000.433594,5.673407,5.545961,14.040096,4.370470
1000.437500,8.138003,10.782010,7.963031,12.047824
1000.441406,-4.210016,9.042025,-1.131140,6.615780
1000.445312,-0.199345,4.489203,1.730213,-1.328358
1000.449219,-3.411013,-5.577158,-2.663780,-8.541291
1000.453125,-7.629070,-5.675228,-6.878612,-3.871927
1000.457031,1.862642,-6.586976,-1.409825,-8.342122
1000.460938,-8.984298,-4.856648,-4.391767,-8.369504
1000.464844,-6.454522,-2.033781,-5.371490,-12.617841
1000.468750,-8.249213,-9.351104,-4.960686,-9.058576
1000.472656,-11.684198,-9.711290,-3.582389,-15.798117
1000.476562,-11.059181,-10.754254,-7.102340,-6.801328
1000.480469,-11.637022,-13.824784,-9.470607,-8.413838
1000.484375,-10.529254,-4.756865,-8.302693,-6.645233
1000.488281,-1.944962,-11.018570,-6.189527,-2.041383
1000.492188,-1.521938,-10.225198,-7.521815,-4.155683
1000.496094,-6.476827,-1.813098,-3.989473,-6.131341
1000.500000,2.360697,5.137109,4.953161,2.519857
1000.503906,1.244449,0.682973,5.975048,-0.731904
1000.507812,3.317267,2.800291,0.615513,4.783454
1000.511719,15.149549,6.439621,0.887247,3.192896
1000.515625,2.725556,8.979173,9.705360,7.681142
1000.519531,6.974420,18.552228,4.595800,1.354165
1000.523438,4.776536,5.054137,8.783716,4.360275
1000.527344,6.724126,4.529096,13.418187,9.492669
1000.531250,15.254766,10.259987,6.046929,8.415967
1000.535156,5.255338,11.404251,12.190926,11.565712
1000.539062,7.326962,9.017654,6.760547,2.376172
1000.542969,10.946238,1.684086,-0.974080,4.764946
1000.546875,4.547018,-0.220779,7.443862,2.558044
1000.550781,5.183044,-6.511917,3.668730,7.774358
1000.554688,-4.693131,-2.664158,-3.786136,-0.396604
1000.558594,2.899806,-2.192219,-1.952526,-1.128849
1000.562500,-2.067001,-16.652550,-8.603450,0.437545
1000.566406,-5.138025,-4.341572,-6.113414,-6.230906
1000.570312,-7.961136,-12.887978,-7.102018,-14.614603
1000.574219,-8.389147,-8.019230,-2.501238,-12.739212
1000.578125,-6.565084,-8.814851,-5.971271,-5.176427
1000.582031,-17.009359,-5.486996,-8.159191,-12.544070
1000.585938,-5.152724,-12.460526,-5.000757,-4.305008
1000.589844,-0.997230,-4.168621,-6.720227,-3.052543
1000.593750,-2.516107,-2.251496,-13.044634,0.296815
1000.597656,-5.499569,-9.239625,-0.213037,2.675874
1000.601562,-2.764738,5.083598,2.666137,1.726228
1000.605469,0.238473,0.314776,-2.322573,6.065962
1000.609375,9.284258,10.226010,10.143036,8.333326
1000.613281,11.271943,4.324374,9.763195,10.379370
1000.617188,9.879709,-2.065035,6.687282,6.124287
1000.621094,10.835597,10.071154,8.207242,10.388609
1000.625000,10.714444,0.723738,15.167778,7.124595
1000.628906,2.534107,3.547342,14.230183,5.252286
1000.632812,5.359666,-1.469524,12.633847,15.829155
1000.636719,10.407499,8.597930,6.689863,7.991995
1000.640625,11.098421,4.639617,0.692775,1.861037
1000.644531,1.579801,2.443618,2.540975,6.531980
1000.648438,1.556638,3.856322,-2.488596,7.394199
1000.652344,-2.610515,-4.664357,6.603456,-0.383177
1000.656250,-7.202639,-4.123725,-3.476127,-9.706681
1000.660156,-6.457560,-0.885186,-8.667763,2.374766
1000.664062,-10.588530,-5.741707,-8.650446,-7.976493
1000.667969,-11.179214,-13.675022,-9.119441,-9.522744
1000.671875,-9.762627,-6.593849,-10.786640,-17.298685
1000.675781,-5.981543,-7.152256,-7.630448,-4.397763
1000.679688,-3.167870,-10.279666,-15.289229,-4.471419
1000.683594,-12.839699,-6.283174,-14.457557,-5.883668
1000.687500,-8.264674,-8.264704,-9.857235,-7.250259
1000.691406,0.239098,-1.036993,-5.775353,-1.761336
1000.695312,-10.322241,-3.172498,3.178615,-2.907990
1000.699219,-0.075414,7.108834,1.151446,-4.048934
1000.703125,0.109272,1.843075,3.194773,-0.094447
1000.707031,9.249583,-1.999652,10.689101,-2.953493
1000.710938,4.100994,4.115876,3.592152,7.230191
1000.714844,8.320855,11.698420,15.273142,12.410992
1000.718750,6.475604,13.574709,12.050649,14.817690
1000.722656,13.356647,16.378049,6.108706,6.089542
1000.726562,9.223725,5.734663,11.335096,14.889092
1000.730469,11.431647,14.043328,9.141113,11.071185
1000.734375,14.460786,3.490591,10.083972,8.679878
1000.738281,8.967428,8.473224,9.366091,7.650129
1000.742188,11.050059,1.527454,0.748391,-4.521906
1000.746094,4.200956,-1.610718,9.008064,-1.513893
1000.750000,3.725617,-3.599667,0.394675,-0.330472
1000.753906,-3.347275,-5.016804,2.060863,-6.439311
1000.757812,-4.292794,-11.742010,-2.493688,0.848421
1000.761719,-6.711661,-3.087693,-10.236916,-8.448382
1000.765625,-6.222495,-9.214723,-11.214356,-4.920759
1000.769531,0.703200,-8.586697,-9.249207,-8.929098
1000.773438,-11.690299,-16.150921,-12.551834,-17.421108
1000.777344,-13.518867,-11.431825,-14.434656,-7.249384
1000.781250,0.444947,-7.128635,-10.502616,-11.230764
1000.785156,-12.776070,-7.913909,-13.569281,-8.245785
1000.789062,-6.823553,-10.690857,-3.117098,-11.747027
1000.792969,-0.385077,-1.147592,-7.270505,-1.301269
1000.796875,-5.855103,0.975712,-3.687585,0.595273
1000.800781,3.941002,-1.762584,7.562070,7.742613
1000.804688,2.974532,5.464474,9.014062,3.117983
1000.808594,5.919240,1.979890,1.520531,11.607073
1000.812500,13.475695,9.642056,7.257247,9.758330
1000.816406,8.258720,6.667701,9.683365,9.184420
1000.820312,11.161995,11.809506,12.605868,7.739269
1000.824219,8.022516,8.121577,13.666355,11.202161
1000.828125,9.263645,9.854758,8.142917,6.017246
1000.832031,9.290446,17.704303,10.154610,7.409058
1000.835938,-0.350060,12.177842,8.163656,7.321354
1000.839844,2.655564,5.171216,5.932040,5.116231
1000.843750,-1.300756,2.424301,-1.038409,6.243643
1000.847656,0.769170,-0.095596,-3.640929,7.842576
1000.851562,-1.481352,0.564887,-3.801340,-0.133880
1000.855469,-4.554400,-2.633704,-2.160284,-3.969259
1000.859375,-4.129396,-11.873101,-3.589276,-8.288859
1000.863281,-4.454981,-8.227820,-0.184497,-1.136420
1000.867188,-10.689070,-6.029793,-2.343732,-8.270521
1000.871094,-6.993393,-5.153702,-12.375720,-5.567283
1000.875000,-6.021819,-2.436686,-13.636592,-7.517972
1000.878906,-16.308955,-6.251924,-7.995053,-9.549506
1000.882812,-12.022149,-9.870400,-10.657729,-10.149358
1000.886719,-13.785712,-5.724292,-10.710735,-13.844387
1000.890625,-14.317481,0.114818,-6.704213,-6.146899
1000.894531,-3.335274,-7.831181,-6.567887,-1.202296
1000.898438,-0.792719,-1.891526,-5.208724,-8.476562
1000.902344,-3.265671,-8.244544,3.911740,4.215385
1000.906250,-2.211926,6.195878,8.479206,-1.546132
1000.910156,8.045612,9.438364,1.502864,3.400890
1000.914062,9.689322,8.295858,7.934790,9.821012
1000.917969,6.460501,13.287005,3.079859,8.137744
1000.921875,14.503840,14.133026,2.373922,11.732800
1000.925781,12.557899,7.821439,13.917616,4.239313
1000.929688,9.643128,5.940112,6.774416,0.571896
1000.933594,9.217834,4.621943,10.514433,3.129645
1000.937500,9.507230,6.255759,1.893274,7.994307
1000.941406,2.764564,-2.707462,10.254290,1.969378
1000.945312,2.761880,3.717259,0.476157,5.219680
1000.949219,2.679246,-6.193031,-3.175568,1.477642
1000.953125,-1.020813,-8.730254,-1.583925,1.202454
1000.957031,-3.219114,-4.466971,2.754426,-9.710629
1000.960938,-8.215431,-6.850346,-10.951449,-2.431498
1000.964844,-9.374695,-7.197815,-13.806838,-3.303261
1000.968750,-18.398711,-10.362860,-8.225008,-11.037295
1000.972656,-10.257214,-7.387798,-9.580843,-7.347540
1000.976562,-6.725838,-8.455412,-8.581003,-13.684724
1000.980469,-13.687384,-13.342451,-10.508831,-5.107913
1000.984375,-4.763835,-16.619341,-8.055645,-3.477500
1000.988281,-12.761899,-1.268081,-5.489501,-3.271639
1000.992188,-5.610904,-5.608108,-9.000865,-5.515450
1000.996094,-5.691779,-5.601472,-6.753074,-5.028249
1001.000000,-3.542594,-1.269441,-0.503378,-0.780158
1001.003906,-4.736094,8.775056,3.040020,3.039892
1001.007812,10.103787,8.508090,1.905049,3.117811
1001.011719,15.687496,6.611739,11.001222,5.939526
1001.015625,7.567181,9.328734,4.848478,9.067670
1001.019531,4.511101,13.945346,2.042631,15.245567
1001.023438,6.546822,11.381284,7.415309,6.441970
1001.027344,5.818558,11.703465,7.578266,9.868009
1001.031250,6.841101,9.145691,7.948322,10.320970
1001.035156,15.936013,15.567723,9.726261,11.791936
1001.039062,7.105668,8.544346,7.016945,6.413135
1001.042969,5.540744,2.184975,-0.564558,10.496181
1001.046875,2.390750,0.777350,1.857831,-3.881834
1001.050781,3.247231,1.206866,-4.330354,1.172608
1001.054688,-2.393059,-5.929865,-1.781301,-2.847360
1001.058594,-0.361440,-3.854495,-3.817935,-7.239267
1001.062500,-3.325912,1.766623,-2.272607,-9.155725
1001.066406,-11.720255,-7.283681,-7.010823,-4.003402
1001.070312,-5.692986,-13.194576,-4.506169,-9.760175
1001.074219,-13.029466,-10.711724,-8.057877,-14.417025
1001.078125,-10.030505,-5.546377,-9.168244,-14.579484
1001.082031,-12.106737,-0.195057,-10.092619,-13.590939
1001.085938,-12.504421,-16.324850,-6.381017,-12.496757
1001.089844,-5.463697,-5.816620,-4.235073,0.766672
1001.093750,-6.082920,2.449187,-1.051622,-7.043321
1001.097656,0.022538,0.695689,-8.855356,2.819770
1001.101562,-0.905715,-0.719868,-4.303921,0.921246
1001.105469,9.465402,5.067149,9.479816,2.053349
1001.109375,3.754208,1.743268,7.761138,-1.078847
1001.113281,8.923556,5.747088,12.982024,10.038556
1001.117188,5.250812,4.625710,8.436946,10.350728
1001.121094,4.461245,7.996243,5.153841,14.469968
1001.125000,10.593813,10.977283,20.242621,1.099970
1001.128906,15.095280,9.646796,8.284880,10.559351
1001.132812,14.830719,3.583986,1.420500,10.970727
1001.136719,11.601964,2.140320,8.511292,5.690210
1001.140625,3.668163,2.004134,15.682522,4.842718
1001.144531,1.360247,3.184439,0.596493,0.197139
1001.148438,3.441804,11.639516,-13.103141,5.661439
1001.152344,2.177027,3.206076,-1.427859,-7.215446
1001.156250,-1.910735,-7.529063,-7.710637,-6.274900
1001.160156,-1.317377,-15.390667,-6.203336,-4.508753
1001.164062,-7.085125,-7.599589,-7.873026,-11.521949
1001.167969,-1.919573,-8.787097,-10.694075,-7.454714
1001.171875,-17.838054,-6.492904,-8.728121,-5.946164
1001.175781,-12.103909,-6.193598,-5.646169,-12.246217
1001.179688,-11.605316,-10.657488,-8.374904,-14.995874
1001.183594,-0.514857,-8.409350,-4.179821,-13.075778
1001.187500,-10.656668,-10.326655,-14.847811,-11.118332
1001.191406,-7.839719,-16.303489,-5.723640,-2.961026
1001.195312,-4.720137,-2.685837,-7.860344,1.337931
1001.199219,0.585694,-4.559465,-0.483030,-0.515693
1001.203125,3.704246,2.275144,6.894072,-4.495141
1001.207031,4.650025,6.192004,3.063596,3.229779
1001.210938,-1.225663,5.117715,4.382048,8.164729
1001.214844,6.901218,3.772022,8.513625,-1.076872
1001.218750,12.307982,6.039102,8.573308,8.930192
1001.222656,13.096606,16.181823,6.605836,8.962396
1001.226562,8.547190,13.550191,11.931468,14.486022
1001.230469,7.643753,11.403010,6.897855,9.904041
1001.234375,11.598230,-0.043443,6.150649,10.261242
1001.238281,2.444704,11.068187,12.894290,0.144517
1001.242188,3.492339,5.016625,5.340881,8.977141
1001.246094,7.186764,1.040014,3.670070,3.207124
1001.250000,-3.592369,-1.821712,8.031871,0.065454
1001.253906,-2.265673,-7.424170,-1.485308,-3.390319
1001.257812,-1.603353,0.492281,3.274874,-1.065815
1001.261719,-4.113206,-10.757740,-9.628538,-2.301589
1001.265625,-10.053183,-2.295496,-3.394388,-4.097912
1001.269531,-1.714847,-8.370367,-4.540920,-9.599115
1001.273438,-9.841525,-5.660990,-14.373543,-10.355805
1001.277344,-9.879009,-13.516675,5.028738,-11.820343
1001.281250,-6.773982,-18.872125,-15.629505,-6.315254
1001.285156,-14.583622,-8.408955,-8.536992,-8.519850
1001.289062,-3.980340,-7.181653,-1.799463,-14.641913
1001.292969,-3.705323,-3.917473,-4.733271,-8.199168
1001.296875,5.718370,4.406701,1.841105,-4.607757
1001.300781,3.746264,0.400579,5.909246,3.083561
1001.304688,-1.893543,-2.778186,2.333853,1.975817
1001.308594,2.199521,16.366603,13.864833,7.538068
1001.312500,10.603806,9.213088,10.600341,4.384238
1001.316406,6.558467,10.311481,6.050135,5.840545
1001.320312,6.381430,7.788233,7.653956,13.233302
1001.324219,6.150046,8.981345,11.969783,7.530305
1001.328125,10.162990,12.462792,6.024404,13.285227
1001.332031,11.221315,14.279991,15.138499,4.393340
1001.335938,6.433937,5.594643,3.180142,7.114423
1001.339844,7.795227,2.693886,5.744731,5.786227
1001.343750,7.077869,13.788808,7.115687,4.155598
1001.347656,2.389738,8.502668,-4.975753,-3.282729
1001.351562,0.612625,-6.158923,-2.127312,-2.913035
1001.355469,-2.154902,-6.564814,-5.198013,5.520967
1001.359375,-3.592313,-7.017184,-1.677245,-7.794472
1001.363281,-1.966704,-7.710507,-10.668588,-16.167574
1001.367188,-5.517624,-7.895159,-7.725046,-12.223679
1001.371094,-2.917123,-14.871664,-8.767534,-13.098821
1001.375000,-9.692222,-6.120377,-4.943043,-8.625040
1001.378906,-10.703418,-12.587548,-7.251387,-11.044039
1001.382812,-0.449445,-6.798400,-15.095585,-7.692361
1001.386719,-10.160053,-8.893552,-14.009137,-6.748596
1001.390625,-3.698001,-5.470443,-6.446494,-9.415804
1001.394531,-8.152245,-1.479265,-3.240944,2.134476
1001.398438,-0.539475,2.481942,-0.567501,2.753805
1001.402344,-2.146288,3.263835,3.601894,3.568665
1001.406250,0.839712,0.521039,8.470491,7.561773
1001.410156,6.469387,2.131339,9.316558,8.698764
1001.414062,11.150682,11.386131,16.184105,4.955299
1001.417969,6.000770,10.669797,11.176902,4.436300
1001.421875,11.030245,5.771342,8.770352,11.671560
1001.425781,9.011843,15.908624,13.294134,9.648180
1001.429688,10.465280,10.564901,7.029660,16.372890
1001.433594,11.572534,10.604016,4.586423,5.763826
1001.437500,8.289812,10.402448,3.988240,6.256345
1001.441406,1.169396,7.786136,4.558171,4.012846
1001.445312,-0.858358,1.920851,-4.216934,-3.529975
1001.449219,1.994022,0.487275,2.488970,2.435439
1001.453125,-4.085099,-1.676482,-4.288237,-0.189552
1001.457031,-23.759346,0.064534,-7.038777,-3.913634
1001.460938,-5.271471,-6.098429,-4.566044,-4.221133
1001.464844,-6.589722,-14.458143,-8.281425,-6.223006
1001.468750,-9.150652,-8.425617,-3.762227,-9.688608
1001.472656,-7.308034,-10.578706,-7.568107,-5.673222
1001.476562,-13.363374,-14.350020,-13.076584,-9.819685
1001.480469,-11.848701,-11.767679,-8.193873,-8.449290
1001.484375,-10.990537,-6.486860,-9.541716,-8.167517
1001.488281,0.606806,-5.389481,-6.325833,-11.969737
1001.492188,-1.466576,-0.522161,-10.130127,1.042384
1001.496094,-1.800135,-0.740101,1.527501,-5.699226
1001.500000,3.921759,-0.802582,2.041696,4.474196
1001.503906,-1.301998,8.510063,3.198555,3.189944
1001.507812,8.892927,2.737316,6.198679,0.035355
1001.511719,9.932550,7.327415,11.782321,4.272204
1001.515625,11.881580,16.819640,1.349447,4.076674
1001.519531,15.673346,9.022370,11.043240,17.245950
1001.523438,4.624314,11.741887,4.410530,4.693321
1001.527344,7.591041,11.659307,13.907676,7.823301
1001.531250,16.848271,8.640476,7.625041,4.949758
1001.535156,0.892343,0.664866,10.282003,12.129348
1001.539062,9.966093,5.328843,7.978801,7.533786
1001.542969,1.959056,2.436064,9.752471,1.707364
1001.546875,9.293988,4.936334,-3.785302,0.796721
1001.550781,-0.440126,0.147183,-4.376963,-9.214769
1001.554688,-6.166331,-3.743078,-8.579863,-12.325762
1001.558594,-16.512197,-3.805056,-13.387761,-10.176091
1001.562500,-0.897243,-9.107234,-6.849439,-15.195122
1001.566406,-13.163196,-11.150674,-10.098665,1.888966
1001.570312,-10.987078,-7.491056,-9.562754,-15.903254
1001.574219,-7.634800,-8.679138,-7.772181,-8.677756
1001.578125,-6.568981,-18.999089,-11.883776,-5.758282
1001.582031,-3.557334,-8.232038,-12.723942,-11.129361
1001.585938,-12.922768,-13.578304,0.698346,-3.253003
1001.589844,-4.202243,-4.302698,-5.588703,-14.996590
1001.593750,-6.125013,-4.116375,-2.182757,-0.318399
1001.597656,-8.085493,3.794860,-4.734363,-3.382995
1001.601562,3.742075,0.086468,6.490425,3.562043
1001.605469,1.516070,9.734055,-3.256909,3.073873
1001.609375,6.901535,-0.331956,12.081259,1.779579
1001.613281,1.842576,17.393895,8.595338,3.547669
1001.617188,11.610985,12.301173,14.677403,7.930102
1001.621094,7.132440,14.620295,8.737871,6.247450
1001.625000,7.263495,8.841815,11.647019,10.229364
1001.628906,15.348624,12.990427,10.127645,9.302417
1001.632812,11.616870,11.376583,17.892648,15.472926
1001.636719,4.776599,11.788564,4.719409,6.232342
1001.640625,2.009917,6.634904,5.980082,7.436739
1001.644531,1.496363,0.156319,0.052842,6.457806
1001.648438,-2.253132,3.162594,5.657414,1.211540
1001.652344,-1.614213,-4.545435,-3.923313,-4.234073
1001.656250,0.364851,4.880025,-0.148191,-6.211502
1001.660156,-6.357501,-0.094578,-4.259503,-7.943752
1001.664062,-8.333655,-14.292202,-13.223546,-4.661327
1001.667969,-5.317014,-15.677411,-11.694686,-13.367473
1001.671875,-12.695473,-15.354814,-6.176508,-15.278845
1001.675781,-3.438379,-9.040609,-4.036495,-10.505629
1001.679688,-11.002096,-4.054019,-6.761526,-10.060207
1001.683594,0.705262,-15.600061,-17.445686,-4.480529
1001.687500,-8.911700,-6.404549,-9.949305,-6.452815
1001.691406,-6.759418,-1.597873,-11.778011,-4.352992
1001.695312,-6.191613,-7.176826,-3.071524,-6.857857
1001.699219,-3.122808,-0.157956,-1.808917,-1.007647
1001.703125,3.774294,9.705669,3.875001,-2.705840
1001.707031,3.085225,8.402808,2.825868,4.617659
1001.710938,4.075947,6.868492,9.634611,1.549629
1001.714844,5.913542,5.880391,12.208823,9.369292
1001.718750,10.585761,14.810857,10.359884,6.514064
1001.722656,3.442585,2.723551,12.615769,13.446994
1001.726562,15.826819,14.363861,15.064021,13.250036
1001.730469,9.286041,9.615089,10.669216,11.400653
1001.734375,9.295464,9.940698,5.692136,9.561880
1001.738281,8.551767,9.023625,4.878194,10.539834
1001.742188,5.228054,7.745639,4.809282,9.663326
1001.746094,1.292133,3.509313,-5.695564,4.380522
1001.750000,5.555070,-6.802498,-4.255300,0.338034
1001.753906,6.145424,3.329881,-4.417676,1.411539
1001.757812,-2.683521,-5.361484,-2.067535,1.138689
1001.761719,-6.402078,-9.721343,-6.464252,-14.476994
1001.765625,-5.783481,-10.254748,-14.663957,-9.695730
1001.769531,-14.733250,-16.852329,-10.673616,0.069772
1001.773438,-3.279472,-12.525567,-9.182343,-5.635698
1001.777344,-15.570483,-7.864307,-4.302447,-7.721216
1001.781250,-1.104304,-11.469572,-10.750902,-8.772494
1001.785156,-5.267581,-10.942917,-3.224765,-10.697149
1001.789062,-4.068052,-7.178185,-0.660047,-11.676359
1001.792969,-17.177471,-7.926426,-4.729348,-8.776887
1001.796875,-2.435178,-5.673546,-5.328027,-5.896637
1001.800781,-0.418299,2.451400,5.003339,5.143153
1001.804688,3.281505,-2.878556,3.369565,5.059505
1001.808594,1.734426,4.088136,1.667974,9.859066
1001.812500,13.363847,2.599177,5.419016,4.579900
1001.816406,16.382375,8.969234,5.594668,10.035532
1001.820312,10.998602,10.355219,9.026518,15.697540
1001.824219,16.205575,11.155188,8.362719,10.903781
1001.828125,3.949636,7.371898,17.507209,9.109510
1001.832031,6.905875,14.002212,2.696824,11.761347
1001.835938,2.752517,7.408324,6.968444,12.826789
1001.839844,4.958652,9.494858,6.599150,7.863369
1001.843750,-0.953814,0.479412,0.421824,4.074190
1001.847656,7.922303,3.345172,5.242585,1.358194
1001.851562,-5.020671,-1.127661,-3.353208,3.582859
1001.855469,-5.598908,-3.701377,-2.691206,-0.457774
1001.859375,1.741146,-4.188676,-12.364606,-6.123100
1001.863281,-1.264244,-6.072435,-9.305679,-1.395994
1001.867188,-13.579699,-11.206516,-9.622151,-14.850008
1001.871094,-15.923176,-13.805113,-6.434740,-11.320222
1001.875000,-1.307549,-10.162874,-10.663516,-9.811648
1001.878906,-13.072962,-11.271132,-10.024405,-15.260734
1001.882812,-8.762927,-10.543525,-11.771112,-9.946509
1001.886719,-17.931621,-2.855439,-10.326272,-0.024859
1001.890625,-11.614965,-6.155357,-2.657967,-8.625691
1001.894531,-6.471731,-5.665653,-12.958626,-0.402681
1001.898438,-4.369275,-0.205503,-2.654816,4.969135
1001.902344,1.077668,-0.832295,-2.460420,1.186265
1001.906250,5.919748,4.268019,5.923522,0.271078
1001.910156,8.762430,13.794495,7.076565,8.023367
1001.914062,8.228330,9.919076,18.104218,7.637987
1001.917969,8.770514,12.728458,3.395298,14.434962
1001.921875,5.894940,6.971465,15.846179,11.144027
1001.925781,14.865790,12.316665,15.595066,9.224788
1001.929688,5.460597,10.660088,9.526240,4.028561
1001.933594,8.761946,12.139644,6.960620,10.445318
1001.937500,6.764869,8.203092,9.959364,13.024936
1001.941406,5.975789,3.143621,-1.877568,0.652782
1001.945312,-2.418213,3.303016,-1.957391,4.052228
1001.949219,-3.526822,2.898627,-1.415933,-3.656804
1001.953125,1.178784,-4.801808,-7.082185,-1.859060
1001.957031,-5.397190,-6.456992,-7.291576,-4.110672
1001.960938,-10.175662,-5.608526,-2.910171,-8.247654
1001.964844,-8.513344,-6.160450,-13.848190,-8.894641
1001.968750,-4.934615,-3.545185,-6.626960,-6.300544
1001.972656,-4.093576,-12.808231,-11.767032,-13.631665
1001.976562,-6.672082,-8.384226,-7.228090,-8.055866
1001.980469,-5.777744,-2.585900,-6.899554,-11.833335
1001.984375,-18.780202,-2.065000,-10.430042,-8.552023
1001.988281,-10.631225,-11.425972,-11.992707,2.229741
1001.992188,-2.355982,4.074952,-13.306736,-5.781943
1001.996094,-4.842993,-1.772574,-3.835968,-4.480529
1002.000000,7.766781,-2.851377,-0.958866,0.682798
1002.003906,-2.180863,1.520086,4.227020,2.590612
1002.007812,2.337205,0.860716,0.151088,-2.057101
1002.011719,11.883574,6.622258,9.179934,9.572664
1002.015625,13.291173,1.785604,14.267013,10.909036
1002.019531,13.311492,5.844813,16.006995,9.533851
1002.023438,8.155737,15.403255,10.386836,8.675953
1002.027344,16.026712,10.228875,7.380364,4.180831
1002.031250,9.762775,7.459811,4.508670,12.216162
1002.035156,11.701085,6.992369,8.063186,12.610445
1002.039062,11.979767,5.112880,11.150374,6.988610
1002.042969,7.018042,6.982534,3.267980,9.505129
1002.046875,4.746839,-0.142098,2.541742,1.028722
1002.050781,1.369857,1.729890,-6.036803,0.424337
1002.054688,5.405441,-2.983225,0.722506,-1.266798
1002.058594,-14.106468,-7.410565,-0.842093,-8.423620
1002.062500,-2.673071,-5.547712,-4.089175,-6.591180
1002.066406,-10.021557,-8.025724,-11.290731,-12.016134
1002.070312,-6.227588,-9.424284,-9.551604,-5.841640
1002.074219,-4.776268,-4.423063,-10.558011,-16.607119
1002.078125,-10.683181,-5.981744,-18.778256,-6.325017
1002.082031,-3.589844,-3.753491,-9.554117,-8.494719
1002.085938,-12.292293,-2.351450,-4.595429,-5.472102
1002.089844,-6.987304,-5.834313,-5.588358,-11.360316
1002.093750,-9.271199,-3.417081,-3.281349,-9.448149
1002.097656,1.758527,0.362057,-9.108547,-0.828122
1002.101562,-0.477857,-1.049036,-1.329969,1.363051
1002.105469,2.339653,-0.905734,-1.081278,-1.067398
1002.109375,7.844841,3.781075,9.279664,8.371556
1002.113281,6.455584,2.643132,7.314951,10.094359
1002.117188,9.362278,4.822871,10.028908,13.099971
1002.121094,21.632107,12.300989,10.007090,9.991294
1002.125000,11.650101,12.531944,11.644202,9.499878
1002.128906,9.714786,13.161801,8.758672,15.613287
1002.132812,13.206224,15.211933,10.707992,15.139985
1002.136719,5.401860,7.861229,4.893811,15.599202
1002.140625,11.256732,1.402432,0.781129,9.133134
1002.144531,-0.298410,-4.429297,2.754763,-0.561182
1002.148438,1.739735,3.810152,-1.551048,0.930630
1002.152344,-10.379472,0.916463,6.159174,-2.727563
1002.156250,-5.385849,-1.879926,4.301773,-0.734206
1002.160156,-4.237250,-4.122449,-5.973251,-12.019916
1002.164062,-8.269416,-3.969738,-12.602316,-4.930224
1002.167969,-15.426767,-8.290120,-7.239456,-10.393932
1002.171875,-16.269780,-10.452428,-9.982753,-13.721532
1002.175781,-11.019322,-4.329350,-3.386618,-11.298386
1002.179688,-18.103643,-14.663881,-8.557022,-8.229437
1002.183594,-5.527514,-14.788568,-11.853182,-9.218842
1002.187500,-12.927155,-1.033468,-4.381006,-2.023314
1002.191406,-2.114801,-6.041587,-12.239441,-4.486161
1002.195312,-5.147762,0.963705,-3.206164,2.676177
1002.199219,-6.155487,-2.238093,2.366091,-0.870203
1002.203125,3.784243,0.717596,1.667056,2.058371
1002.207031,9.066792,4.665442,4.535626,-0.174049
1002.210938,6.815696,-2.176144,7.543960,4.580120
1002.214844,9.976031,7.636609,8.614036,-0.746582
1002.218750,4.356460,15.323768,14.870729,15.609539
1002.222656,9.775844,9.189176,17.449929,17.490762
1002.226562,8.163016,13.648693,9.090154,19.135427
1002.230469,0.584918,11.146154,10.484578,12.133117
1002.234375,7.391843,9.526112,9.079070,10.511751
1002.238281,15.257539,12.095190,-1.429585,6.236193
1002.242188,1.393157,6.376869,5.862199,-2.532350
1002.246094,6.594228,-2.038495,-0.156344,-1.220670
1002.250000,-1.087630,3.037486,-8.238230,-1.467430
1002.253906,-7.946408,-3.859708,1.567652,-5.464697
1002.257812,-5.039795,-10.361041,-1.991129,-7.723787
1002.261719,0.586358,-11.922394,-6.991159,-14.472413
1002.265625,-5.925143,-8.523250,-7.787517,-6.061331
1002.269531,-8.952039,-9.100879,-7.451571,-15.983138
1002.273438,-6.223682,-2.992403,-4.023062,-6.601167
1002.277344,-6.633227,-4.384894,-15.483169,-14.521063
1002.281250,-7.306601,-5.513310,-16.925560,-5.296534
1002.285156,-6.225299,-10.437257,-3.450573,-9.454581
1002.289062,-0.842261,-7.117551,-5.934483,-1.764109
1002.292969,-7.110250,-2.965045,5.074617,-1.291984
1002.296875,3.297167,-4.743693,-6.016042,-3.331771
1002.300781,0.332656,-2.860659,-3.118213,-0.536035
1002.304688,-1.173880,-1.290967,1.709647,-0.681895
1002.308594,-0.720731,-2.935328,12.194027,8.280610
1002.312500,5.229975,5.608496,6.584198,5.229634
1002.316406,12.752532,8.787280,8.072554,7.268321
1002.320312,12.614974,9.069382,4.927654,14.150904
1002.324219,12.785559,7.134241,16.905626,10.317572
1002.328125,6.507922,10.884152,13.092303,6.820383
1002.332031,21.267285,10.321779,9.512768,5.694708
1002.335938,13.113944,9.877664,6.359176,11.051717
1002.339844,11.664225,9.785675,5.319416,10.975317
1002.343750,1.081076,1.619665,0.037747,3.419062
1002.347656,-3.442174,2.111423,9.109092,1.204762
1002.351562,3.262691,-2.123192,-0.949751,-5.274378
1002.355469,0.032890,-7.263386,-8.775130,-9.576239
1002.359375,-1.295590,-7.911688,0.282619,-2.082048
1002.363281,-8.939197,-6.695630,-1.142817,-9.530161
1002.367188,-7.375140,-15.389782,-12.515157,-2.118157
1002.371094,-14.562409,-11.378295,-14.350910,-16.527535
1002.375000,-15.280697,-13.330177,-9.077985,-2.785522
1002.378906,-12.112878,-6.893618,-8.560486,-9.832073
1002.382812,-4.208209,-3.251879,-5.370251,-0.955268
1002.386719,-6.340087,-12.638544,-4.855991,-6.697310
1002.390625,-4.874369,-4.401730,-12.630399,-2.780121
1002.394531,-6.743422,-0.136138,-2.993354,1.443684
1002.398438,-3.644754,-1.317781,0.673077,2.258612
1002.402344,8.363762,7.661087,-3.515512,3.793588
1002.406250,5.138545,8.258486,-1.526495,12.896632
1002.410156,6.243838,1.610273,0.896777,-4.930076
1002.414062,9.401941,8.203920,3.471631,0.417539
1002.417969,1.859532,16.819887,11.227642,20.413595
1002.421875,15.349654,11.625246,5.696031,11.259717
1002.425781,8.047077,5.779394,9.338337,3.069575
1002.429688,12.263697,6.857681,13.833131,12.357681
1002.433594,13.319028,11.247404,12.978976,8.720795
1002.437500,8.836902,13.006256,5.411809,7.883263
1002.441406,8.319718,5.355631,8.375165,8.779768
1002.445312,4.073962,-1.111359,10.224965,8.196994
1002.449219,0.052642,-9.846528,5.412339,-2.550757
1002.453125,-6.928529,1.519162,-7.405680,7.357230
1002.457031,-7.246656,0.251859,-5.531168,-1.865004
1002.460938,-6.674994,-2.603107,-7.776910,-6.831139
1002.464844,-5.657382,-4.722848,-9.779089,-8.159501
1002.468750,-6.005969,-5.632245,-17.966430,-11.161997
1002.472656,-13.459643,-13.454140,-10.541901,-4.981707
1002.476562,-2.520624,-14.931815,-8.554530,-9.480405
1002.480469,-11.885909,-5.627893,-8.132512,-6.254265
1002.484375,-11.188559,-10.500318,-9.093425,-8.685055
1002.488281,-7.113463,-10.776621,-9.848752,-0.129660
1002.492188,-2.942192,-0.400707,-5.001874,-4.614129
1002.496094,-6.809269,-3.397986,-6.483350,-4.196991
1002.500000,3.432039,3.462361,1.001043,-5.075238
1002.503906,5.766577,0.668578,3.127184,1.486447
1002.507812,6.852881,7.396920,2.430093,3.821278
1002.511719,-0.931884,0.122009,4.988675,2.014839
1002.515625,3.662416,9.135596,18.108890,7.201585
1002.519531,8.755886,12.090751,10.155868,6.590525
1002.523438,11.305429,9.369799,10.668219,1.868666
1002.527344,6.465089,7.373680,12.622962,5.434285
1002.531250,3.577627,11.287394,4.946053,3.639771
1002.535156,9.634321,3.373746,10.043342,5.127290
1002.539062,11.630746,8.040324,10.392475,-1.482292
1002.542969,3.493200,0.718407,8.976902,9.087195
1002.546875,-5.411546,-4.372231,-3.790471,3.036359
1002.550781,-3.379615,3.360176,1.425998,1.921819
1002.554688,0.611861,1.782448,3.783144,3.666348
1002.558594,-12.831147,-8.577054,-3.817769,-7.792310
1002.562500,-4.992680,-3.918957,-7.810094,-6.215641
1002.566406,-10.380630,-9.434222,-15.697635,-6.850127
1002.570312,-6.461611,-8.523911,-5.647425,-4.498742
1002.574219,-12.666955,-14.973268,-7.495253,-7.241545
1002.578125,-11.212531,-16.058408,-8.676614,-8.737883
1002.582031,-9.465520,-13.263871,-11.002339,-11.090007
1002.585938,-7.024580,-9.109005,-10.290183,-11.179765
1002.589844,-12.109837,-11.391223,-3.664513,-9.740789
1002.593750,-4.759627,-4.194060,-8.369624,2.140988
1002.597656,-7.331060,-3.445741,6.057960,-1.669657
1002.601562,1.108147,-6.711585,0.178255,-3.279062
1002.605469,5.623851,2.949567,3.380133,3.271140
1002.609375,7.716201,8.100452,10.882787,6.042317
1002.613281,9.639622,-0.603010,3.793232,9.245138
1002.617188,3.470981,-0.559068,12.408239,11.222329
1002.621094,7.910257,15.121522,12.774368,8.257076
1002.625000,10.114413,13.371127,7.452556,10.709084
1002.628906,7.465691,9.706205,7.625928,10.599436
1002.632812,10.946909,4.511073,6.124840,7.579472
1002.636719,9.347538,1.488223,14.539428,9.722385
1002.640625,4.980927,3.787234,-0.813266,6.312862
1002.644531,0.886516,3.943489,5.618647,-0.863306
1002.648438,2.334915,5.017887,2.095974,-6.969709
1002.652344,2.497861,-4.903671,-1.477100,-2.948603
1002.656250,-3.032092,-5.362024,-2.407682,-7.039630
1002.660156,-15.041861,-12.880484,-15.257008,-10.461186
1002.664062,-13.468531,-8.781655,0.115078,-12.864737
1002.667969,-7.607883,-6.556370,-11.766995,-8.672588
1002.671875,-11.053245,-10.581687,-14.645639,-2.364542
1002.675781,-8.490958,-8.530925,-10.837374,-12.216595
1002.679688,-12.896047,-9.546818,-10.484745,-2.023762
1002.683594,-4.555405,-6.409222,-10.602550,-8.643401
1002.687500,-9.729321,-10.195644,-4.863810,-10.634152
1002.691406,-10.251490,-7.508496,-0.353415,-2.489592
1002.695312,-1.711608,0.716618,-2.378691,-5.654869
1002.699219,3.699966,0.326485,5.022533,-1.166995
1002.703125,2.183466,3.951741,-3.777515,5.923585
1002.707031,2.298474,-4.338579,4.644951,2.235985
1002.710938,2.230809,3.876553,11.821434,-1.301315
1002.714844,12.126015,6.924137,7.284175,11.278276
1002.718750,13.736513,5.906286,1.352368,12.314265
1002.722656,11.014855,11.810291,12.924260,5.240025
1002.726562,10.878110,8.102334,5.090015,10.710183
1002.730469,6.275436,8.170896,13.492020,5.905016
1002.734375,9.549076,-0.379920,13.859442,7.900583
1002.738281,10.056240,8.765256,4.889719,10.888816
1002.742188,12.310716,0.066508,8.568868,-1.084219
1002.746094,4.115168,-3.615164,5.684306,2.694373
1002.750000,-3.834880,-2.707856,-9.142507,4.552435
1002.753906,3.940439,-6.072018,-5.082990,1.648905
1002.757812,-6.666729,-1.309112,-2.987156,-4.838005
1002.761719,-5.102543,4.871901,-9.381431,-3.633922
1002.765625,0.790357,-0.918534,-17.891794,-2.428209
1002.769531,-13.427794,-7.475118,-8.061480,-7.639921
1002.773438,-16.041678,-9.633781,-8.776442,-8.114315
1002.777344,-9.882407,-8.688807,-4.309653,-6.225573
1002.781250,-8.279932,-6.112294,-15.491427,-15.570852
1002.785156,-6.054796,-8.649685,-7.557254,-13.075130
1002.789062,-7.264540,-3.696264,-9.557282,-7.881060
1002.792969,-3.057532,-6.525767,-1.610596,-7.586634
1002.796875,3.802709,1.510104,-6.999484,-5.031223
1002.800781,4.719826,1.636317,-0.516564,-0.339060
1002.804688,-0.723685,9.638835,-3.467548,9.030587
1002.808594,5.634624,-2.400580,4.599437,4.269040
1002.812500,5.413056,8.883076,-1.226645,9.067763
1002.816406,15.556999,12.540590,7.070832,11.054127
1002.820312,9.365167,15.310584,9.516210,4.837632
1002.824219,3.616213,8.843724,6.230753,18.065342
1002.828125,5.573168,10.739884,13.039748,4.721009
1002.832031,11.149823,12.382955,10.417697,8.712732
1002.835938,11.982566,7.249240,7.700073,13.366364
1002.839844,1.330259,10.327004,-1.196860,10.716454
1002.843750,9.445264,4.208613,3.323557,7.369839
1002.847656,-2.889706,4.243193,-0.393355,0.017714
1002.851562,3.868418,0.712466,-1.028882,5.759035
1002.855469,0.103828,-0.248640,-5.421097,-6.514857
1002.859375,-5.508498,-2.999721,1.410386,3.770012
1002.863281,-10.666649,-10.555500,-0.942597,-6.223628
1002.867188,-10.153352,-2.191838,-5.708340,-4.411807
1002.871094,-12.102922,-3.577295,-8.420828,-4.215843
1002.875000,-13.376855,-10.178142,-6.194699,-10.377099
1002.878906,-13.281103,-7.661339,-10.101643,-2.190989
1002.882812,-3.886698,-5.575203,-8.305278,-12.871260
1002.886719,-13.405972,-3.397115,-3.082386,-7.904605
1002.890625,-6.468907,-5.406302,-6.900886,-0.836162
1002.894531,-5.059334,-6.295494,0.558142,-10.100526
1002.898438,0.464103,1.733922,-0.532077,1.568227
1002.902344,-0.484952,2.384180,-0.086804,0.832458
1002.906250,3.191859,6.706904,3.556794,6.081804
1002.910156,8.088320,8.991109,11.041174,6.985621
1002.914062,11.192049,8.961539,9.540953,14.227367
1002.917969,-0.529519,7.521403,13.239514,2.096825
1002.921875,12.460255,10.496609,4.450079,9.032161
1002.925781,9.818107,5.956297,10.536528,9.824266
1002.929688,8.505966,9.258922,9.991634,14.660527
1002.933594,6.859054,8.676579,3.221896,4.537880
1002.937500,11.636475,10.859572,2.272937,9.970903
1002.941406,4.051966,1.703863,6.986231,6.391944
1002.945312,1.463461,1.383270,2.723183,7.349857
1002.949219,-3.038736,1.751619,-3.149859,8.035114
1002.953125,-6.256186,7.180074,1.390998,-3.171230
1002.957031,-4.264490,0.713052,-7.532525,-4.210607
1002.960938,-7.275286,-7.822788,-7.609589,-9.119187
1002.964844,-13.353271,-14.799291,-8.029575,-4.845880
1002.968750,-14.372717,-11.206259,-13.578704,-9.411157
1002.972656,-5.166129,-2.976303,-16.289212,-14.494272
1002.976562,-17.947780,-6.105524,-11.613332,0.795980
1002.980469,-19.921541,-10.735600,-7.004404,-10.653182
1002.984375,-8.644471,-16.037922,-9.661485,-9.959752
1002.988281,-5.527000,-9.793361,-4.714957,-11.530339
1002.992188,-4.935709,-0.711869,-3.900730,-4.286128
1002.996094,-0.245050,-5.352365,-4.926478,-8.086963
1003.000000,3.440077,4.063978,6.799842,2.779323
1003.003906,-3.049118,-1.561728,2.646994,1.924601
1003.007812,3.756130,3.148584,4.354327,3.387948
1003.011719,4.477240,5.274926,-3.960397,9.666659
1003.015625,6.846195,3.730595,2.032310,9.129583
1003.019531,9.908237,-0.629616,7.345223,4.105726
1003.023438,13.422914,19.922688,11.312289,16.588230
1003.027344,2.006224,11.452196,13.173782,7.344704
1003.031250,5.101901,6.645077,17.435175,6.249232
1003.035156,8.049895,9.584441,9.922884,1.361170
1003.039062,12.853217,9.446890,0.330986,2.237117
1003.042969,7.062591,13.250716,1.158284,6.690037
1003.046875,1.887417,3.239420,-0.129660,-9.888781
1003.050781,3.334012,1.858116,-6.568051,4.783319
1003.054688,-4.190031,-5.484240,-3.977279,-0.207852
1003.058594,2.195813,-3.626214,-7.047681,-9.318150
1003.062500,-3.073504,-8.065793,-4.642487,-2.690338
1003.066406,-10.598841,-10.930377,-8.978915,-13.095070
1003.070312,-10.868735,-3.523453,-9.641417,-9.217855
1003.074219,-19.182810,-13.375598,-4.484849,-15.199750
1003.078125,-19.334797,-11.232761,-17.480293,-6.830023
1003.082031,-14.099466,-4.901221,-11.733859,-7.238011
1003.085938,-13.698155,-4.471486,-7.258241,-6.903588
1003.089844,-4.428430,-7.086894,0.385737,-7.905070
1003.093750,-6.555170,2.302621,-3.605021,-2.995948
1003.097656,-3.969397,-0.461141,-2.329146,3.101068
1003.101562,-2.560981,5.848687,5.371083,8.351011
1003.105469,0.352181,3.223277,2.892544,5.464949
1003.109375,3.724483,5.821177,10.188307,3.942859
1003.113281,4.000322,6.171635,11.302250,14.834909
1003.117188,9.497754,11.979292,15.160870,12.366984
1003.121094,5.632718,13.765463,7.227006,6.535611
1003.125000,2.285979,14.187914,8.754057,7.283270
1003.128906,9.501258,9.633223,11.984108,10.522792
1003.132812,-0.636660,9.718092,11.013089,4.424152
1003.136719,12.726903,1.796385,8.381262,5.189761
1003.140625,6.499956,7.340742,3.572303,-0.771274
1003.144531,-0.477516,6.824562,-2.210822,-1.334793
1003.148438,-0.802193,2.128186,-1.556438,5.904805
1003.152344,4.593535,0.118182,-2.057346,9.149957
1003.156250,-3.486699,-4.350673,-14.008649,3.454386
1003.160156,-6.613650,-10.327491,-7.912006,-12.494590
1003.164062,-1.242651,-2.607360,-11.118491,-5.009140
1003.167969,-6.826295,-7.137494,-7.705950,-16.476417
1003.171875,-15.522930,-14.228592,-10.152614,-3.916997
1003.175781,-14.343451,-8.430754,-7.902477,-2.260623
1003.179688,-7.552656,-7.051383,-8.301547,-14.010585
1003.183594,-14.226788,-4.075108,-15.108506,-10.523593
1003.187500,-8.378868,1.662711,-12.609894,-8.285533
1003.191406,-0.603413,-12.506579,-8.199147,-4.717529
1003.195312,-0.958111,-5.162803,-9.588638,-0.454968
1003.199219,1.940664,-4.628824,0.337503,-3.980611
1003.203125,5.746814,-0.150596,0.535832,3.176026
1003.207031,1.150297,6.689149,2.571989,2.868346
1003.210938,2.923098,13.619078,11.064395,13.219288
1003.214844,5.986366,11.313407,6.911080,5.773905
1003.218750,15.905445,12.318221,10.876405,6.912642
1003.222656,15.513935,4.712842,10.760946,8.335683
1003.226562,9.149789,5.498795,13.358984,7.481809
1003.230469,12.158627,5.341549,6.511901,10.052936
1003.234375,6.407484,6.825449,6.596592,10.828332
1003.238281,10.740010,8.736777,2.651121,6.676564
1003.242188,9.040797,4.431935,10.778285,8.152763
1003.246094,9.201289,1.026610,-0.668618,2.493062
1003.250000,3.987560,-4.283740,-7.913592,-0.502117
1003.253906,-7.767229,-6.970261,1.311346,-5.389479
1003.257812,-6.157823,-1.570041,-7.287614,-1.514256
1003.261719,-7.363969,-5.887943,-9.798775,-4.845908
1003.265625,-7.175003,-3.891604,-9.907868,-1.777901
1003.269531,-10.453481,-9.760011,-4.743749,-12.058985
1003.273438,-10.854036,-7.377492,-12.321697,-16.654228
1003.277344,-11.970079,-7.631763,-7.391705,-6.443908
1003.281250,-9.111534,-11.205874,-10.912481,-7.048302
1003.285156,-12.810225,-3.233545,-8.905923,-13.853979
1003.289062,-13.654727,-7.128457,-2.146737,-7.620117
1003.292969,-9.646488,-8.973462,0.395437,-5.395715
1003.296875,2.519147,0.104947,0.614074,-7.965291
1003.300781,-1.610980,2.080081,3.175734,-1.294653
1003.304688,-6.875094,3.429253,1.467460,7.952949
1003.308594,3.689369,-4.117152,6.078571,5.989077
1003.312500,6.265958,8.208879,8.869383,4.033826
1003.316406,12.524867,8.744144,2.335500,-0.528551
1003.320312,14.554996,10.186239,6.427884,1.386350
1003.324219,9.366953,15.878203,13.305974,9.382405
1003.328125,14.655035,14.093569,11.532485,4.377656
1003.332031,18.105536,6.075562,10.713249,14.167759
1003.335938,4.762124,7.129340,10.662111,13.419455
1003.339844,9.217891,4.262824,12.010224,8.582475
1003.343750,-0.579805,-1.813505,6.471636,11.264956
1003.347656,1.634443,2.760639,-1.061790,7.540236
1003.351562,-5.229396,-5.613428,-5.806088,-1.801721
1003.355469,-10.503562,-8.557185,-2.970261,5.467415
1003.359375,-6.566548,-6.083827,-3.209721,-13.396160
1003.363281,-1.996396,-7.936977,-10.263324,-9.604620
1003.367188,-6.277400,-1.009026,-12.466521,-3.709379
1003.371094,-2.774553,-2.572423,-14.571170,-12.752440
1003.375000,-7.683050,-11.868227,-6.824155,-20.355661
1003.378906,-9.952471,-9.441130,-9.617818,-9.324669
1003.382812,-4.491235,-15.011462,-8.551937,-0.581071
1003.386719,-10.495273,-9.240747,-5.015464,-8.665955
1003.390625,-4.715143,-2.238680,-5.056146,-7.609001
1003.394531,-3.325645,-7.994863,-9.152773,-1.536320
1003.398438,6.510538,6.550958,0.033079,-8.290613
1003.402344,-2.091649,1.995491,-2.503006,6.163529
1003.406250,4.630065,-0.362426,-2.973850,4.277223
1003.410156,3.296402,8.649446,10.022986,9.821505
1003.414062,7.299614,0.814564,8.584149,13.355417
1003.417969,1.525154,4.051247,7.740337,4.167013
1003.421875,-0.633992,10.239392,7.671918,12.094250
1003.425781,16.292326,18.259799,7.057482,10.289209
1003.429688,12.094625,13.118871,4.819143,6.771258
1003.433594,9.914467,12.155817,14.519955,5.371004
1003.437500,9.735858,2.625457,3.708659,2.105663
1003.441406,0.084063,11.699227,6.592195,8.299096
1003.445312,5.059635,-4.592157,3.817469,5.658332
1003.449219,6.377530,-0.381926,-4.199941,6.255821
1003.453125,-5.496591,-3.652356,-4.148650,-1.564199
1003.457031,-6.029458,-4.577539,-1.443659,-4.811316
1003.460938,2.821371,-5.681612,-7.941654,1.042493
1003.464844,-6.686076,-11.215790,-12.685219,-9.433076
1003.468750,-3.965061,-6.550322,-9.687236,-2.829026
1003.472656,-5.569139,-15.852934,-15.547387,-25.198182
1003.476562,-12.862757,-7.580796,-9.413101,-15.378821
1003.480469,-9.848231,-9.395457,-6.423759,-8.333926
1003.484375,-10.350418,-0.493528,-6.203563,-13.589736
1003.488281,-7.534796,-13.054924,-1.028388,-9.827372
1003.492188,-12.188164,-2.925315,-4.513558,-6.517701
1003.496094,-4.643206,-7.000368,6.004974,1.515483
1003.500000,-2.291629,-5.819861,-0.408753,-6.050489
1003.503906,3.297154,-1.249861,3.328318,7.189694
1003.507812,3.921695,1.691622,9.313265,1.747139
1003.511719,10.042507,12.582592,7.189473,10.312674
1003.515625,11.426327,5.722471,12.827914,13.479518
1003.519531,8.874162,9.310127,16.319217,12.821339
1003.523438,8.873442,4.824424,14.065845,5.949101
1003.527344,7.241011,12.770096,7.019485,10.744812
1003.531250,10.578562,-0.331645,4.569782,7.650243
1003.535156,11.765511,12.146099,3.375887,16.077610
1003.539062,3.638284,9.936396,6.590358,9.759254
1003.542969,2.326786,1.362200,6.571152,3.068641
1003.546875,0.220864,0.268341,0.070103,2.572675
1003.550781,-2.585639,-6.564129,-0.770535,-3.643078
1003.554688,2.135693,-4.895905,-0.859701,-5.566546
1003.558594,-8.135254,0.780483,-5.851735,-7.820853
1003.562500,-9.096652,-11.003675,-10.613548,3.030868
1003.566406,-13.179883,-6.290307,-8.254375,-15.365418
1003.570312,-9.165863,-7.217663,-9.820608,-9.667298
1003.574219,-14.599047,-15.294626,-8.470491,-7.861478
1003.578125,-7.630297,-14.426562,-11.116809,-15.107171
1003.582031,-2.269818,-13.206617,-12.346107,-8.037321
1003.585938,-12.423781,-6.040853,-7.590117,-9.253223
1003.589844,-2.763913,-3.265216,-1.045140,-3.618225
1003.593750,-12.361655,-6.435908,1.100138,1.589424
1003.597656,1.418658,-7.933391,-5.298300,-4.602069
1003.601562,-0.506059,2.249459,2.875127,4.789505
1003.605469,-5.537153,6.134860,-0.791528,0.815021
1003.609375,8.695601,6.754226,-0.975254,-0.925528
1003.613281,10.343467,2.379707,2.549923,12.628441
1003.617188,3.425308,7.352540,2.263534,10.581842
1003.621094,10.782328,8.765484,8.932104,7.821551
1003.625000,13.683094,15.445682,16.131845,9.062798
1003.628906,7.920884,7.953615,18.592598,9.722598
1003.632812,7.028799,8.203887,7.775022,3.589899
1003.636719,10.411273,12.199793,6.791820,12.008330
1003.640625,7.371091,5.066541,3.482836,2.426046
1003.644531,9.124388,0.294944,-1.713513,2.109854
1003.648438,-1.610109,2.255720,-3.843637,-0.001349
1003.652344,-0.279055,-3.630185,-5.026480,-8.719455
1003.656250,-10.956269,-3.658586,0.590942,-3.487904
1003.660156,-12.799762,-4.796909,0.590530,-2.441348
1003.664062,-10.148876,-4.853928,-7.854503,-7.432467
1003.667969,-18.104916,0.626402,-11.273268,-6.153534
1003.671875,-1.280640,-9.708526,-5.391538,-12.161988
1003.675781,-10.866122,-10.263221,-12.248781,-8.568618
1003.679688,-6.390945,-7.421159,-12.275580,-10.026795
1003.683594,-7.094227,-6.387499,-14.563612,-10.654990
1003.687500,-5.359402,-6.773027,-17.494565,-7.714252
1003.691406,-5.096529,-4.657545,-1.060764,1.714746
1003.695312,-3.510420,0.746681,0.973392,-0.539579
1003.699219,2.080891,-3.130829,-7.764165,4.410879
1003.703125,0.188049,5.871404,1.822377,3.755732
1003.707031,4.459994,-3.300179,11.232258,4.398663
1003.710938,0.375944,1.913096,12.071897,5.235547
1003.714844,11.609400,4.124435,8.785252,3.774873
1003.718750,6.640365,12.582898,8.255601,12.484574
1003.722656,8.970175,17.380150,5.757711,10.326756
1003.726562,10.734052,6.638525,13.715730,7.093617
1003.730469,7.677328,10.301325,11.058014,12.445432
1003.734375,9.404295,3.650693,5.151265,11.308002
1003.738281,-2.404438,5.073575,5.304209,14.196403
1003.742188,5.744908,0.510637,-4.104648,2.579226
1003.746094,6.218617,3.170499,-0.171316,6.795552
1003.750000,8.420148,2.616235,-1.617422,-2.889787
1003.753906,-3.718252,-6.470934,3.644871,-3.348071
1003.757812,-4.402992,-1.487444,-5.937352,-2.565663
1003.761719,-8.129894,-8.327951,-7.275061,-8.902710
1003.765625,-7.338702,-9.924386,-9.421589,-6.825134
1003.769531,-10.257672,-4.551260,-13.131944,-15.414315
1003.773438,-13.382734,-9.311630,-12.868006,-5.362715
1003.777344,-10.175116,-5.260104,-12.118008,-17.247988
1003.781250,-14.542751,-6.416906,-6.751219,-6.792742
1003.785156,-4.325036,-6.429119,-4.117128,-7.499770
1003.789062,-5.767772,-7.336788,-5.034757,-4.438952
1003.792969,-8.226896,-10.643063,-0.734801,-8.895638
1003.796875,0.800976,-8.451259,-0.739800,-1.532446
1003.800781,1.562984,3.112522,3.976918,3.589718
1003.804688,-1.482240,0.865170,6.259059,6.306380
1003.808594,7.084366,2.181932,1.266558,-0.228851
1003.812500,1.718714,8.448517,6.970431,5.031304
1003.816406,11.226020,0.793494,2.214643,11.884052
1003.820312,12.439906,13.440590,9.928624,11.318735
1003.824219,13.026940,9.830557,11.820750,18.023004
1003.828125,12.701821,7.692323,9.091341,13.432685
1003.832031,11.157206,7.693416,11.568074,5.294091
1003.835938,8.122974,5.077798,9.088609,2.421764
1003.839844,13.414885,2.804485,11.010065,2.423759
1003.843750,9.315719,0.073750,3.861740,10.279678
1003.847656,7.392569,-4.312239,-2.130396,-0.227335
1003.851562,3.204137,-2.513547,4.242056,0.009003
1003.855469,-4.986175,1.561456,-0.968817,-5.858120
1003.859375,-5.992699,-4.364689,-11.846545,-2.210409
1003.863281,-4.419175,-7.134079,-2.363772,-6.586442
1003.867188,-6.837679,-9.190885,-12.391140,-9.865280
1003.871094,-14.191885,-13.821684,-8.565577,-13.021597
1003.875000,-14.725840,-3.515046,-12.065381,-1.279821
1003.878906,-3.757695,-9.392690,-14.109608,-15.653865
1003.882812,-3.884062,-7.413674,-10.497110,-6.299655
1003.886719,-7.125172,-14.389602,-11.008039,-12.728537
1003.890625,2.336204,-4.891573,-0.552301,-1.838701
1003.894531,0.012125,-2.709522,-7.918915,-6.438121
1003.898438,-0.848200,1.525742,1.619664,-4.564198
1003.902344,4.870664,-9.497478,-1.627863,5.144251
1003.906250,4.875195,2.400303,-1.289152,6.653535
1003.910156,11.312156,10.256002,2.752289,3.671523
1003.914062,6.205254,12.029046,5.214355,9.188459
1003.917969,10.452553,13.022672,8.084936,9.815678
1003.921875,4.311917,7.699629,6.562688,13.283392
1003.925781,12.179245,12.605428,5.211167,8.813127
1003.929688,8.744420,4.404007,18.320609,8.291387
1003.933594,7.598638,5.573459,11.697808,5.130630
1003.937500,8.421060,6.837356,11.968826,9.423699
1003.941406,11.505279,10.404053,-1.727864,0.512777
1003.945312,-1.314269,2.045939,3.740746,1.388691
1003.949219,-2.628107,3.461638,-0.022245,1.610052
1003.953125,-8.760754,-5.158325,1.146735,-2.841929
1003.957031,-10.600886,-7.368116,-12.274833,-2.072122
1003.960938,-3.076466,-5.076716,-4.464227,-0.204495
1003.964844,-13.290092,-6.360479,-9.344754,-16.971155
1003.968750,-9.468127,-7.185408,-10.263717,-17.129060
1003.972656,-12.215598,-2.022109,-7.138522,-11.222008
1003.976562,-12.101140,-12.192066,-6.585623,-11.964599
1003.980469,-3.041883,-6.522011,-8.540980,-9.776895
1003.984375,-12.183071,-11.183962,-7.940653,-13.375510
1003.988281,-5.757422,-1.227728,-11.456102,-0.441568
1003.992188,-4.867721,-5.103525,-5.416197,1.092615
1003.996094,3.374498,0.452185,-6.188986,-6.270819
1004.000000,3.621357,2.303381,1.388845,-10.692922
1004.003906,-2.485940,-0.435632,0.358695,1.031658
1004.007812,9.774788,2.408007,0.293916,1.534790
1004.011719,0.095783,4.645721,6.858582,8.417832
1004.015625,14.996213,6.537708,16.272642,7.468323
1004.019531,10.822487,15.249375,1.857408,9.980618
1004.023438,13.593765,11.955316,11.685433,9.339955
1004.027344,5.019921,4.512345,9.051191,6.919673
1004.031250,7.063107,6.677725,8.919098,7.645953
1004.035156,7.049980,8.484063,3.985433,10.180767
1004.039062,0.589894,11.869863,5.080226,13.386495
1004.042969,-6.303317,13.482719,-1.863173,-1.512321
1004.046875,-0.299026,5.603860,0.153132,5.302831
1004.050781,-4.409576,0.756444,2.129548,7.355475
1004.054688,-4.561089,-11.365260,-0.019955,-2.383366
1004.058594,-4.048491,-5.234199,-2.605707,-6.866196
1004.062500,-12.570108,-7.034611,-12.132887,-5.935572
1004.066406,-9.953401,-9.233732,-7.000055,-7.558265
1004.070312,-10.762541,-6.800240,-10.337594,-15.262943
1004.074219,-11.993206,-9.878480,-9.153879,-12.364880
1004.078125,-9.640212,1.566234,-6.181393,-11.616936
1004.082031,-10.009112,-10.791299,-15.790563,-18.615131
1004.085938,-4.931055,-5.337552,-12.872061,-6.920919
1004.089844,-4.654502,-8.296981,-6.091036,-7.259866
1004.093750,-2.244781,-5.797241,-5.730004,-2.348993
1004.097656,0.730593,-4.201173,-4.386486,-8.527132
1004.101562,-0.262725,-2.026263,6.661663,0.515964
1004.105469,9.890245,2.147190,4.440786,3.254667
1004.109375,-1.125618,-0.793737,4.881071,2.840419
1004.113281,6.892229,8.483759,9.970047,10.606208
1004.117188,1.879382,15.335902,11.347335,7.548433
1004.121094,14.324416,10.810326,5.856271,12.424217
1004.125000,7.184807,11.482335,13.157516,9.415098
1004.128906,6.121285,8.437919,3.196628,8.642768
1004.132812,6.095052,6.806297,10.071311,5.866610
1004.136719,7.572111,-1.009989,7.546512,6.693313
1004.140625,7.798852,1.094332,8.451491,4.765668
1004.144531,-0.785977,2.254936,8.416903,-0.613492
1004.148438,-0.278663,-0.454482,1.639239,-1.709320
1004.152344,-3.314389,-2.404642,-2.198855,1.841866
1004.156250,-8.652167,1.534945,-4.668363,-9.053961
1004.160156,-7.840661,-4.258811,-16.256830,-0.312988
1004.164062,-0.385777,-9.365669,-3.518777,-6.572542
1004.167969,-6.405921,-10.170918,-4.434095,-3.049287
1004.171875,-17.952863,-7.966114,-11.147441,-4.492931
1004.175781,-5.018589,-11.050968,-13.014236,-14.114355
1004.179688,-10.871529,-6.853226,-4.591427,-15.188189
1004.183594,-10.723239,-8.272525,-6.383245,-14.841404
1004.187500,-0.874629,-11.345879,-7.673179,-9.472500
1004.191406,-5.397141,-6.660958,-8.610031,-2.653038
1004.195312,-3.429431,-4.794239,-10.345947,3.438683
1004.199219,4.148141,3.557175,-8.519232,-7.126096
1004.203125,5.015070,4.810603,-0.790224,5.227183
1004.207031,0.210870,-1.254475,13.820071,-2.365229
1004.210938,4.585718,9.860659,4.073762,4.413561
1004.214844,13.987321,7.546469,9.960868,7.435935
1004.218750,2.685609,7.809621,6.326977,11.020573
1004.222656,10.842202,11.266024,10.278061,11.780271
1004.226562,10.018755,-0.663029,12.374365,11.968009
1004.230469,5.316833,9.961403,16.067635,3.909882
1004.234375,9.564506,5.552175,11.313666,5.172783
1004.238281,7.768297,9.388205,4.531335,2.899451
1004.242188,1.182527,13.039931,4.496172,17.150730
1004.246094,-1.337153,0.630799,1.671723,4.166212
1004.250000,5.306010,-7.413661,-5.601476,-0.545570
1004.253906,-0.841136,-1.377648,-4.602709,-1.381791
1004.257812,-6.750332,1.282850,-6.942456,-10.479938
1004.261719,-7.716560,-9.706460,-8.144435,-4.713057
1004.265625,-10.584735,-10.303810,-4.908757,-6.740411
1004.269531,-7.037963,-7.517827,-5.437181,-8.540594
1004.273438,-6.176225,-10.165537,-8.970039,-6.616455
1004.277344,-6.663020,-6.967210,-11.540662,-9.067181
1004.281250,-4.963241,-2.655408,-3.986918,-14.863889
1004.285156,-12.009847,-7.134435,-0.463850,-10.293482
1004.289062,-2.881240,-4.348244,-12.627774,-5.967014
1004.292969,-5.078390,-5.257754,-2.672682,-15.548298
1004.296875,-1.934522,3.185549,9.886355,2.399365
1004.300781,-1.058126,-2.839947,2.162432,-2.371017
1004.304688,-1.536174,10.415268,-0.478482,3.476987
1004.308594,9.458047,8.308922,11.022054,1.917427
1004.312500,5.984011,9.185732,7.361766,17.300681
1004.316406,11.559322,6.743551,13.323197,9.745240
1004.320312,6.314259,13.071610,8.219552,7.359225
1004.324219,8.848338,15.487560,6.467250,12.008276
1004.328125,11.908781,2.678199,6.588102,9.251940
1004.332031,13.521733,7.366677,5.944147,6.158386
1004.335938,4.756288,12.393971,4.268819,11.932975
1004.339844,7.972458,7.354592,6.865233,9.115609
1004.343750,2.085747,3.926977,-1.338064,6.032200
1004.347656,3.247472,-0.421129,4.649275,6.524056
1004.351562,-4.270469,-1.430718,0.756130,6.531106
1004.355469,-7.132328,-6.090893,-8.586774,-3.785695
1004.359375,-1.171778,-5.185999,7.407986,-1.484870
1004.363281,-7.946256,-11.447533,-9.825821,-2.877807
1004.367188,-11.511419,-4.008883,-8.212793,-7.467247
1004.371094,-5.534882,-8.819922,-4.799940,-9.728344
1004.375000,-6.112516,-4.276503,-11.140669,-4.665364
1004.378906,-3.532824,-6.739969,-9.058741,-7.694405
1004.382812,-12.445145,-16.407447,-14.633389,-11.859023
1004.386719,-10.213581,-5.545517,-8.017161,-6.627099
1004.390625,-11.362935,-15.071351,-6.682890,-6.947247
1004.394531,-2.609147,2.133128,-3.066234,-4.012615
1004.398438,-1.850674,-4.047032,-3.650795,-2.562066
1004.402344,2.518280,-2.208981,0.301474,-2.061989
1004.406250,1.239830,-1.874201,7.007936,1.670884
1004.410156,4.502218,3.864405,9.023277,6.098592
1004.414062,5.424787,18.388020,7.591120,4.386906
1004.417969,13.226026,14.259125,8.966038,9.094943
1004.421875,8.590446,15.068463,2.824198,15.194229
1004.425781,7.960823,15.498664,14.504962,11.120635
1004.429688,13.832510,11.754423,10.449993,3.191511
1004.433594,13.009649,6.928145,8.724443,6.937831
1004.437500,4.517283,7.982886,9.909037,5.683162
1004.441406,10.373000,13.005338,3.060727,-0.266163
1004.445312,4.557190,-0.195944,2.126462,12.871576
1004.449219,5.022511,-3.280592,1.771630,-0.545210
1004.453125,-6.368777,-0.514559,-0.023443,-2.075984
1004.457031,-8.280250,-5.525692,-1.881611,0.601200
1004.460938,-7.633605,-7.734773,-9.244563,-6.942338
1004.464844,-7.890631,-6.628846,-9.367167,-1.501638
1004.468750,-6.753492,-15.231013,-17.185586,-3.624871
1004.472656,-13.380010,-9.685254,-14.694904,-7.571783
1004.476562,-8.685041,-14.847581,-11.515309,-11.996494
1004.480469,-10.257032,-17.785982,-8.188356,-10.387465
1004.484375,-9.767358,-3.469658,-8.147348,-11.801080
1004.488281,-10.203717,-4.705933,-7.279738,-2.931888
1004.492188,-5.480848,-5.481121,-8.970773,-1.623987
1004.496094,-7.053209,0.429199,3.630199,-6.085176
1004.500000,0.330229,5.525367,2.351671,1.598427
1004.503906,8.197540,6.693347,-0.542994,-1.314052
1004.507812,13.658840,5.156513,3.724320,1.701396
1004.511719,1.588681,6.764007,8.621086,12.211702
1004.515625,16.101964,5.194636,9.116882,-0.961885
1004.519531,11.839594,5.214752,13.204130,17.694233
1004.523438,10.652679,3.628825,8.565928,6.211833
1004.527344,14.563593,16.045920,6.822667,1.974086
1004.531250,16.223111,6.417188,1.983007,5.569745
1004.535156,3.389615,6.810741,7.988378,7.998059
1004.539062,14.088297,7.808681,5.747322,9.499078
1004.542969,-1.713362,-0.255654,2.791610,7.036824
1004.546875,3.967903,0.726278,-6.501034,0.173511
1004.550781,1.507686,-8.912056,-2.182091,-3.057102
1004.554688,-3.117669,-3.249386,-4.628545,-3.953630
1004.558594,-4.093994,-6.840693,-6.450775,2.558666
1004.562500,-6.100204,-9.104054,-14.476660,-3.134679
1004.566406,-5.589864,-8.313063,-10.867861,-13.816395
1004.570312,-6.443448,-10.711757,-10.553769,-6.686429
1004.574219,-14.714289,-11.207155,-14.757803,-9.485894
1004.578125,-6.577551,0.166885,-17.458103,-9.751764
1004.582031,-8.470794,-10.498695,-6.168869,-7.180898
1004.585938,-7.452494,-0.123141,-0.871575,-10.405198
1004.589844,-10.236279,-10.868292,-4.211108,-3.510096
1004.593750,-3.408814,-2.381435,-2.195984,3.447484
1004.597656,3.907776,0.783398,-5.403386,4.654639
1004.601562,6.204059,3.702321,-3.058664,0.295648
1004.605469,4.831151,6.957415,-0.623556,-2.209244
1004.609375,6.646382,7.864215,5.744254,9.355853
1004.613281,12.065030,2.804268,5.937890,8.232156
1004.617188,3.314922,9.068625,7.183376,9.346836
1004.621094,7.469730,7.565205,14.360785,6.976769
1004.625000,9.408123,7.611604,10.480502,19.213349
1004.628906,7.804339,4.965576,14.327270,9.967282
1004.632812,5.434407,3.139987,12.905495,5.672401
1004.636719,4.186456,11.855956,5.264420,7.979189
1004.640625,5.828983,6.724171,2.023158,-2.039823
1004.644531,-3.261366,7.522296,0.279923,5.811582
1004.648438,3.033302,1.139904,-2.146272,1.439847
1004.652344,-1.968233,-1.294961,-0.119090,-2.694266
1004.656250,-1.482839,-2.908511,-9.245587,-6.965611
1004.660156,-3.186460,-2.339917,-3.080455,-6.045356
1004.664062,-6.699611,-6.780902,-10.354057,-10.492403
1004.667969,-8.608281,-13.707875,-18.377280,-14.202669
1004.671875,-7.330071,-7.329095,-7.759855,-5.768442
1004.675781,-11.855131,-7.874256,-16.628759,-17.260459
1004.679688,-3.880725,-9.442211,-14.821689,-21.661393
1004.683594,-7.332410,-5.245938,-14.644726,-10.030398
1004.687500,-2.548313,-3.504736,-10.490429,-1.505763
1004.691406,-3.496561,-5.342676,-4.674687,-2.858948
1004.695312,2.870512,-2.816768,-7.892019,-3.416345
1004.699219,-8.610950,1.872489,4.389302,0.568598
1004.703125,-2.135785,0.305443,3.926673,5.359415
1004.707031,9.111576,1.919449,4.103672,-2.707269
1004.710938,4.477282,9.505332,10.166902,11.794654
1004.714844,3.567340,13.018718,11.760979,10.445703
1004.718750,3.307579,7.627472,4.571821,9.782574
1004.722656,12.102800,10.284528,10.006614,10.757181
1004.726562,11.619189,17.677889,19.123188,12.340142
1004.730469,1.281223,7.030251,13.781625,9.539938
1004.734375,9.716814,11.845342,10.021837,2.166033
1004.738281,6.567888,3.428760,4.148347,9.939311
1004.742188,6.815351,0.199606,6.525635,5.768129
1004.746094,3.058439,2.601569,1.720202,7.534502
1004.750000,0.326910,-2.832368,-4.389806,0.242947
1004.753906,-2.684166,-6.667169,2.625746,-11.070205
1004.757812,0.215904,-5.267657,-7.763725,-8.332170
1004.761719,-5.144238,-9.953488,-9.398282,-5.662002
1004.765625,-2.638489,-10.512084,-4.355042,-12.650324
1004.769531,-7.079595,-9.617907,-3.930097,-7.345294
1004.773438,-7.809690,-12.460947,-6.340192,-15.883054
1004.777344,-11.127250,-11.200924,-10.150240,-3.742050
1004.781250,-14.141314,-13.522439,-9.722509,-7.691354
1004.785156,-2.253496,-5.743576,-7.629716,-10.170952
1004.789062,-7.625802,-10.547958,-10.422759,-9.826583
1004.792969,-4.486007,-5.632890,-2.506039,-4.745769
1004.796875,-6.642675,0.148425,7.169041,-5.497675
1004.800781,-4.317129,-3.019646,3.203612,-4.371911
1004.804688,1.052339,2.135476,-3.009270,4.847539
1004.808594,4.366676,-1.312585,1.266449,4.194279
1004.812500,5.423447,7.609738,16.110365,6.125402
1004.816406,11.499794,5.591147,12.493121,4.107003
1004.820312,10.048471,9.057155,1.798647,7.610732
1004.824219,8.134931,9.113336,15.740720,-0.758641
1004.828125,17.915149,10.001730,7.514915,10.818012
1004.832031,6.407620,9.526332,6.218905,11.204825
1004.835938,10.143009,10.560233,8.276424,12.947999
1004.839844,9.471105,8.684519,12.544262,8.379935
1004.843750,3.489733,7.553840,8.796366,-1.399864
1004.847656,-4.342102,-2.730549,2.916070,2.286153
1004.851562,-1.895791,3.024685,-2.429245,-2.389815
1004.855469,-3.329949,-3.652549,-5.796782,-4.528330
1004.859375,1.125693,-7.174712,-9.687177,-7.035482
1004.863281,-2.076269,-1.784753,-6.585209,-7.280741
1004.867188,-14.476025,-10.573743,-9.592915,-6.953788
1004.871094,-10.083173,-6.578215,-11.698310,-10.159977
1004.875000,-9.162996,-9.028900,-10.686926,-9.808837
1004.878906,-10.376896,-11.366575,-12.451012,-11.802778
1004.882812,-8.762461,-8.010641,-2.608362,-12.666577
1004.886719,-9.191938,-13.678896,-5.920199,-0.259822
1004.890625,-5.449919,-2.837200,-6.628541,-2.515807
1004.894531,-7.380270,-4.611895,-7.289366,-3.729591
1004.898438,-4.836613,0.737983,-2.671000,1.430261
1004.902344,-2.671652,-6.855763,4.926012,-2.058639
1004.906250,3.049948,5.586164,10.403907,3.127299
1004.910156,3.763683,1.426352,9.904907,1.210508
1004.914062,9.215589,11.604067,6.543280,6.376208
1004.917969,8.040102,5.945746,13.299787,11.510821
1004.921875,8.596039,5.240959,8.380958,13.211777
1004.925781,16.909393,9.833710,9.142471,7.521647
1004.929688,8.494130,21.573321,8.083777,1.870992
1004.933594,4.633963,12.825177,4.616066,6.903168
1004.937500,1.216488,6.807241,7.927183,5.599296
1004.941406,6.520619,6.752222,4.222840,4.654566
1004.945312,6.786367,2.714254,-4.770134,-0.424749
1004.949219,-1.305338,0.333895,-1.182782,-0.805361
1004.953125,-6.948202,0.157161,-3.281664,1.326575
1004.957031,-7.661331,-5.556659,-8.119795,-15.067773
1004.960938,-9.107130,-8.697710,-5.705833,-11.717909
1004.964844,-9.752306,-9.013778,-6.471937,-14.849636
1004.968750,-3.089756,-11.166292,-1.572855,-3.724828
1004.972656,-1.406812,-11.481331,-9.786107,-10.195496
1004.976562,-14.366387,-5.950971,-3.557339,-15.585231
1004.980469,-8.465600,-13.352142,-8.613067,-11.634606
1004.984375,-5.858845,-9.382347,-9.094276,-9.102241
1004.988281,-1.810333,-9.478823,-11.808986,-4.092937
1004.992188,-5.263361,-6.015461,0.266150,1.593847
1004.996094,-1.564331,3.433798,-0.762973,-5.225855
1005.000000,-5.720487,-0.024188,-3.424538,-2.045209
1005.003906,-0.542154,8.830190,-6.049436,2.867130
1005.007812,6.900340,2.121156,1.896285,8.922904
1005.011719,9.305745,3.763424,6.337919,3.155622
1005.015625,7.309294,9.300799,5.169695,6.680725
1005.019531,9.164569,10.290600,12.485303,9.298192
1005.023438,10.421932,9.963887,12.130212,13.529977
1005.027344,9.859657,9.079243,7.767754,8.558372
1005.031250,4.689500,15.090389,2.636589,2.949347
1005.035156,11.986305,4.205132,0.746433,9.184270
1005.039062,12.276295,5.227181,2.129710,7.255842
1005.042969,0.442089,8.845005,1.849071,4.192685
1005.046875,6.594568,1.308415,-6.928859,3.713714
1005.050781,-4.563471,11.312457,0.946994,0.889579
1005.054688,-3.255819,-1.727935,-12.624353,-6.035148
1005.058594,-11.048806,-3.062912,-4.745969,-1.797854
1005.062500,-4.245459,-9.521079,-4.123781,0.793076
1005.066406,-15.127133,-11.357920,-13.945050,-2.156275
1005.070312,-13.179033,-10.076474,-9.254188,-10.478009
1005.074219,-7.480945,-13.518194,-3.606991,-4.484847
1005.078125,-11.511346,-9.810755,-13.569363,-9.458395
1005.082031,-13.450009,-10.066351,-11.839787,-3.805495
1005.085938,-13.351844,-8.083707,-11.867700,-2.364671
1005.089844,-8.356942,-7.483347,-9.997223,-6.362017
1005.093750,-4.902210,-5.228989,-7.119085,-9.065294
1005.097656,-5.616979,-8.026669,5.829871,-5.758289
1005.101562,4.183717,-3.368957,-0.591886,4.571520
1005.105469,3.218371,3.737127,-0.559093,3.720545
1005.109375,-1.209573,4.854679,2.368185,-4.331589
1005.113281,11.657367,6.850693,10.824492,11.568716
1005.117188,12.328796,9.446025,14.869594,9.361083
1005.121094,15.207336,8.032547,14.855936,5.089507
1005.125000,6.787011,8.628929,13.099342,7.073373
1005.128906,17.558246,10.649333,8.523307,15.366407
1005.132812,7.193940,6.893998,9.970041,1.281763
1005.136719,10.153110,9.827123,9.377410,2.207432
1005.140625,4.335203,-2.215504,9.294554,2.667982
1005.144531,2.212608,4.419105,-1.232776,3.234709
1005.148438,-0.186250,-0.844132,-2.307178,2.852191
1005.152344,-2.680845,2.054960,1.628609,-4.125146
1005.156250,3.782098,-8.547391,-3.039801,-7.070240
1005.160156,-17.360421,-11.340816,-8.208957,-9.385429
1005.164062,-12.560878,-6.077061,-3.812623,2.915460
1005.167969,-6.814833,-10.087530,-4.562343,-15.065745
1005.171875,-7.469346,-7.647970,-4.778254,-9.116972
1005.175781,-7.364317,-10.676972,-9.298870,-11.727210
1005.179688,-8.391108,-6.622067,-2.309741,-11.064385
1005.183594,0.051446,-17.645322,-7.627906,-12.767550
1005.187500,-8.731417,-11.032161,-5.188840,-12.251431
1005.191406,-4.014232,-8.300107,-13.177812,-7.032222
1005.195312,-6.912346,-7.523472,2.365082,2.940901
1005.199219,-0.122239,3.541788,1.885891,-4.180470
1005.203125,1.626719,2.619627,2.738385,-0.014390
1005.207031,9.086645,5.268763,8.924952,6.825475
1005.210938,4.893896,7.141336,5.748849,7.784880
1005.214844,11.224233,5.758342,7.414654,10.437012
1005.218750,10.460058,11.748557,11.801501,9.026909
1005.222656,11.579863,15.817879,7.570293,10.695236
1005.226562,10.501715,8.335371,18.049882,6.095950
1005.230469,8.054125,11.966229,4.845494,12.559897
1005.234375,4.883486,0.813231,8.603505,8.164746
1005.238281,6.151407,3.612566,5.354702,11.070633
1005.242188,8.676951,-3.299553,11.803465,2.011870
1005.246094,1.200684,5.975255,-0.013754,7.588222
1005.250000,0.603058,4.920352,0.267995,-4.846720
1005.253906,-3.966937,-6.134081,1.550314,-4.356230
1005.257812,-6.488062,-1.337338,-3.112639,-9.856591
1005.261719,-7.477524,-6.808728,-6.371231,-9.492291
1005.265625,-13.219519,-3.567967,-11.786437,-6.061203
1005.269531,-4.427225,-13.382679,-11.461924,-10.928007
1005.273438,-7.131572,-6.050398,-13.325666,-11.807459
1005.277344,-11.484771,-10.021193,-10.126021,-12.199792
1005.281250,-19.238910,-12.626472,-6.649034,-11.198473
1005.285156,-6.437549,-6.468648,-13.232726,-11.015779
1005.289062,-7.104105,4.687536,0.309947,-12.519128
1005.292969,-6.839431,-0.685808,-5.528408,-7.803201
1005.296875,-1.250762,-4.501682,7.161588,-8.853052
1005.300781,3.293305,-0.251701,2.352673,-7.647685
1005.304688,8.498081,3.330472,-1.860799,9.559999
1005.308594,6.500353,2.266973,1.086191,3.382244
1005.312500,5.093166,6.397864,7.133342,12.981692
1005.316406,9.209752,2.198504,8.942662,5.429010
1005.320312,12.258539,0.810569,15.425625,7.739454
1005.324219,13.230256,12.199109,12.950681,10.949053
1005.328125,1.969109,8.015012,8.839508,12.701200
1005.332031,15.873812,5.521182,8.793671,11.101329
1005.335938,7.750574,11.080665,16.009980,6.918164
1005.339844,6.790876,8.556323,12.888258,3.689834
1005.343750,0.825378,4.545683,12.306926,-1.160505
1005.347656,5.414220,-5.892263,6.201636,3.089464
1005.351562,-3.740228,-2.154776,3.422590,5.775355
1005.355469,-6.004136,-10.032968,-1.343840,2.084368
1005.359375,-11.128639,-10.360937,-4.321884,-4.919892
1005.363281,-2.973429,-8.773897,-7.523555,-11.624198
1005.367188,-17.411449,-6.695053,-7.351128,-16.436386
1005.371094,-8.484716,-0.795956,-7.791059,-8.149266
1005.375000,-11.815956,-10.508755,-11.344380,-6.790314
1005.378906,-11.200355,-2.101945,-12.191561,-7.045566
1005.382812,-7.687862,-13.227091,-0.582207,-7.350455
1005.386719,-12.644408,-6.294119,-0.632176,-7.952973
1005.390625,-9.641508,4.626364,-8.235058,-1.412106
1005.394531,-6.728683,4.917643,3.640294,-7.564470
1005.398438,-3.443807,1.645874,-5.213888,-9.038006
1005.402344,0.904918,-1.536409,-2.395419,-6.236792
1005.406250,12.794237,5.388579,-1.691548,-0.005212
1005.410156,9.151521,1.602990,5.837439,2.044959
1005.414062,5.272135,6.949081,7.063723,8.816920
1005.417969,13.318415,4.879675,5.544770,3.671901
1005.421875,2.021424,3.935658,5.360630,1.214694
1005.425781,10.014965,14.520094,13.656947,6.364167
1005.429688,9.103777,13.909864,13.009078,14.964421
1005.433594,8.328837,-0.457981,17.874720,1.285682
1005.437500,4.996152,11.078792,17.606653,7.643221
1005.441406,10.293196,4.212408,4.968360,11.668854
1005.445312,2.222759,5.163738,4.941323,7.729301
1005.449219,-2.520388,1.077185,-1.843028,2.633947
1005.453125,-2.324078,-4.823806,-3.447064,6.259781
1005.457031,4.095662,-13.614008,-3.120586,-5.112313
1005.460938,-3.153592,-3.353991,-6.698865,-9.171879
1005.464844,-6.476605,-6.853242,-5.627682,-8.901255
1005.468750,-13.435486,-12.433392,-8.104989,-9.497097
1005.472656,-9.411582,-9.481366,-10.138215,-9.258025
1005.476562,-9.976443,-8.604022,-13.046544,-14.051506
1005.480469,-11.136614,-12.718504,-11.269335,-13.126358
1005.484375,-8.076406,-15.790973,-16.510522,-15.696215
1005.488281,-2.693721,3.621690,-8.958648,-5.737698
1005.492188,-5.628290,-3.395353,-2.558942,-3.162398
1005.496094,-3.607148,-7.807161,0.554354,-3.976759
1005.500000,-4.023292,1.117992,0.063721,6.077351
1005.503906,3.730123,-3.834512,5.231871,-4.551558
1005.507812,10.668691,1.617950,6.334276,9.779358
1005.511719,12.757873,11.579256,4.907981,4.154214
1005.515625,7.014133,5.527227,5.641626,5.682165
1005.519531,7.792400,14.849968,8.707949,12.804446
1005.523438,12.936922,17.382107,11.274419,11.805806
1005.527344,16.041845,11.445629,12.971957,12.065780
1005.531250,10.973583,7.206875,10.723943,9.586738
1005.535156,3.586333,7.697424,10.810407,2.374385
1005.539062,9.866320,9.080274,11.144028,10.312659
1005.542969,1.046928,3.245780,6.111042,1.053250
1005.546875,2.031772,-1.562192,-1.590341,-0.270732
1005.550781,-2.570594,1.324002,-6.922096,-1.702699
1005.554688,-4.210524,-1.660248,-8.540597,-1.721173
1005.558594,-6.978513,-9.199689,-7.406915,-13.245853
1005.562500,-7.985092,-2.723286,-9.087165,-3.453196
1005.566406,-6.453486,-4.834664,-10.914128,-5.949586
1005.570312,-11.700711,-11.610452,-8.841972,-13.996862
1005.574219,-8.914730,-7.874926,-1.798197,-10.571495
1005.578125,-7.369986,-10.932615,-15.788393,-19.111825
1005.582031,-0.355427,-5.080042,-6.043588,-1.600747
1005.585938,-11.554283,-6.610552,-6.206640,-10.386248
1005.589844,-6.196356,1.913423,-6.008012,-5.479689
1005.593750,0.343513,-5.640096,-5.392685,-9.493842
1005.597656,-1.382072,1.483303,-0.606076,3.536133
1005.601562,-3.836256,-5.737929,5.525519,2.986989
1005.605469,8.276707,11.451796,-2.577830,4.365650
1005.609375,1.623959,3.532650,4.075864,6.851095
1005.613281,11.420667,5.409384,4.778751,10.142381
1005.617188,6.653689,6.593265,14.000613,10.699815
1005.621094,12.642443,2.542467,13.940295,5.027523
1005.625000,13.186911,2.337033,11.167684,12.292295
1005.628906,17.244059,8.661395,5.305225,9.056895
1005.632812,7.708282,9.462773,10.687038,15.465002
1005.636719,2.326777,9.684153,-1.256948,7.086055
1005.640625,5.456556,0.123433,15.380314,-2.171909
1005.644531,7.484878,-1.405108,9.220033,7.294871
1005.648438,5.444909,4.990000,2.408124,-0.948365
1005.652344,-2.911149,-3.452593,3.416522,-3.107235
1005.656250,-6.499921,-4.019929,0.857348,-4.475117
1005.660156,-9.657143,-8.626194,-8.158595,2.209998
1005.664062,-10.418905,-7.821418,-1.331468,-7.882522
1005.667969,-10.483436,-12.452018,-12.020828,-6.715259
1005.671875,-9.849986,-12.620764,-16.320550,-0.248436
1005.675781,-5.599329,-8.456234,-9.734990,-10.964333
1005.679688,-5.472941,-11.992439,-2.751958,-9.810490
1005.683594,-11.388523,-8.126206,-8.668633,-6.167617
1005.687500,-2.799269,-12.287330,-11.523029,-10.569475
1005.691406,-6.953343,-7.318547,-6.457287,-4.235548
1005.695312,-4.339151,-4.875230,1.137483,-4.209992
1005.699219,-8.429816,-7.199556,5.783114,1.897460
1005.703125,8.133160,-4.532835,-1.822929,1.617913
1005.707031,5.825326,5.042271,1.417260,6.205614
1005.710938,2.069538,7.585630,-3.440602,5.554596
1005.714844,12.040200,12.006494,6.911420,8.106374
1005.718750,10.543724,12.378284,11.038871,14.380226
1005.722656,11.874792,9.078220,6.427486,5.482674
1005.726562,11.918561,10.872245,7.629309,6.002631
1005.730469,4.066870,11.089544,4.312202,7.585527
1005.734375,6.358611,8.771730,8.991389,5.162325
1005.738281,2.210390,8.635463,9.201173,10.018333
1005.742188,-0.022380,1.953292,3.087930,6.870500
1005.746094,2.276385,6.900853,4.920559,2.106262
1005.750000,4.305919,0.366748,-0.645229,0.764002
1005.753906,8.283042,-9.963303,-4.307305,7.284814
1005.757812,-0.226827,4.767214,-7.178649,-3.424020
1005.761719,-10.982440,-4.100745,1.419620,-5.606370
1005.765625,-4.266916,-7.175159,-2.982730,-6.796113
1005.769531,-7.549202,-11.838840,-8.260553,-9.767062
1005.773438,-14.109583,-15.069155,-11.649142,-14.387252
1005.777344,-8.446831,-11.438880,-14.799205,-6.389752
1005.781250,-13.859419,-10.078058,-13.788253,-6.673046
1005.785156,-7.009184,-9.783222,-8.101067,-15.262592
1005.789062,-7.019846,-4.700574,-11.953648,-2.688905
1005.792969,-2.221362,-9.029400,-0.781736,-5.387837
1005.796875,-0.337831,-0.505527,0.019614,0.771369
1005.800781,-1.536476,3.354815,-1.546955,-3.347107
1005.804688,3.762062,1.837870,3.397347,7.583651
1005.808594,2.939999,5.587166,3.283624,1.924598
1005.812500,11.362180,4.923479,6.627978,13.873555
1005.816406,-2.280234,9.985926,4.081665,9.131973
1005.820312,12.303227,-1.485748,13.057542,4.765589
1005.824219,14.402907,6.487218,10.926865,8.100929
1005.828125,9.562487,15.013622,8.903212,4.193709
1005.832031,19.480253,8.662480,-1.519608,5.552900
1005.835938,4.915245,12.894009,17.928587,11.383655
1005.839844,6.204063,3.286573,9.638998,-1.500942
1005.843750,-0.329767,3.279118,6.009042,6.519119
1005.847656,-0.199104,5.533583,3.847583,-4.105941
1005.851562,2.382663,-0.793875,3.143222,-0.830087
1005.855469,4.272674,0.312532,0.428182,2.843019
1005.859375,2.371618,-4.377547,-3.179011,-8.466806
1005.863281,-10.257085,-5.270076,-11.109350,-7.246823
1005.867188,-9.923482,-10.390521,-8.381675,-10.640431
1005.871094,-20.258210,-9.247973,-11.446903,-9.189871
1005.875000,-8.307562,-10.074461,-8.489560,-11.686495
1005.878906,-11.007074,-14.855937,-0.344078,-4.316854
1005.882812,-2.942884,-7.086719,-15.498675,-8.531533
1005.886719,-6.758806,-9.651836,-8.626791,-10.116757
1005.890625,-0.651940,-9.851868,-12.197198,-4.586841
1005.894531,-4.426703,-1.094333,0.434549,-8.863730
1005.898438,-0.313175,-3.419649,0.406166,-0.790611
1005.902344,-1.631555,1.572988,3.028267,0.185191
1005.906250,-1.898941,6.435465,3.868152,3.731536
1005.910156,8.227639,1.289067,9.284682,6.111240
1005.914062,10.555297,13.945992,13.841127,-0.752662
1005.917969,10.077709,-1.077982,6.674326,25.293665
1005.921875,4.097442,14.353647,4.830969,11.713826
1005.925781,11.320295,11.583250,4.347905,2.537793
1005.929688,10.476354,8.568614,5.360626,5.125799
1005.933594,7.636801,4.573873,6.478559,6.609257
1005.937500,8.547363,8.251611,13.063778,10.132183
1005.941406,5.217622,7.371614,9.184063,8.402489
1005.945312,2.980839,3.960250,-1.422531,7.381989
1005.949219,5.115024,-0.875834,1.628947,3.081409
1005.953125,-11.029041,1.995843,-1.883579,-9.410214
1005.957031,-1.538825,-5.671213,4.326000,-17.004806
1005.960938,-3.741206,-10.599254,-5.473442,-10.270731
1005.964844,-6.252658,-15.091248,-9.538649,-12.994755
1005.968750,1.588951,-6.569900,-5.373745,-8.086625
1005.972656,-13.007270,-14.283964,-12.814525,-5.012372
1005.976562,-8.485249,-5.927409,-11.850794,-4.437255
1005.980469,-11.379200,-7.519315,-7.858660,-11.686838
1005.984375,-11.585981,-2.901833,-15.071831,-10.167298
1005.988281,-3.973367,-7.926116,-13.374994,-2.360162
1005.992188,-10.842967,-0.760772,-2.045607,-6.396750
1005.996094,-4.348848,-3.070103,-2.548672,-5.449610
1006.000000,1.120339,-1.474444,-1.622328,-4.618843
1006.003906,-1.983405,-5.555113,0.630207,1.813369
1006.007812,4.775028,9.809664,8.674425,4.000915
1006.011719,11.757702,7.665974,5.027180,5.640526
1006.015625,4.164278,3.421051,4.926266,8.517805
1006.019531,8.009217,7.740602,7.849207,17.088378
1006.023438,9.594130,9.051729,12.985953,9.618854
1006.027344,15.488954,6.169998,8.833996,9.413313
1006.031250,4.132679,9.869262,10.776200,9.995703
1006.035156,6.699878,8.512529,10.962961,5.482457
1006.039062,3.350295,8.238707,2.072200,5.654227
1006.042969,4.713016,-0.584069,2.445995,3.544306
1006.046875,3.465708,-0.405681,0.736012,1.928817
1006.050781,4.909193,3.707502,-5.052241,-2.493788
1006.054688,-1.960624,-5.897124,-10.809584,-4.741248
1006.058594,-2.472625,-9.563927,-6.907519,-1.171518
1006.062500,-0.369061,-12.926880,-9.776128,-4.847945
1006.066406,-5.660503,-9.999039,-8.610127,-3.180471
1006.070312,-4.008583,-10.540258,-9.091767,-4.738811
1006.074219,-5.677618,-5.388989,-12.901633,-2.107888
1006.078125,-13.938163,-10.954434,-11.116347,-14.347227
1006.082031,-8.336540,-12.317529,-6.175395,-3.445858
1006.085938,-3.949210,-1.467318,-0.239928,-8.803732
1006.089844,-0.094895,-2.650397,-2.499477,-9.474511
1006.093750,-11.308277,-4.013097,-6.558260,-3.869192
1006.097656,1.603335,3.045694,2.033371,0.144859
1006.101562,2.377802,-2.096113,4.539212,5.950743
1006.105469,1.239562,4.857659,0.988062,7.559890
1006.109375,4.707082,1.785048,4.414909,9.033006
1006.113281,13.039113,9.035202,10.168252,3.290731
1006.117188,13.431917,3.074893,13.174720,10.456698
1006.121094,12.675142,11.941201,12.473192,7.879095
1006.125000,14.506362,4.294047,12.923543,6.734386
1006.128906,15.110352,11.268495,17.979470,17.487787
1006.132812,2.082054,7.678404,9.034617,15.083712
1006.136719,3.794856,4.524556,9.547449,10.233989
1006.140625,7.526278,9.766299,3.386689,5.785648
1006.144531,-1.589436,3.738428,5.062517,2.051169
1006.148438,8.078477,-0.979972,-6.482559,-0.465272
1006.152344,-1.668579,-1.236961,-6.814031,-2.727202
1006.156250,-10.530708,-9.012504,-3.199366,11.119615
1006.160156,-9.418619,-0.672488,-2.591918,-10.414475
1006.164062,-9.568979,-9.570554,-5.681586,-6.851963
1006.167969,-8.666596,-6.198446,-11.626731,-11.234254
1006.171875,-8.586411,-11.149792,-14.692639,-13.710121
1006.175781,-15.566332,-15.209805,-11.448250,-0.153620
1006.179688,-8.447002,-5.105112,-8.235784,-6.648269
1006.183594,-9.635509,-4.016342,-14.134677,-10.834597
1006.187500,-12.572914,-13.263112,-3.360304,-8.126168
1006.191406,-10.064970,3.021419,2.188250,-10.325505
1006.195312,-1.647657,-3.113439,-6.254887,-2.670896
1006.199219,-3.516666,-6.776264,-1.290236,4.920523
1006.203125,-1.608830,6.234306,3.099397,4.635962
1006.207031,2.878124,3.415877,5.369333,1.317690
1006.210938,4.950223,8.620818,10.836487,5.814650
1006.214844,7.005484,7.924462,14.250699,5.124153
1006.218750,9.171420,10.532494,7.568174,7.755816
1006.222656,9.717658,7.329739,16.675320,8.784501
1006.226562,1.640952,14.931452,11.036408,9.224011
1006.230469,10.818954,15.455469,4.632724,11.162081
1006.234375,5.493849,10.008960,9.479282,6.425410
1006.238281,7.185625,7.511160,6.167279,11.154039
1006.242188,4.402960,2.996820,4.726712,0.670106
1006.246094,5.191521,9.480057,-2.196839,-1.588028
1006.250000,-1.162419,4.882848,11.761190,0.910064
1006.253906,1.304642,-0.300726,0.001904,-2.914555
1006.257812,0.393295,-2.801797,1.372483,-3.345611
1006.261719,-6.376335,-4.243850,-9.047354,-7.094063
1006.265625,-5.883033,-2.829267,-0.620106,-8.238528
1006.269531,-11.272177,-5.807110,-10.493657,-9.553145
1006.273438,-14.502972,-10.623753,-14.307736,-12.030515
1006.277344,-4.743149,-7.247633,-8.785193,-6.420092
1006.281250,-7.605879,-7.772596,-8.547527,-12.116040
1006.285156,-8.859118,-8.711813,-5.066998,-13.283648
1006.289062,-6.009558,2.033031,-6.128006,-8.005154
1006.292969,-3.711390,-4.444968,-8.421348,5.023816
1006.296875,0.262948,-4.739683,-1.329899,0.092800
1006.300781,-1.249184,-5.497758,1.532227,-1.400184
1006.304688,-1.278840,-8.599289,-1.663535,10.505339
1006.308594,4.593631,1.562599,10.634334,6.178360
1006.312500,8.026524,7.142390,13.736506,9.513148
1006.316406,15.552354,11.143335,6.132903,13.712577
1006.320312,18.048433,7.352315,6.964027,12.943808
1006.324219,9.331881,10.795925,7.140977,14.999487
1006.328125,19.639620,11.687417,5.235963,9.948843
1006.332031,9.390743,4.570086,12.371995,10.750535
1006.335938,6.545573,0.151433,6.699115,4.548304
1006.339844,0.800239,5.228196,3.812429,5.941706
1006.343750,3.450336,3.509366,4.626490,9.234526
1006.347656,3.435589,1.769554,2.487623,-2.243938
1006.351562,-5.022583,-7.863922,-4.230171,2.137500
1006.355469,-3.067128,-6.248950,-7.052922,0.498186
1006.359375,-7.058999,2.898769,-11.476186,-8.564189
1006.363281,-8.352438,1.179320,-3.609776,-12.601385
1006.367188,-10.536405,-4.669512,-7.538905,-5.417562
1006.371094,-17.683665,-11.758501,-17.628307,-8.726939
1006.375000,-15.480658,-6.796984,-8.064250,-5.177722
1006.378906,-15.510975,-12.739222,-11.638490,-4.862265
1006.382812,-12.961262,-5.051836,-7.036295,-1.117069
1006.386719,-4.942615,-11.529331,-14.141643,-6.394044
1006.390625,-11.416340,-8.732615,-8.110873,-2.434595
1006.394531,-7.198697,-5.455925,-7.692596,-8.640044
1006.398438,3.923493,1.021048,-7.346985,7.309045
1006.402344,2.997627,8.630754,5.373729,7.661095
1006.406250,11.477801,2.478834,2.802888,-0.627890
1006.410156,-1.404742,11.264251,0.784815,7.239436
1006.414062,10.328326,17.010507,5.696993,15.248197
1006.417969,10.025937,8.477251,11.697337,4.769239
1006.421875,3.367220,7.051291,9.879603,12.304274
1006.425781,8.522548,9.895946,14.282555,14.621254
1006.429688,16.867484,6.532762,6.134629,12.462902
1006.433594,6.803063,10.514919,15.974443,2.754957
1006.437500,14.299046,4.969393,6.149124,-3.783918
1006.441406,0.710475,10.423942,9.667387,2.610039
1006.445312,-3.135729,3.895799,8.168599,5.712959
1006.449219,-2.973540,-2.199884,-0.979480,-0.331977
1006.453125,-7.751523,-6.236433,-3.164216,-3.031541
1006.457031,0.477680,-3.557792,-4.240921,-2.230140
1006.460938,-8.001233,-0.896984,-4.188337,-8.878355
1006.464844,-8.953644,-8.155311,-9.848279,-9.708587
1006.468750,-9.802595,-12.773816,-6.138541,-13.210591
1006.472656,-5.564105,-8.278104,-6.712194,-9.809681
1006.476562,-6.290624,-10.313213,-4.691468,-3.418640
1006.480469,-9.258440,-6.237905,-12.282191,-9.823486
1006.484375,-12.154293,-9.267729,-5.968126,-4.772098
1006.488281,-9.934887,-12.795506,-7.288440,-11.170953
1006.492188,-0.175361,-3.491137,-3.466939,-3.799107
1006.496094,-5.064165,-6.039538,-1.289459,-6.316148
1006.500000,-3.201074,3.747366,0.448503,-8.506043
1006.503906,8.965211,2.769159,-3.709141,6.526039
1006.507812,6.448416,0.279525,6.049092,11.736046
1006.511719,3.382686,5.158313,0.517240,3.389153
1006.515625,12.524411,14.512847,6.044900,12.246603
1006.519531,4.695197,2.632370,12.628504,18.983888
1006.523438,3.384132,12.846707,11.025042,7.599252
1006.527344,8.583988,6.044700,4.194679,6.362176
1006.531250,4.926828,8.569318,6.712044,6.101191
1006.535156,8.820200,7.001770,13.953088,9.618538
1006.539062,5.286048,4.991994,3.404147,11.201900
1006.542969,10.937923,1.017258,5.306921,4.952215
1006.546875,3.674521,2.634071,3.936946,-9.163917
1006.550781,-4.111687,-0.972995,-0.608473,6.568464
1006.554688,1.760886,0.157097,-3.369307,-6.631394
1006.558594,-5.898204,-5.015903,-6.639295,-11.007483
1006.562500,-7.772358,-11.344076,-1.307117,2.868757
1006.566406,-9.498425,-0.057998,-10.455683,-12.111718
1006.570312,-7.423945,-16.350047,-10.189017,-8.918919
1006.574219,-7.195117,-8.318573,-11.298019,-6.634010
1006.578125,-9.630536,-10.179322,-16.256282,-18.326910
1006.582031,-1.439318,-5.766175,-3.363385,-7.612097
1006.585938,-3.023963,-5.333422,-0.691344,-9.674916
1006.589844,1.658308,1.277479,-4.276950,-4.738162
1006.593750,-6.149097,-9.524911,-3.295772,-4.201162
1006.597656,-5.993819,1.272922,-8.799593,-0.351315
1006.601562,2.593054,-3.324927,0.471593,4.354317
1006.605469,0.749192,3.892723,1.785303,5.041301
1006.609375,5.758019,11.134704,9.337848,4.570781
1006.613281,2.598878,4.342713,11.811010,8.905538
1006.617188,5.458394,1.926907,10.497764,6.905469
1006.621094,11.489502,9.350706,10.551677,8.323932
1006.625000,12.503765,13.961592,9.173560,7.506115
1006.628906,9.982543,9.555759,8.436473,12.495788
1006.632812,13.149899,8.309742,11.819025,9.495272
1006.636719,8.289475,13.005840,8.008769,6.284636
1006.640625,3.258324,11.222859,3.130863,6.935729
1006.644531,5.481687,12.880150,-1.273724,1.937446
1006.648438,0.926544,2.312534,-2.451605,2.416052
1006.652344,-1.598439,1.117370,-6.016890,-4.190118
1006.656250,-0.848423,-9.484427,-12.059084,-8.006937
1006.660156,-14.126672,-0.296482,-1.028063,-13.824899
1006.664062,-9.187259,-7.522325,-11.004464,-5.802143
1006.667969,-10.403431,-15.187998,-10.725834,-13.620325
1006.671875,-8.552720,-7.397849,-10.388429,-11.539855
1006.675781,-14.926522,-11.363334,-16.105197,-12.193668
1006.679688,-5.893643,-5.514976,-9.139534,-10.122600
1006.683594,-5.239935,-5.767491,0.629596,-1.910944
1006.687500,-6.711848,-10.714118,-7.421661,-5.171303
1006.691406,-8.138501,1.862499,-1.554906,-7.437029
1006.695312,-2.517570,3.528963,1.839031,-9.736582
1006.699219,-4.753083,9.663764,-0.678138,-5.203929
1006.703125,5.914518,7.033015,-3.675373,-6.931803
1006.707031,11.815032,11.450022,9.772997,1.743273
1006.710938,6.800950,11.607638,8.247083,3.930313
1006.714844,8.400364,12.142169,13.099306,1.896171
1006.718750,8.346534,8.444524,13.698116,7.893141
1006.722656,8.774371,9.261809,14.931025,6.151775
1006.726562,1.396262,13.915007,4.364191,1.383654
1006.730469,9.857403,6.702280,3.082525,5.552424
1006.734375,1.768982,6.816871,0.670901,4.986061
1006.738281,8.853569,-0.203238,15.558758,0.846867
1006.742188,6.491316,10.688581,-2.148739,8.961688
1006.746094,1.670607,7.341086,1.186729,0.457217
1006.750000,0.608638,4.033243,-1.436965,2.626044
1006.753906,-4.794125,-2.904178,-0.626092,-4.155710
1006.757812,-2.848054,-3.767487,-3.107285,1.626575
1006.761719,-7.089963,-2.421544,-2.825000,-9.652799
1006.765625,-10.846411,-3.288983,-7.200498,-7.263592
1006.769531,-9.705155,-5.991165,-15.210409,-6.630284
1006.773438,-5.738788,-8.233781,-13.371291,-6.686534
1006.777344,-0.001585,-9.889262,-10.212874,-7.602366
1006.781250,-16.175362,-7.713851,-11.366956,-6.468128
1006.785156,-4.323084,-6.591938,-5.181107,-10.632959
1006.789062,-1.455062,1.457154,-4.708632,-6.398709
1006.792969,-5.789498,-5.686305,-9.822593,-3.387460
1006.796875,-7.352822,6.323175,-1.770604,2.895849
1006.800781,0.316583,7.522455,-3.845899,1.902942
1006.804688,4.781721,3.414772,2.494941,-4.082409
1006.808594,3.299268,0.820956,-0.088965,4.060091
1006.812500,6.978862,5.031059,4.036419,4.569600
1006.816406,11.511881,13.481164,8.920257,7.060126
1006.820312,4.362838,6.096104,10.319477,6.446257
1006.824219,8.143746,11.042392,15.371433,10.039876
1006.828125,15.501420,9.659682,8.758805,8.365164
1006.832031,13.999720,8.018987,9.756912,9.537894
1006.835938,3.278843,5.628458,6.811266,8.531860
1006.839844,8.244219,16.364078,5.982389,10.868058
1006.843750,2.324700,12.540634,2.438598,7.671345
1006.847656,-2.142375,7.623900,2.493774,-0.929259
1006.851562,-8.700329,-3.393069,-6.851801,1.401758
1006.855469,-4.710886,-1.269260,0.132762,-4.781545
1006.859375,-0.483168,-11.652052,-4.818683,-2.311519
1006.863281,-8.080783,-5.534507,-4.596641,-4.583013
1006.867188,-12.358116,-15.296693,-8.180027,-5.830154
1006.871094,-7.202874,-10.115623,-14.387526,-7.636586
1006.875000,-14.400523,-9.755782,-8.192290,-10.498627
1006.878906,-9.870500,-9.989523,-6.954724,-8.223989
1006.882812,-10.683758,-6.806329,-16.031333,-9.499771
1006.886719,-9.124765,-9.519554,-9.949363,-9.063461
1006.890625,-1.011503,-4.315011,-6.333741,-6.306066
1006.894531,-3.576361,-6.466442,-3.212903,-0.341208
1006.898438,0.580896,-0.665242,-3.035622,-1.189901
1006.902344,11.753172,7.739892,2.438801,5.196463
1006.906250,-1.946051,2.238417,9.027488,4.902665
1006.910156,13.517007,12.883858,7.793142,4.001965
1006.914062,8.021370,21.998024,3.908315,13.210678
1006.917969,11.466479,8.659780,9.316577,4.370355
1006.921875,0.970149,11.125646,13.064005,5.983876
1006.925781,15.099909,13.320916,9.825560,6.121277
1006.929688,0.379292,4.868094,6.354570,11.999631
1006.933594,7.977199,6.047172,10.681007,11.706315
1006.937500,6.710747,5.963771,1.314079,3.555672
1006.941406,1.148317,3.412931,10.584545,0.891236
1006.945312,0.944167,4.961068,7.811746,3.247642
1006.949219,-0.295376,-2.754845,6.299768,-3.106236
1006.953125,0.748033,-3.523241,0.085782,-11.479625
1006.957031,-6.397231,-14.114696,-2.258511,-13.630519
1006.960938,4.029556,-11.586183,-1.112594,-4.914412
1006.964844,-9.719774,-11.540614,-7.425967,-2.464507
1006.968750,-2.789957,-14.833024,-13.996600,-1.139152
1006.972656,-7.294959,-5.516523,-3.599388,-3.474690
1006.976562,-7.394944,-7.194920,-8.809306,-12.450915
1006.980469,-4.967090,-7.436809,-10.753464,-13.498617
1006.984375,-12.045101,-7.970875,-14.081443,-8.849111
1006.988281,-14.318307,-9.647139,-3.369879,-8.944436
1006.992188,-4.587089,-2.414185,-1.226476,0.037664
1006.996094,0.368037,-6.670251,-3.096546,-3.991088
1007.000000,2.866602,7.361607,1.214850,2.071722
1007.003906,-0.723585,5.073585,2.087320,-1.360850
1007.007812,5.473357,9.336776,5.489767,4.251644
1007.011719,0.344697,6.136253,2.329156,3.592727
1007.015625,13.250814,10.049495,6.582217,10.098777
1007.019531,10.273703,12.236389,12.796047,8.910480
1007.023438,9.040203,12.423991,9.259771,12.456852
1007.027344,9.855071,4.643157,10.957782,12.267390
1007.031250,4.738493,4.910843,6.708361,12.353766
1007.035156,13.984988,11.920259,7.921732,8.101663
1007.039062,7.651925,4.938872,-2.682723,10.136069
1007.042969,3.934294,0.814103,6.663313,-0.587085
1007.046875,5.777859,-0.865302,1.959506,-3.682925
1007.050781,-5.870021,1.589702,-1.274868,-6.992045
1007.054688,-0.079251,1.539735,-11.716983,-7.100797
1007.058594,1.775712,-1.220234,-5.310667,-0.606298
1007.062500,-1.493692,-14.110810,-5.549385,-3.114051
1007.066406,-13.230031,-10.153573,-8.289893,-8.382860
1007.070312,-7.942930,-8.858563,-16.076476,-12.792770
1007.074219,-12.802085,-6.527040,-17.738213,-8.785454
1007.078125,-12.636557,-5.825312,-15.588942,-11.239284
1007.082031,-6.686059,-15.984672,-13.544087,-4.729191
1007.085938,-8.098420,-11.544539,-3.842037,-13.296727
1007.089844,-7.518966,-1.872796,-8.299333,-1.134028
1007.093750,-5.785375,-12.526373,-10.700206,0.201563
1007.097656,1.018394,1.855998,3.759814,0.741619
1007.101562,-3.184977,4.178686,2.330926,5.112643
1007.105469,5.671737,3.729861,3.519118,6.896592
1007.109375,13.044129,4.015913,9.663182,5.759733
1007.113281,-1.640820,1.407936,11.676662,11.045232
1007.117188,12.119227,7.505968,6.411287,11.570564
1007.121094,10.115293,15.318169,12.280367,9.325076
1007.125000,10.755090,8.222508,11.964432,13.340622
1007.128906,6.012727,15.745882,13.071807,8.187324
1007.132812,8.062811,5.739775,4.656190,4.154421
1007.136719,3.629884,4.255305,12.426435,8.611827
1007.140625,7.854007,5.602839,10.379900,3.634935
1007.144531,4.970916,8.150734,-4.254550,3.454423
1007.148438,-1.891741,0.022927,6.730502,5.399749
1007.152344,-1.161167,1.320394,4.620985,-3.581956
1007.156250,-5.497266,-9.895227,-9.159721,-9.007494
1007.160156,-9.351035,-2.826747,-8.853263,-7.896621
1007.164062,-10.589104,-5.878073,-10.009297,-4.780607
1007.167969,-9.592775,-11.046275,-8.066126,-10.261293
1007.171875,-11.599021,-10.918016,-6.386250,-9.945491
1007.175781,-12.044235,-6.709824,-8.795565,-10.277001
1007.179688,-11.557235,-10.477764,-7.078222,-13.286280
1007.183594,-11.600795,-7.487202,-11.124668,-5.787946
1007.187500,-8.229525,-4.764578,-2.407259,-8.008457
1007.191406,-5.856806,-5.925369,-5.986287,-10.064820
1007.195312,-6.936460,-2.252941,-0.661239,-0.910028
1007.199219,-2.335347,9.211367,-5.282357,0.233695
1007.203125,4.075210,8.126596,7.964470,2.005745
1007.207031,6.502467,9.264871,5.433768,1.344971
1007.210938,4.303735,-1.906296,8.375855,2.841492
1007.214844,7.205590,9.009581,13.065966,8.780832
1007.218750,13.171206,8.397248,11.596432,10.376270
1007.222656,3.591731,7.428247,12.929664,18.056992
1007.226562,4.102323,15.178028,8.725577,10.358375
1007.230469,12.991037,13.378012,4.102581,6.104893
1007.234375,0.729664,18.316110,9.246847,6.946039
1007.238281,2.165774,2.314042,-0.099081,9.026754
1007.242188,4.760634,5.202985,2.007637,7.204238
1007.246094,-1.901134,2.572598,-2.421817,3.970190
1007.250000,7.031512,-4.235619,-0.977206,2.546353
1007.253906,-0.300608,0.890891,-3.885044,0.465286
1007.257812,-11.476528,-14.486186,-4.716396,0.546951
1007.261719,-8.660617,-7.902840,-12.106017,-4.110554
1007.265625,-11.677301,-18.320625,-9.221027,-8.901677
1007.269531,-9.236219,-8.913700,-4.582706,-7.665661
1007.273438,-17.411567,-10.129297,-17.264901,-16.603494
1007.277344,-1.816042,-13.158015,-9.112285,-12.197236
1007.281250,-3.937192,-8.916112,-7.508604,-3.464323
1007.285156,-2.768420,-7.286608,-6.662090,-6.264561
1007.289062,0.518274,-8.428971,-2.369950,-12.415695
1007.292969,3.468336,-6.981867,-9.866751,-10.556155
1007.296875,-8.135579,4.798259,0.830141,-4.684774
1007.300781,-8.755179,-0.718478,2.344899,7.739655
1007.304688,6.643422,3.803911,-1.528245,4.537946
1007.308594,-0.760013,-4.063319,2.845769,11.890412
1007.312500,3.769363,9.277898,3.092030,6.089499
1007.316406,7.940635,0.072070,10.882061,6.605478
1007.320312,10.915050,5.339764,6.496370,5.725948
1007.324219,13.726146,8.702859,7.235669,2.152955
1007.328125,14.041482,3.533727,8.115030,9.646113
1007.332031,3.480434,3.527702,10.909075,16.009574
1007.335938,11.356580,7.643382,5.937762,12.617746
1007.339844,7.272391,6.100962,-1.471878,12.470990
1007.343750,7.046006,6.544012,9.153930,11.842601
1007.347656,-4.901212,-4.866484,4.599584,3.106455
1007.351562,-0.547181,2.005656,-0.297655,-0.259153
1007.355469,-9.368313,-8.771856,-10.612511,2.815560
1007.359375,-3.177489,-8.784776,-6.685570,-2.904672
1007.363281,-6.570888,-4.399009,-2.461764,-7.938020
1007.367188,-9.645353,-8.687113,-6.224892,-13.055076
1007.371094,-8.954983,-16.023102,-9.427309,-6.115638
1007.375000,-10.872335,-9.141402,-11.026402,-7.475575
1007.378906,-7.250397,-13.950020,-8.630926,-11.138639
1007.382812,-10.472831,-13.827728,-13.846803,-1.941610
1007.386719,-9.019740,-9.707515,-11.283972,-8.387168
1007.390625,-3.927039,-9.197428,-8.510785,-10.472343
1007.394531,-5.906257,-10.063434,-5.881518,1.526253
1007.398438,-2.181588,3.324801,0.437078,-4.298647
1007.402344,0.977114,-2.901538,0.678608,-0.096603
1007.406250,2.107367,3.664515,7.085523,1.154189
1007.410156,9.491973,6.459162,6.311378,5.040068
1007.414062,6.415404,7.275506,12.026988,10.358236
1007.417969,10.538993,5.554705,12.052322,11.330927
1007.421875,11.409625,9.057634,11.502441,2.756933
1007.425781,7.552284,15.642283,7.014834,14.610800
1007.429688,4.748385,16.522282,11.631906,7.246320
1007.433594,8.211930,7.249883,11.847074,7.043012
1007.437500,8.652511,9.064065,6.447410,-1.493777
1007.441406,-0.515440,4.633821,-0.012831,5.867066
1007.445312,6.658480,-4.249546,9.414381,5.598216
1007.449219,0.470539,-8.187002,-7.335231,-0.182100
1007.453125,-2.121016,-5.087868,1.055927,-1.621632
1007.457031,-4.694363,-3.153925,-10.123428,-3.410753
1007.460938,-5.743382,-6.510812,-16.081819,-8.638453
1007.464844,-11.508365,-0.738451,-8.287938,-7.407344
1007.468750,-16.407688,-6.272670,-3.891735,-14.902099
1007.472656,-10.306981,-8.966594,-7.853421,-0.339194
1007.476562,-4.682050,-11.680559,-8.440652,-8.030453
1007.480469,-6.387895,-3.637097,-8.041128,-14.028301
1007.484375,-11.870626,-15.145584,-17.272429,-5.481794
1007.488281,-15.044831,-3.819847,1.075019,-8.467971
1007.492188,-9.700141,-4.072305,-0.222126,-4.226787
1007.496094,-2.430727,-7.139985,-0.406258,-8.930447
1007.500000,-4.908730,-2.669689,1.264273,0.189870
1007.503906,6.163193,-2.413757,-1.996285,-3.219465
1007.507812,15.511935,4.233832,4.047022,7.070321
1007.511719,1.756235,0.972805,9.017323,6.388169
1007.515625,6.761722,9.253150,11.838488,9.747531
1007.519531,11.049502,15.028963,5.783335,11.149480
1007.523438,12.474588,2.720275,14.511581,4.228632
1007.527344,6.249633,7.918173,8.638772,11.764287
1007.531250,3.689052,9.197696,8.316064,8.922679
1007.535156,12.691885,7.551738,10.555294,13.919502
1007.539062,12.308144,-1.793196,11.176071,0.309039
1007.542969,3.601710,9.782628,9.234582,7.045856
1007.546875,5.404473,-2.897702,2.605124,1.179188
1007.550781,-1.052146,0.661316,-0.600174,-3.089036
1007.554688,0.982736,3.269247,0.488212,-0.921580
1007.558594,1.948153,-2.045769,-10.687620,-3.714183
1007.562500,-3.349550,-5.865820,-9.428916,-7.609008
1007.566406,-3.254077,-10.917109,-6.264317,-7.149342
1007.570312,-13.691920,-5.932634,-10.300196,-12.005612
1007.574219,-5.923323,-9.787025,-17.869811,-13.046716
1007.578125,-7.338679,-1.946309,-8.597185,-13.296124
1007.582031,-8.812618,-11.942037,-7.921087,-12.371840
1007.585938,-11.972466,-7.923942,-5.940472,-9.152005
1007.589844,-1.900161,1.510324,-6.284745,1.294512
1007.593750,-0.770364,-4.965025,-8.213921,-8.473944
1007.597656,4.625770,2.424832,8.398760,-0.385151
1007.601562,-4.099322,1.760614,1.281428,2.151629
1007.605469,3.369744,-1.489878,15.505844,4.681485
1007.609375,4.356316,9.210370,13.263961,2.726170
1007.613281,2.140312,8.358135,13.155849,0.294441
1007.617188,13.023563,13.912202,5.860366,13.553730
1007.621094,3.591719,10.684179,20.770855,3.710332
1007.625000,9.420781,11.292920,4.385821,10.303047
1007.628906,3.815277,10.645232,12.253750,10.309238
1007.632812,3.403923,1.170571,-1.104909,3.314646
1007.636719,9.149445,7.962097,4.619629,17.522024
1007.640625,5.885129,4.050616,7.868979,6.821187
1007.644531,2.528621,2.492867,6.365311,0.441766
1007.648438,-2.465183,2.288629,-0.530423,-1.367959
1007.652344,-0.546824,-3.252739,-5.497631,-0.259876
1007.656250,-3.667165,-4.586645,-5.525865,-4.717179
1007.660156,-0.589306,-5.609046,-2.200201,-2.499119
1007.664062,-9.194196,-6.512286,-13.610189,1.036339
1007.667969,-2.248506,-1.494631,-7.778256,-4.248625
1007.671875,-13.057945,-13.117646,-15.795120,-12.575310
1007.675781,-9.120696,-4.549208,-8.961693,0.494249
1007.679688,-9.743957,-8.015380,-2.421966,-7.184508
1007.683594,-10.223509,-2.466786,-10.923919,-16.988702
1007.687500,-10.201570,-6.564888,-12.992627,-10.524908
1007.691406,-3.922787,-6.919375,-8.158147,-3.597397
1007.695312,-6.577641,3.900359,-2.885728,-2.655129
1007.699219,1.513105,-3.592067,5.584171,3.978081
1007.703125,-5.501958,-4.149403,-1.209091,-3.241011
1007.707031,1.437799,2.882022,-0.146891,5.793389
1007.710938,6.400303,7.822018,9.625397,5.247197
1007.714844,6.080226,8.536960,11.178364,2.607440
1007.718750,11.774966,20.894821,8.017753,7.931231
1007.722656,11.030197,13.932207,10.817450,8.038565
1007.726562,24.290662,4.096253,9.839407,5.345263
1007.730469,3.700439,1.762541,10.348892,9.819482
1007.734375,16.140819,11.443552,1.996360,6.816110
1007.738281,5.487632,6.842401,9.807196,2.376692
1007.742188,2.966106,8.268436,-0.861045,3.725600
1007.746094,8.488709,-2.259029,5.560869,-0.054435
1007.750000,0.770460,-0.495535,6.402114,9.465387
1007.753906,3.001157,-5.386180,-5.499406,-0.902039
1007.757812,-5.998418,-6.132548,-4.691787,-3.559838
1007.761719,-2.151202,-2.406704,-1.053423,-4.408525
1007.765625,-9.772036,-6.800612,-6.501196,-5.869698
1007.769531,-9.692762,-7.697527,-7.977424,-2.354694
1007.773438,-0.691168,-12.674768,-8.094317,-7.502849
1007.777344,-8.747462,-7.359182,-13.883122,-14.019853
1007.781250,-7.355610,-9.978100,-9.397591,-9.893180
1007.785156,-9.324989,-9.954557,-10.373123,-5.850893
1007.789062,-8.743738,-16.968373,-4.788846,-8.097887
1007.792969,0.490361,-7.871179,-2.636648,-3.839847
1007.796875,-2.286189,0.487691,-5.380640,-3.508902
1007.800781,-2.470263,-1.099335,-2.258300,1.127076
1007.804688,7.382363,-5.403977,-3.881967,0.532077
1007.808594,13.626175,1.905828,1.870814,4.267303
1007.812500,8.549778,6.018339,12.230030,2.166945
1007.816406,5.473404,1.447323,5.732113,10.415685
1007.820312,11.435815,5.258734,8.768699,12.957038
1007.824219,11.095397,15.152960,7.324638,8.379159
1007.828125,12.145404,8.356652,13.827549,4.703875
1007.832031,7.658594,3.549826,6.326684,11.542711
1007.835938,15.565156,6.574924,1.148626,2.504233
1007.839844,5.565994,3.493622,5.836238,0.185023
1007.843750,3.666778,-0.861514,0.228424,1.984120
1007.847656,-4.750693,-2.054862,0.735350,0.003359
1007.851562,-2.622887,0.419954,-4.310230,1.097461
1007.855469,-6.436395,8.584056,2.673408,-5.595230
1007.859375,-6.557566,-6.324467,-1.912505,-7.676419
1007.863281,-7.081495,-1.021565,-6.184682,-4.092107
1007.867188,-7.667849,-2.950735,-16.991137,-14.581980
1007.871094,-8.381798,-8.072049,-13.707718,-11.989494
1007.875000,-9.984479,-12.711172,-14.790250,-8.024988
1007.878906,-13.594450,-16.271237,-5.780679,-15.993156
1007.882812,-2.556298,-7.882396,-5.264093,-15.309731
1007.886719,-10.783177,-11.018950,-9.565595,-5.610040
1007.890625,-0.656281,-9.047017,-8.683013,3.304451
1007.894531,0.549687,-7.723872,-2.070827,-0.750892
1007.898438,-0.256134,-0.065113,-1.192360,-5.319954
1007.902344,-0.277277,1.781867,2.236990,0.828595
1007.906250,11.534791,5.371855,0.047680,3.402183
1007.910156,4.495175,7.266668,4.532883,8.297315
1007.914062,5.006800,3.014310,8.886808,4.782580
1007.917969,6.410082,8.669750,9.162305,2.927812
1007.921875,11.195724,13.621996,17.184383,10.064739
1007.925781,12.779051,8.211358,4.536553,10.361910
1007.929688,12.935545,4.134254,7.701120,14.062895
1007.933594,0.022524,0.989749,8.661555,12.441057
1007.937500,5.852332,7.534167,8.233842,4.861461
1007.941406,-1.340325,6.237667,5.273233,1.910233
1007.945312,9.153040,9.880777,9.245925,3.380256
1007.949219,3.206135,0.829472,-8.954712,3.248174
1007.953125,-0.458019,-1.429581,-1.312821,-9.064149
1007.957031,-7.664323,-0.312000,-5.642481,-0.040416
1007.960938,-6.371856,-10.035428,-10.432759,-7.119330
1007.964844,-11.257107,-1.247934,-9.364297,-4.851297
1007.968750,-11.804986,-17.022680,-5.049823,-15.975742
1007.972656,-5.211317,-9.398526,-5.658709,-12.817379
1007.976562,-8.089093,-9.543215,-9.476453,-8.568645
1007.980469,-13.011758,-2.601508,-7.649185,-9.305357
1007.984375,-9.341581,-9.879537,-12.774132,-6.312567
1007.988281,-8.360853,-2.982215,-3.242946,1.250378
1007.992188,-8.408405,-4.724165,-1.200968,-5.296113
1007.996094,-1.142805,-1.635249,-1.016420,0.417207
1008.000000,-0.375751,3.872417,-4.944591,2.673203
1008.003906,7.716955,4.581088,-0.253534,0.294094
1008.007812,7.322078,5.757757,2.140200,4.975206
1008.011719,3.195465,6.315690,12.110779,9.044224
1008.015625,11.335662,12.754372,11.603792,14.297147
1008.019531,9.573921,7.496609,9.241688,7.730083
1008.023438,12.580452,2.329997,14.084941,2.195921
1008.027344,4.843502,8.180695,14.842279,17.716057
1008.031250,9.422463,10.850162,10.011929,6.883823
1008.035156,12.486670,6.830762,4.150828,10.612931
1008.039062,7.710642,0.986278,7.209921,6.825811
1008.042969,7.122148,7.469543,6.142304,5.199237
1008.046875,2.953697,3.239024,0.080868,-1.459118
1008.050781,-7.229155,-0.270622,-5.267277,0.854866
1008.054688,0.968892,-5.875062,-3.119253,-3.879226
1008.058594,-1.028053,-3.009720,-5.944680,-1.582856
1008.062500,-4.230477,-5.540844,-4.559155,-6.133270
1008.066406,-6.456622,-6.590284,-3.258553,-7.242711
1008.070312,-7.327623,-4.044053,-13.228141,-13.272118
1008.074219,-10.186426,-5.801604,-9.478327,-12.555258
1008.078125,-6.193007,-4.646929,-8.189726,-11.818871
1008.082031,-10.900778,-16.029447,-11.503364,-9.272773
1008.085938,-3.000501,-14.073464,-4.427144,-5.308903
1008.089844,-2.331171,-11.072934,2.482760,-2.519341
1008.093750,-1.604164,-9.565238,-2.852723,-4.461565
1008.097656,-6.659746,-4.550018,1.878609,-9.501362
1008.101562,0.369298,-3.370262,-4.018394,0.894322
1008.105469,-3.902601,-3.173454,4.938188,-1.662456
1008.109375,3.303833,9.303455,5.439172,7.508518
1008.113281,6.451161,11.830137,11.955137,10.114674
1008.117188,3.678594,2.311028,7.528287,12.046819
1008.121094,5.968867,18.150657,14.648194,12.085020
1008.125000,8.192697,11.438018,2.479872,13.533709
1008.128906,9.211949,12.734893,7.954434,9.869984
1008.132812,12.785618,11.955357,2.837995,18.981292
1008.136719,6.778637,6.121202,6.246876,-1.711483
1008.140625,5.115807,4.423028,3.453730,-2.991115
1008.144531,-2.487156,4.271591,5.891241,5.331365
1008.148438,3.929161,-2.525026,0.115389,-1.860158
1008.152344,4.241813,-0.960591,2.780980,-5.453850
1008.156250,0.483388,-10.275565,3.060276,-5.325646
1008.160156,-3.991977,-1.205621,-5.077426,-9.697334
1008.164062,-8.568623,-6.563124,-4.638979,-6.720576
1008.167969,-10.848439,-14.740132,-0.705468,-11.610269
1008.171875,-7.116073,-16.091108,-12.021805,-7.781889
1008.175781,-15.358963,-17.471527,-7.392526,-13.460777
1008.179688,-6.821763,-11.030023,-11.443140,-6.943791
1008.183594,-0.349251,-10.393090,-8.578970,-18.832616
1008.187500,-13.102011,-6.568589,-11.044645,-14.425808
1008.191406,-11.437245,-10.756355,-5.739971,0.643232
1008.195312,-2.389787,2.249894,-2.098785,-6.902100
1008.199219,4.106775,0.690914,-5.311812,3.175104
1008.203125,-0.828573,-1.452689,1.812740,0.087131
1008.207031,-4.062985,-2.753915,0.377056,4.145876
1008.210938,10.794677,9.178274,3.687050,5.454364
1008.214844,8.680793,9.018078,13.344553,5.821572
1008.218750,11.392844,12.133646,4.127942,10.689503
1008.222656,6.217731,7.536715,14.532972,14.064064
1008.226562,10.807354,6.868943,11.491977,16.642044
1008.230469,16.318159,9.118613,12.929593,14.455931
1008.234375,3.755018,13.411645,8.013845,12.978757
1008.238281,-0.395706,9.060758,6.421266,15.395009
1008.242188,-1.260295,6.950790,3.037006,5.154469
1008.246094,6.697152,9.508280,-1.145991,9.292523
1008.250000,-0.413266,0.175655,1.536333,7.842170
1008.253906,0.349111,4.308506,2.176574,1.238773
1008.257812,-2.290118,-2.665576,-7.064080,-7.990316
1008.261719,-8.120931,-8.890774,-6.053895,-2.835966
1008.265625,-3.833836,-7.316158,-11.658267,-10.342977
1008.269531,-14.855236,-3.200889,-11.484662,-14.193029
1008.273438,-14.746417,-5.765426,-5.447882,-10.217166
1008.277344,-11.601786,-6.117064,-9.839525,-9.097336
1008.281250,-5.032773,-3.655273,-5.806022,-7.518737
1008.285156,-17.325056,-6.773274,-18.028002,2.000753
1008.289062,1.865086,-11.251757,-3.594538,-2.039881
1008.292969,-5.736649,-12.447426,-7.341255,-7.811950
1008.296875,-8.152971,5.104443,-1.348436,0.974456
1008.300781,-2.214067,-2.791040,-5.715443,0.946330
1008.304688,4.433349,4.278055,-0.597604,0.998352
1008.308594,-0.327706,10.021797,-1.656417,9.848971
1008.312500,1.867529,14.106597,11.428176,12.262623
1008.316406,7.927083,13.914388,7.669598,8.354587
1008.320312,15.831221,8.023498,8.700311,12.360862
1008.324219,13.288284,8.505406,4.455833,9.693295
1008.328125,10.981947,7.126631,9.616999,10.809345
1008.332031,8.296356,10.497867,10.963121,10.342219
1008.335938,5.794266,10.005805,7.460084,10.523816
1008.339844,0.883448,10.534301,6.222645,5.517687
1008.343750,1.616465,2.926855,0.329301,2.919272
1008.347656,6.266608,4.551527,2.983484,2.082603
1008.351562,-3.694076,3.218055,-8.347407,1.698012
1008.355469,-3.643211,6.140690,0.537921,-1.822978
1008.359375,-0.250898,-8.591192,-2.340116,-5.972816
1008.363281,-6.611093,-13.025583,0.177967,-7.942273
1008.367188,-3.832739,-9.476887,-12.740864,-1.232351
1008.371094,-16.408854,-8.604256,-12.009124,-14.216809
1008.375000,-2.609914,-19.516116,-17.003418,-12.581525
1008.378906,-2.827549,-18.414522,-12.481173,-4.414604
1008.382812,-11.286870,-15.369216,-11.242443,-12.939733
1008.386719,-7.055471,-8.570965,-5.031225,-6.877790
1008.390625,-2.701615,-9.134925,-2.046559,-12.146303
1008.394531,0.402259,0.484854,1.871733,-0.972147
1008.398438,7.142126,-0.911179,-6.241773,4.770002
1008.402344,3.836231,9.926592,8.578385,0.267791
1008.406250,6.275824,6.697970,10.054582,9.391226
1008.410156,3.545027,7.664895,7.536866,9.642828
1008.414062,12.179805,5.796552,3.066106,11.117858
1008.417969,12.738546,13.119239,5.731239,6.172982
1008.421875,9.324963,8.566518,17.352113,12.441182
1008.425781,9.666822,11.540550,12.782511,8.071921
1008.429688,10.132571,7.368806,6.829850,13.956246
1008.433594,10.123931,9.114162,7.993673,18.162410
1008.437500,4.857011,6.439503,11.389223,2.651806
1008.441406,5.090855,5.817804,6.616668,3.885425
1008.445312,2.108409,3.627832,4.433188,2.367991
1008.449219,-3.260162,3.306773,0.126013,2.777446
1008.453125,-7.793897,3.421158,-3.986921,-0.240350
1008.457031,-14.544500,-3.067970,-6.093907,-0.332481
1008.460938,-7.831823,3.896641,-7.722154,-5.345476
1008.464844,-13.548839,-5.884363,-13.455844,-6.997043
1008.468750,-4.761658,-16.030295,-12.562835,-10.308478
1008.472656,-17.034475,-11.794927,-5.100810,-9.430634
1008.476562,-6.196728,-10.479743,-11.457582,-13.344039
1008.480469,-13.571201,-12.511360,-5.433020,-8.410112
1008.484375,-7.576066,-10.137564,-10.145352,-5.635816
1008.488281,-11.127531,-6.136712,-8.426349,-16.858772
1008.492188,-4.706612,-2.093896,-2.661120,-3.888409
1008.496094,-3.158335,0.753405,0.525421,-0.360034
1008.500000,2.716810,-2.795635,-2.737883,-3.755519
1008.503906,-0.967335,2.903916,-3.112401,-1.443170
1008.507812,10.356347,1.082711,-5.406489,-0.818934
1008.511719,8.934896,13.162749,5.093382,10.549316
1008.515625,3.798066,7.558230,10.232121,11.346462
1008.519531,11.791445,1.862130,7.545231,13.126388
1008.523438,12.379782,6.761888,6.887138,12.478883
1008.527344,17.331063,0.838477,7.056253,7.931905
1008.531250,7.843900,11.712885,11.350822,12.704380
1008.535156,4.383422,9.558494,9.382760,5.538129
1008.539062,1.090426,9.351216,1.212727,8.286006
1008.542969,5.455869,8.976154,6.709638,4.058896
1008.546875,-1.714889,4.641587,0.747122,2.563711
1008.550781,8.127513,4.794485,0.381441,1.760058
1008.554688,-4.293883,3.741717,-0.338998,-5.001512
1008.558594,2.863239,-5.723729,-6.271913,-7.271198
1008.562500,-7.194439,-2.502360,-3.241933,-6.647081
1008.566406,-0.624515,-8.157470,-6.086274,-10.730225
1008.570312,-6.238561,-6.458318,-12.574328,-7.835008
1008.574219,-10.297192,-15.624569,-16.192508,-12.608782
1008.578125,-13.815719,-5.096953,-8.676171,-15.600763
1008.582031,-9.150906,-10.483994,-6.728542,-6.360920
1008.585938,-5.544701,-9.112423,-13.917487,-10.318912
1008.589844,-5.249043,-5.992950,-10.950502,-8.284973
1008.593750,-6.338689,-2.494707,-1.940682,-1.205210
1008.597656,-7.446284,0.881094,-3.083122,1.914135
1008.601562,0.092719,-1.616409,6.513240,-0.462887
1008.605469,4.179982,5.684390,8.778623,3.080993
1008.609375,7.626414,-0.364150,10.763392,3.762952
1008.613281,11.333713,1.979972,7.069546,9.890216
1008.617188,6.907225,5.807331,1.041969,10.097085
1008.621094,9.985411,13.041162,4.665132,5.820410
1008.625000,4.105743,5.443842,6.621505,14.098902
1008.628906,5.547951,12.851122,10.722601,9.257482
1008.632812,5.745012,6.891803,9.186253,6.178847
1008.636719,-0.232329,1.942518,12.389944,11.074808
1008.640625,4.721158,8.621563,2.671134,0.583451
1008.644531,-2.161310,2.424821,1.196579,-5.162735
1008.648438,-1.238728,-1.964971,8.623128,6.334632
1008.652344,2.775990,2.741711,0.075808,-2.484621
1008.656250,1.940750,3.062252,-9.410829,-5.194196
1008.660156,-9.053909,-12.745383,-7.329720,-3.261315
1008.664062,-5.687481,-5.418235,-6.174882,-5.324283
1008.667969,-6.271695,1.403946,-14.054328,-11.840425
1008.671875,-5.881207,-12.390784,-9.286515,-16.571190
1008.675781,-7.793353,-5.037314,-9.209125,-9.606576
1008.679688,-11.427618,-6.914064,-4.708792,-10.996833
1008.683594,-11.004871,-7.049017,-9.369582,-7.264290
1008.687500,-4.736592,-7.793926,-2.213802,-8.063511
1008.691406,-5.793134,-5.932232,-2.367292,-6.934438
1008.695312,-3.601879,-2.981515,-3.774065,-3.623386
1008.699219,-4.184151,1.040091,7.659865,-0.264048
1008.703125,1.710755,0.611036,-0.562246,-7.006396
1008.707031,6.871484,-0.112973,-2.547814,9.059678
1008.710938,6.114164,5.541469,-1.117147,1.504377
1008.714844,9.054155,9.517061,12.729215,4.524781
1008.718750,11.678340,10.134448,0.440137,4.568286
1008.722656,10.324196,16.748818,13.985474,12.479532
1008.726562,9.610590,11.803033,10.989663,5.306104
1008.730469,6.680134,5.317114,10.978481,13.547805
1008.734375,15.701849,11.785829,7.896979,7.858741
1008.738281,7.382663,8.028143,6.597600,7.273085
1008.742188,9.143478,3.774481,6.238907,7.328754
1008.746094,0.030902,0.852254,-4.168295,-5.965499
1008.750000,4.836233,4.878337,1.078282,-1.184061
1008.753906,-2.913098,-0.213874,2.590768,-1.999285
1008.757812,-4.169700,-5.395215,-8.604781,-5.356415
1008.761719,-5.793084,-8.790169,-12.438411,-4.881399
1008.765625,-6.489397,-4.612281,-10.550010,-9.867954
1008.769531,-7.318877,-4.530765,-9.928161,-6.478059
1008.773438,-10.868725,-9.580100,-11.950707,-11.842249
1008.777344,-13.199648,-6.604716,-10.507748,-12.436487
1008.781250,-2.280669,-10.569114,-8.117722,-9.851917
1008.785156,-4.687437,-6.165024,-7.573204,-13.290520
1008.789062,-11.630668,-12.145759,-10.926463,-9.636375
1008.792969,-4.377788,-10.050842,2.553461,-1.874204
1008.796875,-1.754485,-3.436153,-5.123090,2.360358
1008.800781,4.725996,2.112481,-0.066648,1.053898
1008.804688,0.498967,2.427863,3.841777,3.272396
1008.808594,3.790994,5.664176,-1.862961,10.197929
1008.812500,9.187188,6.868886,1.683570,-3.777011
1008.816406,3.626545,6.722625,11.503205,14.553256
1008.820312,6.890768,8.943519,8.014538,9.489050
1008.824219,5.180129,3.057713,10.087508,13.457877
1008.828125,8.949619,10.712476,6.489884,9.149788
1008.832031,7.006850,10.285594,4.726150,10.580721
1008.835938,10.111097,8.761485,16.717652,7.261938
1008.839844,8.913961,2.164028,-2.348659,7.137696
1008.843750,1.993147,0.897744,1.143345,1.776903
1008.847656,1.895219,10.877270,6.830215,2.112702
1008.851562,-3.631772,-1.087048,-2.435759,-3.134681
1008.855469,-1.089185,-3.510658,5.217343,-6.685557
1008.859375,-10.443521,-0.640275,-5.805434,-11.196808
1008.863281,-4.852558,-1.416267,-7.212393,-2.166966
1008.867188,-5.326900,-13.559820,-15.161622,-14.148262
1008.871094,-7.593394,-2.848906,-10.015113,-11.212424
1008.875000,-7.770496,-4.626296,-6.541181,-10.637246
1008.878906,-14.434159,-8.414415,-2.856380,-11.831545
1008.882812,-10.035966,-5.027879,-12.885367,-15.321691
1008.886719,-6.445537,-3.433440,-8.032827,-6.437299
1008.890625,-9.471736,5.530124,-7.380363,-8.373736
1008.894531,-4.638275,-0.466657,-5.847805,-1.366106
1008.898438,1.604889,8.024017,0.273180,1.201246
1008.902344,10.185376,6.869011,0.369970,-5.972650
1008.906250,12.792215,2.738717,4.412722,10.904262
1008.910156,6.315502,8.026612,8.998413,7.089519
1008.914062,8.635064,13.836403,9.666821,13.298116
1008.917969,6.771750,8.710407,5.691590,8.509653
1008.921875,12.488672,8.029059,2.519502,12.533432
1008.925781,8.410042,4.563140,7.040980,11.086634
1008.929688,4.578375,2.949775,10.807341,6.020254
1008.933594,7.978459,6.960710,5.474364,17.159063
1008.937500,7.999294,8.879768,7.968038,14.411300
1008.941406,3.321070,1.946841,7.490227,-4.930981
1008.945312,6.895400,3.551428,5.290333,-5.550052
1008.949219,1.878121,2.427440,0.583376,1.318212
1008.953125,-0.125864,-6.388097,-3.934033,-3.067959
1008.957031,-2.440999,1.666191,-3.800585,-4.160169
1008.960938,-8.510484,-11.269082,-7.673949,-6.295427
1008.964844,-11.821606,-1.026450,-1.191030,-7.408865
1008.968750,-16.392084,-8.332330,-11.081164,-4.185113
1008.972656,-7.069773,-12.549491,-9.679725,-15.700956
1008.976562,-5.691180,-3.723111,-14.440027,-11.471533
1008.980469,-15.400550,-11.639524,-9.857279,-3.669837
1008.984375,-13.891542,-8.408353,-8.128279,-6.332815
1008.988281,4.090969,-5.987165,-0.949822,-2.811618
1008.992188,-8.925564,-4.387380,-2.877763,-10.344352
1008.996094,4.715553,2.569955,0.213274,6.880545
1009.000000,-3.319768,2.209139,3.806906,0.349822
1009.003906,-0.793842,5.064504,0.542914,0.501840
1009.007812,4.278280,10.048013,3.153460,7.815112
1009.011719,9.258798,2.950587,6.337651,6.659850
1009.015625,-5.070650,7.854085,6.790421,9.412730
1009.019531,13.313845,7.954991,9.916474,14.748060
1009.023438,8.636939,14.985931,2.690448,13.669113
1009.027344,4.945298,11.894689,15.379080,8.398384
1009.031250,17.118729,4.874774,16.262137,7.018719
1009.035156,7.468391,6.681167,3.958752,2.377698
1009.039062,5.023891,8.018431,7.940404,4.215734
1009.042969,5.862842,1.415047,5.375149,3.270640
1009.046875,7.184159,4.907024,4.018581,4.280168
1009.050781,2.386684,1.112043,-0.103821,0.911259
1009.054688,-2.537727,-6.111559,-8.152621,-0.664840
1009.058594,-7.214093,-7.974621,-2.181678,-4.865364
1009.062500,-7.935193,-7.302266,-11.881796,-11.245637
1009.066406,-9.796743,-7.025602,-1.502592,-8.196705
1009.070312,-5.180413,-9.069328,-12.740881,-10.750314
1009.074219,-9.243580,-14.502096,-9.018760,-15.533552
1009.078125,-6.119383,-19.121471,-9.839870,-12.812328
1009.082031,-13.455723,-10.178346,-1.824209,-11.086416
1009.085938,-6.670278,-9.178272,-10.846523,1.831310
1009.089844,-5.592565,-9.613072,-7.873771,-11.575116
1009.093750,-1.370752,-11.679545,-9.081587,-6.391672
1009.097656,3.434440,-0.463262,0.927293,-1.086345
1009.101562,8.403414,-0.282681,6.051284,0.720345
1009.105469,-6.001458,2.754591,2.503658,2.645839
1009.109375,1.949575,8.092075,9.774486,1.847458
1009.113281,11.016621,4.808316,5.829971,9.628979
1009.117188,7.650729,1.456101,11.921221,7.463105
1009.121094,8.812015,16.149052,6.894280,7.562186
1009.125000,18.318931,10.974053,10.525265,14.027838
1009.128906,1.195596,16.076993,9.630613,11.948996
1009.132812,20.205107,5.901161,5.686399,4.909565
1009.136719,11.542720,7.735814,7.169195,4.028557
1009.140625,8.274136,12.392415,-0.029549,2.209420
1009.144531,4.597451,8.429110,0.498870,4.022092
1009.148438,-7.839932,4.955436,-2.363150,6.054475
1009.152344,-6.867859,-2.264062,1.913391,-1.066495
1009.156250,-2.362833,-4.676404,-6.281994,-7.049267
1009.160156,-9.659594,-6.173744,-12.409653,-3.882247
1009.164062,-2.383984,-10.004224,-5.286214,-4.547119
1009.167969,-11.936503,-0.459542,-6.621636,-8.412665
1009.171875,-9.066704,-10.155498,-9.395437,-10.256073
1009.175781,-13.816986,-10.321195,-9.632874,-6.019026
1009.179688,-12.991813,-12.065676,-9.548144,-3.090338
1009.183594,-2.481817,-13.028810,-14.283712,-10.199255
1009.187500,-9.557884,-1.723063,-4.684373,-5.031403
