timestamp,TP9,AF7,AF8,TP10
1000.000000,1.060885,-2.975319,0.826036,-2.942935
1000.003906,8.562485,2.771149,6.556372,0.798025
1000.007812,7.323417,-2.110576,8.498526,6.660328
1000.011719,5.433924,2.122043,2.834859,10.765028
1000.015625,11.978240,10.624940,10.445373,10.559931
1000.019531,22.920584,11.569966,10.000384,9.178046
1000.023438,8.760111,15.833874,12.108300,7.488864
1000.027344,6.916471,17.494440,2.598815,11.068733
1000.031250,9.883405,8.606932,12.779544,11.141312
1000.035156,16.536040,1.200235,7.395683,-2.672818
1000.039062,8.482434,9.662770,0.301711,4.860473
1000.042969,8.010333,0.890162,6.966338,10.905822
1000.046875,5.460204,4.418140,1.348409,1.026820
1000.050781,4.596276,-3.987932,-1.510580,-2.595427
1000.054688,-1.042613,-2.490035,-0.406610,-5.331425
1000.058594,-6.833049,-2.777761,-5.781723,-7.542347
1000.062500,-3.372213,-12.490276,-4.375973,-10.405329
1000.066406,-13.949412,-13.487780,-13.167601,-4.583984
1000.070312,-5.894120,-5.846366,-9.408638,-7.927504
1000.074219,-4.191539,-7.343010,-7.592857,-5.911786
1000.078125,-16.357801,-8.944766,-14.797683,-11.392803
1000.082031,-3.429430,-10.120160,-14.469334,-4.311301
1000.085938,-6.357124,-6.584146,-15.640124,-10.274111
1000.089844,-0.453001,0.230311,-7.821516,-3.380920
1000.093750,-0.981139,-3.137621,-2.369927,-2.936684
1000.097656,0.196549,-3.425188,-7.369258,-6.569368
1000.101562,-1.587327,-0.563709,-0.894254,0.013916
1000.105469,2.657682,9.470012,2.759365,4.537547
1000.109375,4.301270,1.575357,4.305202,4.049083
1000.113281,3.288761,9.441045,4.877712,9.780054
1000.117188,8.233436,6.537308,5.879059,13.795174
1000.121094,9.139964,9.185878,5.595989,10.057108
1000.125000,14.746854,15.566518,11.150443,3.641400
1000.128906,13.502924,7.780950,10.658561,5.647964
1000.132812,5.499268,4.647985,2.205503,9.167049
1000.136719,8.526912,2.879966,7.646715,8.842846
1000.140625,4.945247,9.469518,-0.400814,5.229965
1000.144531,5.443506,5.247566,2.342061,9.546515
1000.148438,2.746282,2.496641,-1.133229,0.485479
1000.152344,2.186836,-2.510652,-11.201862,-6.104448
1000.156250,-5.445578,-3.363486,-6.895523,-5.121025
1000.160156,-5.154199,-4.668589,-2.672636,-2.523186
1000.164062,-10.424718,-10.172856,-6.319393,-6.730398
1000.167969,-10.941394,-13.213453,-9.250960,-7.001985
1000.171875,-13.081146,-8.534373,-9.991290,-7.522956
1000.175781,-5.665745,-3.099411,-15.309004,-8.496021
1000.179688,-11.342496,-13.422069,-12.947212,-13.784598
1000.183594,-14.042681,-7.733018,-4.548092,-4.274630
1000.187500,-1.517328,-6.683978,-5.963869,-8.418997
1000.191406,-4.032518,-4.179332,-0.441580,-3.267688
1000.195312,-6.530473,-3.621661,-4.720449,1.600902
1000.199219,-4.370037,-3.583572,-6.968926,-5.634503
1000.203125,1.519600,1.439122,-0.080016,1.752331
1000.207031,6.387581,9.458338,5.247635,5.644492
1000.210938,-4.425587,-4.720973,3.774120,7.759024
1000.214844,0.266165,11.446068,6.764594,13.429283
1000.218750,6.024308,9.844097,16.257741,15.165042
1000.222656,13.870002,9.015696,15.499880,7.430927
1000.226562,11.482859,12.035591,18.755076,10.539960
1000.230469,6.080432,3.953509,11.879831,16.310260
1000.234375,8.788478,7.523121,6.116917,9.275223
1000.238281,10.132617,2.673521,5.008343,10.317210
1000.242188,4.740666,2.847289,9.704407,-0.000659
1000.246094,-2.903000,7.910484,6.508969,4.389382
1000.250000,2.841261,-0.759416,4.119044,5.424545
1000.253906,-1.721161,-3.117290,-0.255587,2.548143
1000.257812,0.877905,-11.768068,-5.795739,1.967928
1000.261719,-2.727504,-6.867075,-1.312581,-3.589043
1000.265625,-9.012509,-13.346317,-2.912159,-8.502092
1000.269531,-8.819544,-11.828367,-10.166677,-12.312737
1000.273438,-5.142708,-13.360749,-10.451118,-12.332365
1000.277344,-13.231003,-10.506715,-12.910274,-8.570373
1000.281250,-11.944376,-12.518273,-4.645829,-12.764447
1000.285156,-3.146368,-9.106910,-6.892294,-6.116184
1000.289062,-7.974571,-8.809854,-7.400401,-10.650420
1000.292969,4.533785,-0.738920,-7.192328,-4.297306
1000.296875,-2.603040,-3.403614,3.032722,1.929116
1000.300781,5.792788,-4.499950,-0.701906,-3.778920
1000.304688,-6.787888,6.710617,3.683454,9.118049
1000.308594,7.237021,-0.024327,7.151634,14.538519
1000.312500,13.778475,5.435043,5.162846,1.778002
1000.316406,4.750559,2.357528,6.929630,7.850731
1000.320312,16.622076,15.291882,9.608154,4.572648
1000.324219,5.816589,4.863224,10.479494,11.155536
1000.328125,4.697908,-0.620577,10.399436,0.244470
1000.332031,6.719560,7.282374,12.799481,2.916519
1000.335938,3.132782,16.752018,2.545864,5.803170
1000.339844,7.990323,4.825182,8.989964,9.241611
1000.343750,6.961699,7.198309,8.154059,6.237179
1000.347656,2.971484,-1.815173,-1.668530,1.302410
1000.351562,-3.808523,-4.151525,-1.196587,-0.214972
1000.355469,0.456036,-0.396859,-7.357102,1.080973
1000.359375,-11.456520,-11.632207,0.013281,-4.299166
1000.363281,-12.057369,-7.354095,-12.040893,-6.566508
1000.367188,-10.093844,-13.983699,-8.279401,-1.845547
1000.371094,-5.894300,-5.437374,-4.677389,-9.412216
1000.375000,-11.404896,-3.065076,-15.660829,-9.471017
1000.378906,-11.917925,-8.392861,-15.130935,-12.704875
1000.382812,-3.281692,-7.700865,-10.152413,-8.219548
1000.386719,-6.349864,-11.373995,-6.590501,-8.901005
1000.390625,-5.491707,-4.198196,-3.788211,-3.878160
1000.394531,-2.551419,3.047952,-4.674067,4.059520
1000.398438,7.440072,0.788300,-2.098546,-5.792027
1000.402344,6.853279,-6.021358,2.538333,3.386135
1000.406250,4.697490,4.896944,0.615889,3.081838
1000.410156,9.310478,9.865394,7.450845,10.053497
1000.414062,11.121201,3.052282,8.734627,6.870745
1000.417969,5.722610,7.498521,8.599335,15.216069
1000.421875,3.611448,10.781426,12.987757,10.429007
1000.425781,7.656497,2.405604,16.706049,4.428604
1000.429688,12.216700,11.209210,8.514545,10.421783
1000.433594,9.030606,3.575491,15.974602,4.739721
1000.437500,4.823461,7.826006,16.141292,5.707482
1000.441406,5.562843,3.178272,3.264300,-0.948052
1000.445312,5.571528,7.404106,4.596718,3.371261
1000.449219,2.439724,1.776228,-2.151667,-2.294914
1000.453125,-4.701927,-0.687113,-4.485347,3.609133
1000.457031,-3.127658,-12.542997,-2.311327,-3.990524
1000.460938,5.691617,-10.315902,-6.536320,-12.526097
1000.464844,-10.541373,-3.367702,-4.816807,-4.990700
1000.468750,-3.155393,-11.398028,-5.026892,-12.089529
1000.472656,-7.792287,-5.630303,-6.028269,-13.714595
1000.476562,-14.061248,-13.632111,-10.500846,-6.024517
1000.480469,-7.108629,-5.943248,-14.193875,-15.630850
1000.484375,-5.855474,-7.125875,-4.631353,-11.581071
1000.488281,-10.351282,-9.335749,-1.794229,-8.196425
1000.492188,-2.771623,-5.989101,5.449295,-7.739961
1000.496094,-0.078202,-3.776759,-3.877878,4.043531
1000.500000,3.651815,-4.413465,-5.990073,5.744608
1000.503906,0.214238,3.434798,-2.969812,5.268137
1000.507812,-0.583914,0.524813,5.949714,8.698729
1000.511719,6.404731,7.312036,10.071474,5.138113
1000.515625,14.041972,9.485408,7.731236,10.094447
1000.519531,6.231461,9.177045,4.809862,19.217684
1000.523438,14.715037,7.706017,7.918060,7.580826
1000.527344,13.755037,13.654464,10.184397,13.657967
1000.531250,8.188914,19.210846,6.966928,7.699280
1000.535156,9.225904,2.259984,6.828286,4.024494
1000.539062,8.814479,12.813953,9.066015,12.223764
1000.542969,7.472377,7.397656,5.299967,5.614811
1000.546875,0.995141,8.206223,3.592865,-1.126545
1000.550781,0.263232,2.836436,-3.599065,0.074316
1000.554688,-1.185720,-6.052076,5.006382,-9.746266
1000.558594,1.188666,-8.698472,-5.288971,-6.261009
1000.562500,-7.874437,-4.040913,-11.888922,-8.034197
1000.566406,-10.971588,-15.338323,-2.112447,-9.067627
1000.570312,-11.191481,-4.565950,-8.523055,-12.384318
1000.574219,-8.883061,-13.516923,-10.852934,-16.476958
1000.578125,-8.688341,-3.071178,-7.179559,-9.405952
1000.582031,-11.469549,-6.142096,-8.180432,-10.064164
1000.585938,-5.651270,-8.893200,-5.669126,-12.541885
1000.589844,-6.247978,-8.094264,-11.373263,-9.043458
1000.593750,-6.892566,-4.087151,5.778787,-5.231794
1000.597656,-2.831447,-0.344499,2.466856,-4.507266
1000.601562,-0.260938,-3.303357,-4.056867,1.282021
1000.605469,4.579827,15.285822,1.872331,7.180155
1000.609375,7.172964,2.564745,10.119245,9.948250
1000.613281,4.969505,-0.355854,8.056982,14.253363
1000.617188,5.968317,3.519890,12.866227,6.654912
1000.621094,6.495708,10.636939,7.505133,13.577023
1000.625000,4.603181,10.080625,5.210289,7.291646
1000.628906,1.569933,7.267664,9.951588,8.867697
1000.632812,9.100798,11.854792,5.032013,6.485376
1000.636719,4.387163,7.731539,6.968366,4.917360
1000.640625,14.917565,0.263758,9.111771,6.740900
1000.644531,3.533305,2.651365,3.506386,-3.009453
1000.648438,5.719915,-0.567929,2.368669,6.635845
1000.652344,2.106611,0.348349,-13.247592,-2.809131
1000.656250,-2.524612,-5.592657,1.454682,-2.677585
1000.660156,-9.116995,1.299887,-2.695642,-0.847715
1000.664062,-8.146152,-7.413509,0.729255,-2.776258
1000.667969,-16.214557,-6.449397,-10.797103,-2.216637
1000.671875,-10.465785,-6.206743,-15.667703,-6.914174
1000.675781,-4.385612,-14.828575,-3.010641,-10.643779
1000.679688,-7.221466,-7.551858,-14.809103,-11.211677
1000.683594,-10.482718,-3.390177,-6.441530,-9.595587
1000.687500,-0.957186,-10.497278,-11.881453,-9.971985
1000.691406,-1.168891,-17.599776,-11.516114,-7.119521
1000.695312,-3.617868,-8.243443,-5.517317,3.464611
1000.699219,-0.268080,1.923497,5.069364,-2.059776
1000.703125,8.440319,5.375432,1.180055,5.208367
1000.707031,9.364244,2.717233,-1.983732,1.102146
1000.710938,7.471205,6.551190,8.539353,13.903115
1000.714844,11.217731,13.497390,5.244958,3.680279
1000.718750,8.710880,9.100263,7.904281,14.231799
1000.722656,9.007067,-0.698618,11.032519,8.747524
1000.726562,8.654746,9.019405,5.935520,9.522987
1000.730469,10.314196,18.575145,5.462158,13.148150
1000.734375,9.830519,7.918944,6.045407,15.363158
1000.738281,0.987840,9.063623,0.658339,7.594103
1000.742188,7.301278,4.317027,5.449134,6.404825
1000.746094,-0.824295,3.819969,-2.047203,-1.062951
1000.750000,-4.553508,-6.171102,-4.249317,4.621101
1000.753906,-0.913943,-4.403179,-3.904883,2.213929
1000.757812,3.321835,-3.065431,-6.638612,0.738457
1000.761719,-5.476446,-3.453343,-2.122327,-1.636032
1000.765625,-10.558239,-10.521472,-4.220301,-9.376754
1000.769531,-8.874982,-10.573627,-5.214373,-18.398939
1000.773438,-1.780167,-2.716647,-5.817020,-6.465901
1000.777344,-11.774572,-9.224054,-9.099403,-4.276053
1000.781250,-13.309799,-13.768300,-10.721313,-12.600710
1000.785156,-8.009525,-7.997588,-8.940111,-3.114797
1000.789062,-4.303328,-2.148591,-10.245603,-11.428666
1000.792969,3.613405,-1.121879,-3.784917,-5.580952
1000.796875,-3.831738,-0.482206,2.368932,0.185447
1000.800781,-2.513010,-1.286653,1.400526,3.177890
1000.804688,-1.895251,7.784465,7.469413,4.942934
1000.808594,13.416237,5.428268,10.124052,3.938467
1000.812500,7.589081,13.776804,3.825637,3.461135
1000.816406,5.049624,10.895389,7.267521,4.610273
1000.820312,14.004690,14.742295,9.517238,9.227535
1000.824219,9.451594,5.666885,7.765111,20.064562
1000.828125,13.499602,12.699996,7.372079,8.475798
1000.832031,8.349660,6.966332,5.993640,6.405065
1000.835938,12.177651,8.040131,9.365444,8.509204
1000.839844,2.244525,13.306327,13.729603,2.528427
1000.843750,-0.233693,-4.070516,-1.149598,2.568439
1000.847656,-3.843888,4.564841,-2.443430,-1.672177
1000.851562,5.337236,0.551238,0.587624,-3.693965
1000.855469,-6.507124,-3.486538,-0.850150,-4.399207
1000.859375,-13.791591,0.778508,-4.940755,-3.785689
1000.863281,-7.549650,-7.853950,-0.514351,-7.279388
1000.867188,-10.858775,-12.346735,-7.555882,-8.582611
1000.871094,-10.314838,-10.487858,-4.488806,-9.822710
1000.875000,-7.165472,-9.288037,-7.576673,-16.724712
1000.878906,-14.611324,-5.657539,-9.542381,-9.944199
1000.882812,-11.604685,-9.648825,-4.436219,-10.412807
1000.886719,-11.642677,-5.702944,-16.636491,-11.992127
1000.890625,-0.182819,-1.157019,1.616034,-11.227434
1000.894531,0.601784,2.779947,-6.208324,-6.406679
1000.898438,-5.464559,-5.114052,-0.155384,3.547560
1000.902344,6.692143,1.620732,3.758243,0.966497
1000.906250,13.674493,3.850409,10.419381,5.251513
1000.910156,5.299708,10.013785,9.959504,8.364812
1000.914062,5.583020,5.446959,14.557249,5.308135
1000.917969,15.132172,10.391626,9.975222,14.563445
1000.921875,10.502074,11.385844,10.627952,8.745856
1000.925781,10.957596,-1.929810,14.168435,10.553529
1000.929688,14.636173,4.692727,7.598351,11.758050
1000.933594,7.861261,12.082380,-3.834523,9.810284
1000.937500,14.228674,4.286789,11.021374,3.007676
1000.941406,5.346346,-0.432331,7.870730,7.279278
1000.945312,2.031927,2.410557,2.260838,5.180959
1000.949219,-5.165370,-4.660586,-6.215161,-2.444806
1000.953125,2.830763,-7.653800,-2.373581,2.416057
1000.957031,-2.986702,-3.907944,-1.929696,0.093977
1000.960938,-5.850874,-6.489586,-10.396293,-2.685143
1000.964844,-7.337669,-7.482962,-12.526275,-8.965633
1000.968750,-19.466402,-7.946758,-11.946851,-9.001248
1000.972656,-7.542107,-8.553720,-15.878329,-14.631039
1000.976562,-6.202814,-7.694261,-14.457270,-13.361219
1000.980469,-14.735447,-8.451135,-11.157793,-8.297300
1000.984375,-10.753823,-10.229443,-10.503678,-7.271394
1000.988281,-10.661331,-6.279659,-0.825233,-11.282423
1000.992188,-9.899803,-8.189859,-4.622354,-2.293281
1000.996094,1.101014,-0.248998,-2.068768,-6.932916
1001.000000,-3.665649,-4.777290,3.964064,4.820214
1001.003906,0.329131,0.037384,2.876928,3.310917
1001.007812,1.547925,12.541799,8.610462,8.502316
1001.011719,2.021062,7.274537,3.189982,2.456218
1001.015625,8.143500,12.205144,14.005444,5.555638
1001.019531,4.846591,13.344398,9.785986,3.711126
1001.023438,3.805469,16.348732,18.120996,2.894116
1001.027344,7.926928,6.300038,4.224534,9.461177
1001.031250,11.211271,7.113013,8.108840,7.800285
1001.035156,10.321627,7.274139,4.687750,11.691095
1001.039062,0.121347,15.874994,9.078068,13.243450
1001.042969,7.747604,5.807271,0.286876,1.164759
1001.046875,5.782764,-2.521717,5.623264,3.323491
1001.050781,-1.095106,-1.262444,-2.125699,-3.305243
1001.054688,-10.071730,-3.966231,-7.712758,-1.666986
1001.058594,-6.328550,-4.119452,-11.493496,-3.260147
1001.062500,-7.215318,-6.523044,-2.180421,-8.169391
1001.066406,-14.795622,-6.627675,-3.053143,-6.990695
1001.070312,-6.952462,-10.538577,-11.546302,-13.795462
1001.074219,-5.421167,-5.794317,-11.584598,-8.685470
1001.078125,-6.620421,-6.048493,-11.949822,-6.817732
1001.082031,-10.846165,-8.308826,-12.113794,-13.724200
1001.085938,-8.737805,-7.243280,-1.013676,-1.543965
1001.089844,-4.240033,-10.359452,-13.274353,-3.896565
1001.093750,-3.541935,-2.621572,-6.056433,-7.131085
1001.097656,-4.067982,-2.806141,-2.252369,-3.660674
1001.101562,0.756186,-0.558112,-4.252579,1.215740
1001.105469,6.879536,10.018334,5.503907,-0.994005
1001.109375,3.016478,-0.188220,7.558574,7.439068
1001.113281,6.553112,5.547891,8.410960,14.201654
1001.117188,13.372470,14.418074,9.894372,8.764076
1001.121094,10.779695,5.551701,6.105717,10.557642
1001.125000,8.809025,7.677165,15.001359,13.124113
1001.128906,15.605737,15.390239,3.765292,11.180383
1001.132812,9.074792,12.132695,4.452514,12.122948
1001.136719,12.377236,11.424032,6.601122,4.139540
1001.140625,3.821965,1.479837,4.298516,8.610957
1001.144531,2.875253,2.161988,4.571774,-4.541492
1001.148438,-0.604137,3.215166,2.583286,3.083691
1001.152344,4.489700,-7.030577,-4.720034,1.885815
1001.156250,-3.092913,-2.207482,0.160204,-10.272398
1001.160156,-4.584191,-5.323590,-2.529909,-6.755171
1001.164062,-11.289377,-10.640722,-7.233414,-8.378457
1001.167969,-15.463003,-4.854712,-1.008336,-6.495772
1001.171875,-9.706414,-8.967045,-9.354006,-13.056668
1001.175781,-13.737654,-11.388504,-12.695243,-12.543780
1001.179688,-7.571863,-12.692373,-6.018437,-3.612589
1001.183594,-10.602635,-11.502752,-0.054829,-9.237773
1001.187500,-3.496499,-15.820707,-4.059946,-5.895420
1001.191406,-2.212309,-5.487897,-2.292726,-13.433156
1001.195312,-4.377294,-3.684141,-11.716611,-4.208397
1001.199219,-6.172569,-2.626104,-6.096416,0.360824
1001.203125,1.360439,2.303248,3.863879,2.390215
1001.207031,9.731895,-5.294495,2.554577,3.345993
1001.210938,2.262520,4.768452,10.884393,4.262336
1001.214844,3.652346,5.164873,13.882039,14.575018
1001.218750,7.638796,16.220105,13.633753,8.316415
1001.222656,12.805451,12.330735,15.421535,9.711651
1001.226562,10.950679,5.861463,10.385348,13.259529
1001.230469,1.492787,15.174325,4.491929,3.706282
1001.234375,11.084988,10.984370,4.939164,3.734763
1001.238281,4.486462,4.518250,11.702853,1.343960
1001.242188,-6.908096,6.809502,4.448749,4.280570
1001.246094,10.557007,2.120490,-2.894832,3.445845
1001.250000,0.124262,3.858199,-2.404678,1.146117
1001.253906,-6.868269,-1.418119,-5.999689,-5.408301
1001.257812,-13.832142,-0.910683,-1.635907,0.023086
1001.261719,-3.074912,-5.839799,-6.065666,-2.920028
1001.265625,-9.092258,-8.712881,-3.809435,-10.165917
1001.269531,-8.406572,-15.266411,-9.171767,-15.136421
1001.273438,-5.786635,-13.548674,-10.099321,-16.506575
1001.277344,-8.756134,-9.670600,-7.525493,-13.443684
1001.281250,-7.892724,-9.485181,-2.832798,-7.980401
1001.285156,-8.253565,-6.760876,-8.108629,-7.943504
1001.289062,-14.254339,-12.941084,-6.464861,-3.505534
1001.292969,-9.920108,-5.722930,-3.667583,-1.765896
1001.296875,-3.679011,-2.471457,-5.416334,0.734838
1001.300781,-8.511768,8.748036,-0.303097,-1.680954
1001.304688,0.985022,6.109042,4.835606,1.433273
1001.308594,3.733908,8.481342,8.588096,1.797029
1001.312500,13.737708,4.241140,2.022408,9.899397
1001.316406,10.577436,9.599921,15.502310,7.267676
1001.320312,14.930292,10.793394,5.197892,5.708393
1001.324219,5.634370,10.864033,10.149392,17.008990
1001.328125,13.049178,5.900264,12.248727,10.695344
1001.332031,13.152398,11.718415,3.398491,10.734474
1001.335938,9.694900,8.836097,9.436004,8.399320
1001.339844,12.344894,3.181468,5.849797,2.591112
1001.343750,0.931595,3.574867,4.569514,3.306619
1001.347656,3.959749,11.742848,6.802102,3.132702
1001.351562,-6.960793,-8.853913,-5.057164,5.468943
1001.355469,-0.546407,-3.519861,-10.121727,2.907909
1001.359375,-4.331649,0.008765,-2.330886,-11.453881
1001.363281,-9.327367,-4.886588,-9.527899,-14.249829
1001.367188,-14.252837,-12.597345,-14.323184,-5.251324
1001.371094,-20.158502,-3.981257,-12.211688,-16.236727
1001.375000,-7.091642,-6.966658,-5.597684,-7.719276
1001.378906,-10.416925,-9.192961,-2.193551,-4.494899
1001.382812,-15.125162,-6.904468,-12.837977,-16.919454
1001.386719,-12.729518,-8.988436,-7.089677,-14.528654
1001.390625,-9.661084,-8.856899,-6.205375,-1.898314
1001.394531,-7.484219,1.039892,-3.260524,-4.467202
1001.398438,4.992485,-2.256699,-8.909668,-5.796751
1001.402344,-5.151144,4.133047,2.445442,3.011168
1001.406250,0.101123,2.617246,9.386870,-1.808626
1001.410156,6.086458,9.745106,3.681053,4.721702
1001.414062,10.593859,7.620105,9.084936,15.760224
1001.417969,9.879890,7.450292,6.293656,6.201660
1001.421875,17.353361,9.671636,5.779015,13.569227
1001.425781,3.240287,10.815062,5.095900,15.235626
1001.429688,4.098019,11.943235,10.201388,7.542797
1001.433594,11.665890,11.910755,9.947912,5.193003
1001.437500,0.241707,9.422422,4.828125,13.450042
1001.441406,8.897704,3.957680,5.353653,4.401846
1001.445312,3.498664,-1.819190,1.737658,0.944306
1001.449219,3.112584,-4.862727,0.704297,-4.518139
1001.453125,6.951523,-1.128740,-6.348801,-3.442211
1001.457031,-5.852980,-4.736143,-5.538368,-3.039003
1001.460938,-6.253109,-12.850759,-5.733356,-7.839942
1001.464844,-19.461679,-5.976450,-10.364815,-9.645746
1001.468750,-11.400329,-10.615803,-9.554147,-7.963677
1001.472656,-7.208196,-9.703205,-15.743291,-9.076176
1001.476562,-6.506923,-13.313051,-13.031825,-11.853452
1001.480469,-11.828581,-3.573167,-12.704185,-1.970242
1001.484375,-10.202664,-9.761189,1.961468,-8.119545
1001.488281,-7.496233,-2.935218,-3.741142,-9.133937
1001.492188,-2.149071,-3.410050,0.140097,-1.524375
1001.496094,-5.353465,-6.882482,-6.349021,-5.812592
1001.500000,1.320558,-0.532274,-6.921796,3.315482
1001.503906,-0.306157,2.646527,6.360136,-7.410754
1001.507812,12.588801,2.213965,6.358885,8.581662
1001.511719,6.954473,6.042253,17.322303,4.808928
1001.515625,2.816469,5.379948,8.457741,12.087083
1001.519531,3.436262,4.692153,10.926159,11.353972
1001.523438,12.730304,5.897813,10.516500,9.188946
1001.527344,10.909229,4.202907,6.550404,7.901114
1001.531250,12.366899,9.533919,13.052804,8.243365
1001.535156,6.330426,5.369152,6.236813,8.539483
1001.539062,10.410754,1.541489,13.156502,3.067027
1001.542969,6.024231,-4.905466,14.493131,-3.051041
1001.546875,-0.307524,-4.688482,3.005115,-3.833099
1001.550781,4.158526,-4.256267,1.393805,-8.445577
1001.554688,-6.550077,-1.513851,2.649526,-3.977209
1001.558594,-9.846974,-4.957475,-12.606948,-9.422113
1001.562500,-10.666078,-8.940780,-9.694538,-5.518820
1001.566406,-8.258177,-7.583554,-10.730449,-12.173225
1001.570312,-10.303408,-9.769883,-13.187228,-9.069396
1001.574219,-12.234466,-5.509536,-9.730566,-11.682817
1001.578125,-6.469494,-4.582937,-11.631611,-4.609182
1001.582031,-14.152616,-12.053380,-11.765940,-5.380399
1001.585938,-6.189874,-11.595954,-5.284158,-10.528084
1001.589844,-5.057806,-8.015727,-13.802217,-10.071289
1001.593750,-1.126316,6.293418,-5.907363,-2.425299
1001.597656,-1.368797,-1.960002,-5.723119,-5.075912
1001.601562,6.603622,2.794228,0.123574,-0.352810
1001.605469,4.542652,6.072429,0.459308,-0.420250
1001.609375,8.352013,8.272327,4.154933,6.527303
1001.613281,4.979065,2.635909,5.787843,3.839105
1001.617188,9.563768,6.528020,8.302501,8.449820
1001.621094,9.137884,6.853072,9.841236,8.809349
1001.625000,13.679066,11.232594,6.413406,9.414839
1001.628906,8.369898,7.861611,6.660466,10.827139
1001.632812,9.960965,4.695458,4.630827,12.912097
1001.636719,7.997070,9.001908,8.085378,16.060605
1001.640625,6.545515,7.652708,4.283379,10.856399
1001.644531,0.608435,3.309074,-3.982075,3.904429
1001.648438,3.120404,3.832729,5.921309,-11.492820
1001.652344,-1.619808,-0.971045,-3.246492,0.035520
1001.656250,-0.791833,-9.775489,-6.663630,-3.908541
1001.660156,-4.106085,-9.392369,-8.692581,-5.128933
1001.664062,-8.922661,-10.989080,-7.367473,-15.779148
1001.667969,-11.849721,-10.719489,-4.140719,-4.005963
1001.671875,-10.253263,-7.566263,-9.775561,-7.910127
1001.675781,-12.201227,-4.890817,-6.911223,-10.734410
1001.679688,-6.739465,-17.344689,-1.576414,-14.216882
1001.683594,-5.652083,-15.477785,-9.396732,-9.407382
1001.687500,-2.197363,-3.826156,-12.721035,-6.310854
1001.691406,-2.257149,-6.059104,-7.848349,-4.241257
1001.695312,-2.138320,-0.207913,-4.084409,-1.483899
1001.699219,-2.368560,-3.661231,4.178085,1.827015
1001.703125,-7.845580,-4.724264,2.765517,4.726887
1001.707031,1.046954,4.865549,0.299954,1.291790
1001.710938,10.349597,6.334149,9.655694,7.709200
1001.714844,4.113888,8.056669,6.783260,12.306179
1001.718750,17.276109,11.571611,3.562956,6.915242
1001.722656,13.146418,3.903051,11.128738,7.869668
1001.726562,7.098295,3.398238,7.929451,16.963353
1001.730469,8.495669,7.702851,5.710093,6.846939
1001.734375,10.699675,6.576321,9.504961,16.599394
1001.738281,10.680047,2.032302,11.705266,0.392942
1001.742188,5.820730,3.429709,1.429815,3.900470
1001.746094,1.103583,4.898199,9.436519,4.419823
1001.750000,0.542953,1.697545,2.697888,4.336517
1001.753906,-5.073645,0.381280,-2.455852,6.347303
1001.757812,-1.738503,-9.318671,-5.428743,-1.387322
1001.761719,-13.098570,-10.636737,-1.335927,-5.173735
1001.765625,-7.471638,-3.225396,-4.064007,-9.653969
1001.769531,-9.876384,0.581796,-14.650773,-10.636368
1001.773438,-8.616420,-11.844015,-10.675390,-7.985526
1001.777344,-10.107860,-7.167022,-7.669980,-8.592274
1001.781250,-7.249515,-9.374379,-14.805390,-7.101939
1001.785156,-4.113005,-7.829161,-6.368594,-13.034152
1001.789062,-8.692836,-9.948329,-7.577844,-8.983224
1001.792969,-10.495567,-1.894638,-0.739360,-8.167374
1001.796875,-1.572765,0.589568,-2.377540,-2.199174
1001.800781,-1.068186,-6.622756,-0.523767,1.341342
1001.804688,1.491292,-2.347494,5.630192,0.742018
1001.808594,-1.521785,2.441827,1.491596,-0.070487
1001.812500,3.814900,6.242626,3.804082,7.355689
1001.816406,2.922806,9.036513,10.538600,14.361760
1001.820312,4.216604,17.356592,2.626513,5.991230
1001.824219,4.193123,9.131237,9.700999,13.151582
1001.828125,16.447548,9.213678,8.860760,12.751394
1001.832031,8.553180,9.453349,10.507996,13.665446
1001.835938,-0.254129,4.931301,4.182718,4.673091
1001.839844,5.137940,11.912365,15.205778,-1.684051
1001.843750,2.815750,5.804811,5.923341,6.538963
1001.847656,1.329799,6.564245,3.078692,6.974575
1001.851562,2.945581,-3.894329,2.717232,0.784200
1001.855469,-0.572552,-2.088186,-11.649192,-2.166335
1001.859375,-8.069031,-3.917533,-5.758527,-3.111901
1001.863281,-6.991817,-8.565952,-9.987855,-3.896857
1001.867188,-9.983332,-11.879019,-14.143459,-6.638342
1001.871094,-2.553310,-16.148066,-11.439564,-11.846972
1001.875000,-8.193657,-15.055191,-9.492469,-3.513847
1001.878906,-5.275532,-5.615917,-14.063711,-8.631805
1001.882812,-8.576467,-5.788492,-1.778032,-6.967599
1001.886719,-6.306192,-10.230060,-3.678415,-9.519860
1001.890625,-0.074860,-7.686982,-4.133780,-10.559219
1001.894531,-1.050180,-7.703867,-3.040452,-6.341203
1001.898438,1.600696,-5.151181,-1.948045,3.066797
1001.902344,5.581315,1.021445,1.656224,1.175233
1001.906250,0.423554,4.205332,2.986355,-0.519794
1001.910156,8.534979,3.308887,4.405056,-1.247552
1001.914062,8.973770,11.926572,1.926003,12.873983
1001.917969,12.909353,7.845938,15.724688,11.420721
1001.921875,6.104079,14.123984,1.371642,-0.887019
1001.925781,9.658504,9.050645,6.426185,13.631067
1001.929688,7.119224,7.383721,6.954080,-0.198047
1001.933594,6.269957,13.378644,5.339992,9.424276
1001.937500,7.752362,7.833508,13.409134,2.291113
1001.941406,4.114229,1.004341,-1.362809,5.169898
1001.945312,-3.362519,-4.267316,-1.401206,0.040246
1001.949219,-2.858545,-3.148781,2.008856,5.905283
1001.953125,-0.649657,-5.085744,-0.319210,1.334927
1001.957031,-3.762026,-7.580503,-3.741581,-12.556429
1001.960938,-2.284192,-5.726066,-12.296634,-15.701485
1001.964844,-12.228478,-5.330892,-4.494306,-7.760905
1001.968750,-3.465877,-8.176115,-12.634493,-6.453902
1001.972656,-10.200871,-12.318293,-8.109670,-13.812621
1001.976562,-3.596572,-18.939957,-9.185240,-9.533479
1001.980469,-9.994809,-9.255958,-15.780731,-6.229966
1001.984375,-9.982952,-7.852717,-7.944814,-7.264805
1001.988281,0.693042,-8.832546,-3.795097,-4.821678
1001.992188,-8.847498,-8.224162,-2.459823,-4.988883
1001.996094,-8.853403,0.222667,-8.662043,-7.809814
1002.000000,-0.644457,-3.144926,-0.003626,-4.480210
1002.003906,7.604560,0.172804,0.056354,-5.237870
1002.007812,-1.422279,8.154831,-1.821529,3.921809
1002.011719,10.500109,12.021871,13.650167,1.288058
1002.015625,10.008713,6.923683,9.562359,15.835248
1002.019531,8.851335,12.989001,10.135022,3.182878
1002.023438,6.262770,12.836697,9.079364,13.883466
1002.027344,4.556304,3.164656,9.838978,14.457981
1002.031250,11.233630,6.896566,9.188600,8.415124
1002.035156,11.558172,8.958043,7.394624,4.251585
1002.039062,3.922609,8.673665,9.932943,5.354398
1002.042969,2.777753,3.975929,-3.039229,6.857137
1002.046875,-2.885482,-1.250426,6.883067,-2.254864
1002.050781,4.011212,-7.410761,3.886732,3.936709
1002.054688,1.104669,-4.764411,-7.191879,5.671530
1002.058594,-4.213790,-5.395639,-6.434617,-5.421189
1002.062500,-7.580228,-11.846392,-7.923908,3.908146
1002.066406,-12.303184,-14.625346,-6.313625,-7.527574
1002.070312,-3.448697,-4.200637,-11.316625,-15.039061
1002.074219,-2.988137,-8.349162,-12.101041,-12.234460
1002.078125,-9.413842,-9.126366,-12.679776,-4.882582
1002.082031,-13.405214,-9.420813,-7.728734,-3.465859
1002.085938,0.307164,-5.517666,-11.336816,-8.998808
1002.089844,-3.859127,-12.088650,-2.944593,-7.569840
1002.093750,0.839701,-10.780013,-4.915170,-7.594107
1002.097656,-5.595262,3.559153,-3.665061,-7.970776
1002.101562,6.272926,2.225771,-1.926807,3.329296
1002.105469,4.164150,10.181778,-6.308481,0.782593
1002.109375,-0.584719,6.728688,5.149305,12.070527
1002.113281,10.844738,8.330524,6.839519,6.328640
1002.117188,7.395396,12.187025,4.597662,5.810473
1002.121094,10.472038,10.653219,11.365826,2.812410
1002.125000,9.772786,9.573967,7.520718,13.054060
1002.128906,14.570707,12.983758,14.606707,13.751770
1002.132812,5.791042,6.143517,14.814979,13.563709
1002.136719,9.887212,5.378433,2.483781,4.470772
1002.140625,6.055021,6.342778,5.696145,2.506432
1002.144531,8.763006,8.291172,3.623847,-0.975630
1002.148438,-3.180022,3.818540,10.143715,0.593914
1002.152344,4.234471,-2.506010,4.057660,0.630860
1002.156250,1.047899,-3.906503,0.699483,-4.577718
1002.160156,-7.805570,-4.999167,-11.356734,3.216583
1002.164062,-15.950855,-4.355087,-3.557201,-8.109407
1002.167969,-13.317250,-14.388726,-6.423451,-11.298518
1002.171875,-7.092196,-11.096411,-7.252927,-14.931765
1002.175781,-14.618537,-13.055895,-8.871004,-10.217322
1002.179688,-12.442040,-10.689004,-14.419101,-8.700721
1002.183594,-7.273104,-9.003632,-8.419997,-7.104862
1002.187500,-5.760516,-4.247794,-6.072000,-3.763998
1002.191406,-2.381316,-8.710000,-0.472413,-6.393629
1002.195312,-7.424885,-2.157699,-10.285683,0.753317
1002.199219,-0.836175,0.452426,-0.116656,-1.423338
1002.203125,4.262528,5.277951,9.033006,-0.643028
1002.207031,3.714317,6.466436,1.507867,0.789747
1002.210938,7.911652,6.514526,9.110913,12.158934
1002.214844,16.457737,10.469210,7.993821,12.972700
1002.218750,7.419444,7.171588,6.269204,8.264994
1002.222656,15.559880,8.689919,17.261562,8.422543
1002.226562,19.202809,5.391896,4.515929,6.977384
1002.230469,12.341326,6.724944,9.269282,9.830591
1002.234375,7.696200,2.023424,11.556148,3.418407
1002.238281,8.717726,-2.109232,6.825462,7.002119
1002.242188,1.916180,1.428177,0.208194,10.124223
1002.246094,6.584178,10.533468,6.280638,3.474061
1002.250000,5.598399,-1.818143,3.672306,1.964791
1002.253906,-7.405786,-3.270772,-0.028526,-5.802685
1002.257812,-1.485074,-2.398938,-7.260951,-9.917332
1002.261719,-7.301638,-13.738572,-9.897315,-6.413009
1002.265625,-7.247373,-9.095378,-5.466332,-9.425667
1002.269531,-9.844792,-7.935902,-13.317713,-8.870419
1002.273438,-12.113808,-9.091753,-6.596133,-8.257055
1002.277344,-13.344336,-10.181256,-9.387343,-8.421986
1002.281250,-9.755211,-8.886586,-7.729400,-8.504905
1002.285156,-8.711708,-10.024882,-5.437066,-10.938858
1002.289062,-7.921575,-7.166673,-10.821023,0.866533
1002.292969,-3.015229,-6.544207,-12.072960,-6.425335
1002.296875,-4.478415,-2.261616,-6.613325,5.454278
1002.300781,2.174197,-3.129856,-6.681031,10.599941
1002.304688,9.439895,4.029418,5.787166,2.290909
1002.308594,6.112363,5.096559,3.663245,4.077877
1002.312500,3.661634,3.362108,14.369981,9.783843
1002.316406,9.951559,12.141313,8.608811,1.002377
1002.320312,13.344199,16.607893,7.038784,12.778935
1002.324219,10.410979,12.331924,12.072949,5.785473
1002.328125,15.334439,9.468989,5.954709,7.347894
1002.332031,6.466203,7.171577,2.820988,5.564168
1002.335938,2.662195,-3.169228,7.262698,7.373790
1002.339844,10.884750,2.040303,13.939771,7.902668
1002.343750,7.774057,9.198944,4.753464,5.477929
1002.347656,2.425839,0.374393,-3.806915,-7.313855
1002.351562,-1.480050,0.988433,3.520987,2.566452
1002.355469,-3.105295,-6.509550,-3.538727,-4.230258
1002.359375,-14.401312,-9.238236,-6.688918,-7.673546
1002.363281,-13.622920,-3.967313,-7.069530,-0.880325
1002.367188,-9.853222,-1.461519,-9.043985,-1.860217
1002.371094,-12.340098,-8.999953,-8.108467,-2.854825
1002.375000,-7.048386,-12.085656,-9.591603,-11.188467
1002.378906,-9.159024,-7.208839,-3.956107,-17.005612
1002.382812,-11.508111,-8.798464,-5.985199,-2.721966
1002.386719,-13.784247,-7.770756,-8.961045,-4.066052
1002.390625,-4.579389,-12.857240,-9.621200,-4.858941
1002.394531,-0.238201,-5.608415,-2.548075,-9.878883
1002.398438,-3.817484,2.214982,0.689200,-3.008461
1002.402344,-1.339735,4.029769,3.169415,-0.140532
1002.406250,4.015328,3.256057,3.928808,6.215180
1002.410156,-1.979321,-1.930788,1.623257,10.183385
1002.414062,4.429390,8.085948,5.428731,6.980255
1002.417969,9.752822,10.909878,7.673351,9.446143
1002.421875,5.763836,8.990209,14.908980,5.612575
1002.425781,3.342261,10.608573,9.136546,11.176064
1002.429688,12.058942,15.176718,20.552199,3.212956
1002.433594,5.591840,11.596062,18.309626,14.495145
1002.437500,1.228440,9.179055,2.548911,2.637064
1002.441406,8.001491,4.118751,5.177406,3.763198
1002.445312,1.507042,6.287235,10.373250,6.747335
1002.449219,2.074210,-6.658188,-1.488459,3.169750
1002.453125,-3.644400,-2.376999,1.163089,1.445976
1002.457031,-10.605068,-7.534835,-6.170031,-1.551498
1002.460938,-3.130947,-6.013528,-5.090766,-0.075192
1002.464844,-10.146233,-6.411159,-12.261445,-9.795761
1002.468750,-6.016436,-13.107063,-9.120332,-6.281614
1002.472656,-15.022159,-11.679555,-6.928429,-7.590141
1002.476562,-7.465800,-10.882486,-9.538898,-8.897210
1002.480469,-9.240125,-15.285760,-11.075865,-6.540217
1002.484375,-10.553584,-11.490665,-6.609729,-11.597937
1002.488281,-15.258236,-14.961638,-9.873920,-11.361998
1002.492188,-0.314376,-3.488881,-6.071597,-4.962531
1002.496094,-0.154193,-1.157989,-2.649827,-12.321130
1002.500000,-2.528154,-1.573748,-3.916996,8.361149
1002.503906,6.860220,1.317974,1.112270,2.359598
1002.507812,2.272407,5.515795,8.505040,5.057204
1002.511719,6.594903,6.295168,4.863165,2.300145
1002.515625,-1.129225,9.029826,7.357294,8.297647
1002.519531,10.036913,12.361069,8.201057,10.179756
1002.523438,7.815223,11.554474,8.290641,9.279828
1002.527344,11.237715,9.285013,9.648098,5.210919
1002.531250,9.840864,12.193394,16.798466,5.133328
1002.535156,9.099710,16.514016,7.673698,5.965084
1002.539062,10.015964,2.074297,8.864066,7.956425
1002.542969,-4.439912,6.208132,-0.732378,10.621048
1002.546875,1.553978,2.448130,0.836091,3.341467
1002.550781,-3.109636,-0.667794,2.426645,2.600329
1002.554688,-2.442073,1.660236,-1.550591,-2.566139
1002.558594,-8.417796,-3.437176,-6.629201,1.692484
1002.562500,-3.262768,-11.408453,-10.473208,-7.817912
1002.566406,-12.452242,-7.927151,-5.377597,-7.447054
1002.570312,-13.988719,-4.862445,-10.510193,-12.077712
1002.574219,-9.464843,-13.988039,-12.281684,-12.651871
1002.578125,-6.682491,-13.788174,-13.212696,-9.883388
1002.582031,-10.391544,-4.415763,-6.921070,-13.488572
1002.585938,-14.187509,-15.626960,-9.400387,-6.786019
1002.589844,-1.437047,-7.615172,-12.787021,-0.645440
1002.593750,-4.495150,-7.169939,-1.158898,-10.400948
1002.597656,-0.918550,3.444999,-3.977383,-4.611978
1002.601562,-6.984265,-0.783253,-8.046314,-3.932742
1002.605469,-1.338032,2.071804,4.919826,5.059005
1002.609375,3.594844,7.773014,10.133164,-1.920713
1002.613281,8.151644,3.489558,5.041563,13.456690
1002.617188,9.432719,5.746979,12.782703,9.404647
1002.621094,2.000808,10.244419,10.483754,12.356327
1002.625000,7.975600,11.345243,7.222912,11.873112
1002.628906,12.046274,4.310089,2.539556,14.220034
1002.632812,9.238433,13.682672,4.773727,8.188528
1002.636719,3.271202,3.039530,0.604546,4.942260
1002.640625,6.957659,10.759606,5.218003,9.824457
1002.644531,-3.398344,10.882112,7.798263,4.613904
1002.648438,3.199557,-4.629080,6.031424,-6.543156
1002.652344,-4.956787,1.282049,-1.059395,1.908349
1002.656250,-1.529052,-4.631233,-3.836224,-6.050790
1002.660156,-7.676839,-1.088727,-3.136032,-2.508415
1002.664062,-11.204714,-7.681687,-6.637581,-7.574107
1002.667969,-6.865442,-5.301093,-13.747657,-10.655040
1002.671875,-5.860518,-6.683999,-16.333130,-13.198079
1002.675781,-8.554376,-9.710696,-7.948620,-7.182018
1002.679688,-7.413399,-12.675571,-3.330456,-11.705740
1002.683594,-3.489421,-13.459671,-5.842244,-11.436142
1002.687500,-1.607903,-1.682671,-3.940452,-15.944798
1002.691406,-12.360559,0.927311,-11.527835,-2.497436
1002.695312,3.612750,3.004860,5.756629,-6.326125
1002.699219,-7.096306,0.843827,6.318932,2.931630
1002.703125,4.428698,3.005132,1.732832,-0.607239
1002.707031,8.711568,12.169582,5.305352,7.405376
1002.710938,2.598713,9.011861,2.590354,2.862603
1002.714844,6.096143,10.627498,4.602748,11.000013
1002.718750,7.489790,9.070799,20.750256,8.486967
1002.722656,10.063206,17.490326,9.468151,2.580992
1002.726562,11.903479,13.241854,6.574066,9.268240
1002.730469,7.447437,13.990333,14.650795,11.178425
1002.734375,2.271656,2.229844,9.740271,9.362939
1002.738281,9.145140,2.550099,0.854749,4.360185
1002.742188,12.067718,7.615630,10.700597,2.552568
1002.746094,1.727388,-1.325591,5.459663,1.561083
1002.750000,5.102856,-7.468646,6.547505,-4.859656
1002.753906,-3.715425,-7.398829,0.804433,-2.645862
1002.757812,-5.808440,-2.345980,-0.281637,-7.516502
1002.761719,-5.115441,-8.846201,-11.684676,-13.760687
1002.765625,-11.562253,-7.795825,-6.701996,-6.097568
1002.769531,-10.555203,-2.258824,-14.597280,-3.816741
1002.773438,-13.701632,-11.714177,-9.920837,-13.118711
1002.777344,-14.310544,-1.375651,-8.899155,-17.898622
1002.781250,-7.716757,-12.685528,-12.816839,-7.919666
1002.785156,-11.353712,-9.100776,-11.081749,-18.128285
1002.789062,-13.402158,-6.884254,-4.149785,-5.622157
1002.792969,-1.737922,-9.036402,-3.615738,-2.815057
1002.796875,0.596316,-2.956866,-3.879979,-3.030748
1002.800781,3.012151,-3.350797,2.140740,3.059699
1002.804688,-3.908160,1.104422,3.180067,7.591890
1002.808594,4.710118,10.785074,9.757472,3.247883
1002.812500,12.225727,3.164005,12.355303,4.294070
1002.816406,12.141635,6.948180,4.791868,13.307282
1002.820312,16.386072,15.217513,17.030998,3.280983
1002.824219,6.815329,14.428843,3.946315,12.785410
1002.828125,15.234365,14.175990,9.934721,8.125423
1002.832031,9.194110,10.569496,6.966933,6.155114
1002.835938,8.347755,6.541043,6.793128,10.373151
1002.839844,2.312700,7.940361,4.479774,4.389357
1002.843750,1.348899,7.478866,9.156892,-1.015341
1002.847656,9.420424,0.604940,2.109406,-2.022098
1002.851562,-1.172157,-3.274742,-8.035367,-1.220172
1002.855469,-4.804714,-2.520664,-0.396785,-3.791672
1002.859375,-4.218454,-6.824358,-4.904188,-4.972370
1002.863281,-11.603135,-1.287777,-8.840879,-5.043925
1002.867188,-2.834424,-13.522469,-13.778963,-10.490399
1002.871094,-8.228490,-8.695506,-13.092161,-12.425537
1002.875000,-11.038658,-7.078160,-9.032156,-14.368066
1002.878906,-15.826946,-15.762031,-8.564996,-8.856749
1002.882812,-7.661402,-12.065320,-4.727750,-6.092282
1002.886719,-9.149099,-2.983269,-6.239041,-5.519239
1002.890625,1.692777,-10.384684,-10.622720,-6.043205
1002.894531,1.535009,-8.053377,-3.364785,-1.686228
1002.898438,2.897876,3.461290,-2.712697,1.548569
1002.902344,-1.336131,0.527749,6.899855,-2.764627
1002.906250,0.574043,1.673129,9.002895,8.522264
1002.910156,6.348637,-3.086006,1.486777,6.030217
1002.914062,11.295786,6.848943,8.178201,8.559995
1002.917969,6.319206,14.207090,5.159614,0.663181
1002.921875,14.683304,9.908925,11.843052,10.394273
1002.925781,7.485663,14.241805,7.842892,8.266556
1002.929688,12.085999,7.958634,3.459091,10.480330
1002.933594,6.917507,17.417145,8.519059,8.131646
1002.937500,4.792496,2.850021,6.886315,8.944787
1002.941406,11.760478,3.403932,6.025999,0.223775
1002.945312,-0.147823,-4.567099,3.583085,-0.390281
1002.949219,-5.414293,0.384802,-1.201442,5.877331
1002.953125,-9.445570,-3.233113,-1.533541,1.992560
1002.957031,3.313062,0.604678,-2.400805,-0.973263
1002.960938,-7.411156,-8.021472,-1.745788,-10.188927
1002.964844,-11.934108,-7.968529,-5.030230,-8.748955
1002.968750,-8.149879,-2.647510,-10.398283,-8.732338
1002.972656,-8.344903,-12.858612,-13.666078,-11.349168
1002.976562,-13.994706,-3.302815,-0.865789,-12.704276
1002.980469,-8.024164,-11.324060,-3.968280,-7.404287
1002.984375,-9.476181,-4.739757,-8.651203,-3.954791
1002.988281,-2.964326,-11.203612,-8.497522,-8.077426
1002.992188,-6.886158,-5.717840,-3.747114,-2.145991
1002.996094,1.766336,-1.725612,1.330880,-0.648826
1003.000000,-0.835498,-4.572388,-6.937689,-3.214308
1003.003906,3.325899,2.318364,6.422345,0.814282
1003.007812,9.021234,7.550998,-3.235264,8.489525
1003.011719,6.057999,10.578545,11.524794,10.271959
1003.015625,10.333002,9.012146,7.080615,19.608101
1003.019531,8.197665,6.062822,8.919994,16.875098
1003.023438,6.821509,16.127917,11.949332,7.449916
1003.027344,10.364991,11.720987,8.622286,8.652276
1003.031250,-1.652295,4.740858,7.575327,5.404065
1003.035156,6.903547,2.508317,2.352829,5.356307
1003.039062,0.853837,7.147772,1.915251,5.839051
1003.042969,9.719372,8.002625,4.924141,12.574193
1003.046875,-6.709129,-2.676805,3.317161,-2.893948
1003.050781,3.313694,-3.775376,0.914801,-5.513639
1003.054688,-9.708441,-7.450481,-1.248162,0.834774
1003.058594,-11.937812,-0.040616,-15.313136,-5.270544
1003.062500,-10.744210,-7.727794,-12.674593,-7.671026
1003.066406,-6.463374,-3.958994,-15.203113,-6.617038
1003.070312,-10.836604,-7.666098,-13.557840,-9.190502
1003.074219,-8.149972,-11.194139,-4.563579,-3.953146
1003.078125,-11.561384,-13.921140,-6.407490,-10.234324
1003.082031,-11.823527,-7.161812,-6.008714,-15.339129
1003.085938,-0.293563,-4.393069,-6.222339,-8.002582
1003.089844,-7.006019,-2.516438,-12.403415,-10.089840
1003.093750,-12.884077,-5.142144,1.314835,-9.089830
1003.097656,3.984373,2.219085,-6.057558,6.476133
1003.101562,3.088808,4.864453,-3.622420,-4.732623
1003.105469,-1.642695,-1.111204,-0.189034,-1.722864
1003.109375,4.940642,8.975027,6.700934,6.108389
1003.113281,15.334936,4.597063,10.377865,1.745150
1003.117188,8.928812,6.891775,9.176298,12.672640
1003.121094,4.765783,6.186455,6.622045,3.541763
1003.125000,9.013447,10.514811,8.963737,13.331786
1003.128906,24.352037,8.212953,5.490326,6.114908
1003.132812,9.292670,3.494590,8.414960,8.081753
1003.136719,2.884756,5.832353,11.810174,12.289221
1003.140625,4.302003,12.110160,2.492719,3.183239
1003.144531,6.105384,2.000883,3.925077,-0.703155
1003.148438,2.445179,0.476928,-6.865697,3.058402
1003.152344,4.824120,0.642987,-2.759942,1.051577
1003.156250,-3.204097,-3.919383,0.213637,-1.968474
1003.160156,-7.450401,-9.148180,-6.926958,-16.215381
1003.164062,-8.522445,-9.194825,-1.140230,-6.796427
1003.167969,-14.820840,-12.909788,-5.933000,-4.032313
1003.171875,-16.941465,-5.929415,-10.701816,-13.107184
1003.175781,-17.063516,-11.383305,-10.315692,-10.077122
1003.179688,-17.909992,-6.504332,-9.788232,-7.583385
1003.183594,-9.466770,-6.191667,-3.092112,-8.017122
1003.187500,-2.875016,-0.397025,-14.585334,-5.979338
1003.191406,-0.483063,-9.388133,-2.449345,-7.044211
1003.195312,-0.442639,2.341305,-4.196587,4.004955
1003.199219,-0.003814,0.801490,2.664918,-7.006540
1003.203125,5.861629,-1.359284,2.632524,-1.860077
1003.207031,7.304159,7.804105,1.726375,4.430384
1003.210938,2.947808,4.392017,2.818598,0.592473
1003.214844,2.670933,6.609528,13.461640,8.965889
1003.218750,3.180772,9.111159,5.581841,11.440643
1003.222656,6.698512,9.663468,11.333725,7.657412
1003.226562,11.387539,16.819317,13.006345,4.039215
1003.230469,12.848142,12.144899,14.138253,6.207526
1003.234375,5.796630,12.368847,9.327798,7.521867
1003.238281,6.066822,1.720112,7.031265,9.654899
1003.242188,0.508877,3.261251,8.322412,2.727737
1003.246094,4.871742,-1.169491,3.994917,1.328702
1003.250000,6.542415,3.725162,0.155421,-0.858737
1003.253906,-3.569898,0.645207,-7.202036,0.852781
1003.257812,-4.164174,-2.989753,-4.102082,-13.078273
1003.261719,-5.861170,-12.968272,-10.431264,0.649371
1003.265625,-7.383311,-12.088047,-12.049941,-10.520669
1003.269531,-14.523346,-3.671150,-11.975209,-7.085790
1003.273438,-9.854591,-8.152515,-5.552324,-4.696660
1003.277344,-3.566997,-10.617563,-11.719974,-10.982784
1003.281250,-16.786165,-5.784227,-4.641259,-10.894983
1003.285156,-14.338037,-6.421443,-13.830820,-4.188261
1003.289062,-10.469926,-6.874505,-6.302299,-8.731150
1003.292969,4.919590,-4.944980,-11.223242,-5.312554
1003.296875,-4.320110,3.616954,1.794074,-6.577682
1003.300781,-5.302346,2.399543,-3.464584,6.576081
1003.304688,8.965687,4.071239,-0.047030,7.242466
1003.308594,14.342613,5.620755,6.243281,4.152959
1003.312500,9.172830,4.293250,3.270055,15.065508
1003.316406,6.573005,7.661374,5.235438,9.765990
1003.320312,17.261370,7.661233,1.312630,11.779508
1003.324219,15.031442,-0.529005,7.489448,11.332684
1003.328125,3.800110,6.473616,10.302733,12.497560
1003.332031,16.180527,2.596014,8.034861,6.276737
1003.335938,4.105417,12.120171,5.063553,3.239274
1003.339844,3.999180,12.112149,1.645076,4.590892
1003.343750,-2.404638,-0.869455,4.634030,4.459341
1003.347656,7.515497,8.392918,-3.462766,2.449100
1003.351562,-2.502958,-0.091980,0.142329,1.963788
1003.355469,-1.065831,-2.890132,-4.726432,-5.572057
1003.359375,-0.789350,-7.457920,-3.274626,-4.699976
1003.363281,-7.058107,-10.439555,-5.467921,-2.401812
1003.367188,-13.156336,-5.277046,-7.892476,-9.124113
1003.371094,-4.873865,-10.968997,-9.358840,-7.603276
1003.375000,-3.079951,-2.753945,-12.573073,-9.653057
1003.378906,-5.816478,-10.196057,-7.261604,-11.960596
1003.382812,-5.709466,-6.548715,-7.520165,-8.155472
1003.386719,-5.955082,-6.294258,-10.912167,-4.451479
1003.390625,-7.553646,-9.137382,-9.366980,-4.978515
1003.394531,-12.100515,-3.895599,-6.173587,-1.024291
1003.398438,-1.994667,2.776605,-2.637695,1.219578
1003.402344,3.246469,4.529263,3.597480,3.462820
1003.406250,9.126017,3.666101,13.767660,7.534367
1003.410156,13.184962,6.828334,7.797244,2.566030
1003.414062,3.642799,8.928167,-1.941155,7.238125
1003.417969,15.294379,8.716304,12.260452,11.223902
1003.421875,6.072124,0.609270,11.889967,8.910033
1003.425781,10.951912,4.991158,7.456496,6.332473
1003.429688,5.245384,13.864841,9.418312,10.612328
1003.433594,13.147335,10.553534,5.171967,15.800513
1003.437500,0.912501,13.173740,1.075342,3.667946
1003.441406,2.745111,5.542017,-0.168705,12.296341
1003.445312,0.880375,6.829450,1.747523,2.909280
1003.449219,-3.382400,1.954412,3.642830,0.387960
1003.453125,-5.501272,-1.094775,-12.859533,-5.028156
1003.457031,1.423042,-3.026557,-8.097299,1.105660
1003.460938,-10.447316,-10.098394,-12.643136,-12.546536
1003.464844,-9.693409,-6.267573,-10.165749,-8.292630
1003.468750,-19.421585,-12.452042,-12.812048,-6.511937
1003.472656,-5.272597,-19.896822,-3.416670,-12.853801
1003.476562,-20.706590,-11.785891,-0.337088,-0.078348
1003.480469,-4.507960,-13.272248,-10.448795,-9.084874
1003.484375,-5.015611,-3.828515,-9.247358,-8.230343
1003.488281,-7.655848,-8.538412,-2.547414,-9.298953
1003.492188,-1.362749,-7.004522,-4.910566,-9.515523
1003.496094,-3.101083,-4.950559,-4.053449,-0.902705
1003.500000,5.601233,3.506075,-2.784424,1.259221
1003.503906,3.393318,10.558150,3.304077,-0.158184
1003.507812,7.514724,5.085400,-0.944120,6.649289
1003.511719,11.553165,9.322636,-1.457432,5.154249
1003.515625,7.144714,5.549396,12.732222,8.413230
1003.519531,7.341862,5.824595,13.101791,9.309296
1003.523438,9.237705,10.852429,5.969354,16.702521
1003.527344,9.085597,8.850301,6.530570,9.142304
1003.531250,6.828042,10.192312,11.361898,8.208763
1003.535156,6.881840,15.735141,7.700277,3.404916
1003.539062,10.762606,6.168242,11.880694,2.574805
1003.542969,1.272050,2.585875,1.054654,1.051756
1003.546875,2.573107,5.652665,9.976235,6.900750
1003.550781,-5.173755,-3.045454,1.751154,-0.095059
1003.554688,-4.655970,-3.357413,-2.451056,-8.768275
1003.558594,-7.776154,-5.538168,-2.651492,-8.908687
1003.562500,-4.369704,3.201434,-5.623823,-1.891544
1003.566406,-12.512149,-10.645287,-0.062038,-8.728118
1003.570312,-13.431082,-10.261998,-11.873897,-6.812747
1003.574219,-4.567286,-6.245654,-18.116251,-12.260856
1003.578125,-4.267462,-15.792733,-9.900375,-5.892087
1003.582031,-7.464221,-7.579619,-6.017230,-9.791561
1003.585938,-2.194543,-5.708127,-8.953665,-11.142596
1003.589844,-4.243440,-7.368828,-4.712839,-1.414416
1003.593750,-3.093612,-4.065402,1.093895,-8.861475
1003.597656,-4.292656,3.981518,-9.566626,3.183121
1003.601562,1.258475,4.856433,-0.907469,5.336051
1003.605469,7.444554,2.416350,2.912069,-4.784161
1003.609375,9.170951,8.926529,8.688077,6.434383
1003.613281,3.038524,6.066254,6.819878,13.691130
1003.617188,6.532637,9.928920,11.604355,5.494891
1003.621094,7.665591,12.067794,7.310599,10.097859
1003.625000,17.457037,13.638953,10.550237,17.530653
1003.628906,15.436756,11.843964,3.613444,13.216955
1003.632812,12.668022,9.614769,16.139202,7.499731
1003.636719,9.316453,15.080307,8.211304,11.249538
1003.640625,11.041536,4.581009,2.156612,3.783714
1003.644531,0.267352,5.862906,6.470204,5.142797
1003.648438,4.066893,0.678758,-5.509211,-0.025093
1003.652344,-1.266597,-3.064721,0.085354,-3.640067
1003.656250,-10.328235,-6.218527,-11.606282,-0.854017
1003.660156,-6.846809,-11.606329,-3.369199,-3.218101
1003.664062,-4.265256,-13.803110,-11.385936,-6.608714
1003.667969,-8.419312,-4.520408,-7.869796,-11.877338
1003.671875,-10.561802,-9.962814,-18.055279,-5.667501
1003.675781,-8.252803,-10.564635,-7.686338,-6.847264
1003.679688,-8.814451,-11.127939,-16.571822,-2.628333
1003.683594,5.472104,-16.953402,-10.249990,0.052437
1003.687500,-5.218315,-3.665805,-8.629080,-15.980876
1003.691406,-2.334733,-4.973175,-6.024800,-3.460472
1003.695312,-2.782903,-4.321623,0.374544,-7.608224
1003.699219,0.875856,-1.114762,0.565442,8.292148
1003.703125,3.519374,5.695462,14.035646,-2.648211
1003.707031,6.270322,6.979730,6.971429,-4.225763
1003.710938,13.890673,8.705180,3.530507,10.534599
1003.714844,8.788615,5.804606,9.211506,6.171398
1003.718750,12.066965,9.325628,11.596365,11.300673
1003.722656,9.884290,7.345898,14.892524,11.381303
1003.726562,6.394273,8.406654,7.367645,8.249464
1003.730469,13.638042,10.152078,13.774663,16.703473
1003.734375,6.733872,3.875999,12.038941,6.497609
1003.738281,3.898817,8.195435,10.280898,6.903038
1003.742188,0.891830,-0.027402,2.556117,11.179085
1003.746094,2.237714,-0.489831,0.833417,1.759207
1003.750000,3.563363,0.492339,-1.656470,-2.674729
1003.753906,-2.715756,-6.704530,-1.417819,-4.761524
1003.757812,-6.107074,-2.159596,-4.489023,-1.121671
1003.761719,-5.328975,-11.325029,-6.783563,-9.829898
1003.765625,-9.329134,-11.190551,-4.671489,-11.254091
1003.769531,-13.155819,-7.891680,-14.640872,-18.944265
1003.773438,-5.848011,-13.276842,-15.559438,-7.093922
1003.777344,-9.090699,-10.177305,-8.327654,-10.059494
1003.781250,-11.068395,-7.774105,-11.182956,-8.486115
1003.785156,-6.950280,-5.272730,-15.166069,-10.068895
1003.789062,-8.448372,-2.961550,-1.476192,-5.105269
1003.792969,-7.371173,-5.277959,-6.611286,4.582168
1003.796875,-0.377311,2.386854,-3.364666,1.089955
1003.800781,3.008711,3.798245,0.097892,4.464381
1003.804688,1.181743,-3.877618,-1.275893,0.755055
1003.808594,6.126379,5.398345,5.515918,6.431230
1003.812500,8.728350,7.113174,5.006875,9.638329
1003.816406,0.429070,7.542006,5.665403,13.123395
1003.820312,10.343188,10.180822,12.661004,14.436073
1003.824219,7.802811,14.001258,9.245476,11.973797
1003.828125,11.266580,9.821375,2.920190,6.656551
1003.832031,4.592821,5.853972,8.943237,8.542127
1003.835938,15.084566,1.783389,8.575348,6.311692
1003.839844,8.083088,8.081492,10.323700,10.310232
1003.843750,2.948526,6.845006,3.246649,9.917085
1003.847656,-5.973405,-4.280792,-0.350050,0.643403
1003.851562,1.229952,-6.873992,2.770195,-4.821579
1003.855469,0.645465,2.520591,-6.895534,-3.857118
1003.859375,-6.096243,-11.286920,-6.764917,-3.809718
1003.863281,-1.205450,-8.660152,-2.568506,-9.166826
1003.867188,-10.628133,-13.218679,-9.432629,-5.100488
1003.871094,-17.839849,-10.553821,-8.293723,-4.919762
1003.875000,-11.710405,-9.206358,-9.493400,-16.180715
1003.878906,-7.460606,-3.329089,-14.114193,-11.985895
1003.882812,-10.050839,-14.320916,-8.033845,-2.142361
1003.886719,-7.876812,-6.820013,-10.329625,-3.593253
1003.890625,-3.647615,-0.007370,-0.223876,-1.660460
1003.894531,-1.075456,-6.936239,-1.010863,-9.337731
1003.898438,-5.536258,1.698744,-2.742495,-1.951407
1003.902344,8.250402,1.072983,3.591985,-1.054263
1003.906250,1.328344,12.596932,7.775825,6.012803
1003.910156,9.478710,9.716872,1.726884,10.341542
1003.914062,1.046120,11.907573,14.955562,4.640507
1003.917969,12.013836,12.276107,10.386359,13.344575
1003.921875,11.042348,6.536510,12.781154,14.520513
1003.925781,4.642970,3.768672,11.558239,4.961555
1003.929688,12.293722,10.439374,10.331638,11.217517
1003.933594,16.545271,6.605160,10.431355,7.167762
1003.937500,-0.733619,7.688548,8.689902,11.035092
1003.941406,4.112674,5.201741,9.790765,5.615801
1003.945312,4.611773,1.155565,-0.909850,0.799734
1003.949219,-2.358929,2.305113,7.100922,2.649165
1003.953125,5.438688,-1.144933,-8.669109,5.723526
1003.957031,-0.265490,5.704851,0.879716,-5.056385
1003.960938,-7.737341,-4.361742,-6.361904,0.752239
1003.964844,-11.184157,-4.908660,-5.198782,-15.998337
1003.968750,-5.620383,-0.678225,-13.525413,-10.059097
1003.972656,-12.312544,-7.629854,-11.297569,-9.878837
1003.976562,-13.678881,-2.612244,-10.905810,-13.640747
1003.980469,-6.885855,-8.375821,-8.194017,-6.056676
1003.984375,-10.738148,-11.154617,-10.549781,-7.486795
1003.988281,-3.137699,-11.475879,-1.541204,-4.426946
1003.992188,-2.535582,-3.686531,-6.570477,-2.936801
1003.996094,-6.889819,1.922269,-0.383556,-2.108275
1004.000000,3.228718,-8.718316,-4.118177,-4.521306
1004.003906,1.193009,-1.667659,7.385732,0.745270
1004.007812,4.735657,0.065486,12.466390,11.164810
1004.011719,7.355926,4.288505,3.820712,12.543642
1004.015625,6.807058,0.848782,1.807190,8.462918
1004.019531,11.328840,8.498938,10.463533,6.859917
1004.023438,15.312766,12.688338,4.238581,11.955504
1004.027344,4.442693,3.611053,11.696417,-1.890462
1004.031250,8.958988,11.148015,4.646553,10.248921
1004.035156,3.916929,2.989088,12.236557,4.758915
1004.039062,5.592330,6.676899,5.093402,1.838290
1004.042969,2.215013,6.742864,10.048138,4.835102
1004.046875,-9.887267,8.736990,4.496598,4.157216
1004.050781,-1.413649,-0.676802,1.993979,0.417386
1004.054688,2.534490,-4.515832,-5.111497,-4.877282
1004.058594,-9.983162,1.844195,-8.464332,-13.555324
1004.062500,-9.215734,-12.350756,-4.197266,-6.549822
1004.066406,-7.352816,-11.690523,-5.155092,-8.666616
1004.070312,-17.270168,2.098354,-6.059269,-9.269807
1004.074219,-16.627298,-10.703565,-14.589846,-7.378235
1004.078125,-13.690307,-4.387909,-11.660927,-12.025165
1004.082031,-12.679528,-3.722123,-10.217463,-12.608946
1004.085938,-8.131063,-6.950727,-13.979496,-10.221305
1004.089844,-3.059184,-6.808875,-10.928525,-7.013954
1004.093750,-4.884692,-7.533848,-7.507047,-6.851997
1004.097656,-5.225521,-0.597465,0.589203,3.935675
1004.101562,6.514674,11.090766,-4.107513,-0.768105
1004.105469,1.819382,3.151430,0.556719,1.097191
1004.109375,6.454456,3.657224,4.935008,0.980524
1004.113281,8.015038,11.249957,4.753546,8.670800
1004.117188,14.802025,13.200499,7.863355,12.728529
1004.121094,9.394388,5.646365,17.045246,13.692703
1004.125000,8.614907,12.635290,10.242372,19.998163
1004.128906,3.054281,11.568238,9.796565,8.176304
1004.132812,20.220544,8.316259,0.505701,10.115452
1004.136719,-1.943060,10.469544,5.725633,4.285061
1004.140625,5.069890,7.993063,13.007880,5.340805
1004.144531,3.010029,3.598060,9.117405,0.505264
1004.148438,-1.584453,5.801328,-4.812236,-5.834909
1004.152344,-3.003315,0.719573,1.462177,-8.313778
1004.156250,-4.225785,-6.584197,-5.494859,-8.604559
1004.160156,-1.082508,-5.754882,-7.249790,-1.050594
1004.164062,-13.791793,-6.810063,-4.208653,-1.389869
1004.167969,-10.059251,-8.975627,-13.833255,-10.983099
1004.171875,-14.287639,-11.528877,-9.319516,-10.541806
1004.175781,-8.632171,-9.092614,-5.791316,-14.741319
1004.179688,-11.459591,-4.856369,-16.019690,-13.209379
1004.183594,-10.796833,-3.692828,-6.004226,-12.071829
1004.187500,-7.096244,-3.710405,-3.878424,-9.944131
1004.191406,-1.560000,6.468484,-3.784247,-3.469445
1004.195312,-8.460630,5.232778,-4.011225,-5.038852
1004.199219,3.889729,1.028191,1.309014,0.857520
1004.203125,1.773338,-1.341713,4.556129,3.537669
1004.207031,8.987139,5.186536,8.204536,4.384760
1004.210938,6.266263,3.770788,4.223359,3.197770
1004.214844,10.420671,6.692970,5.856994,12.760790
1004.218750,11.586904,10.856248,9.582629,2.983693
1004.222656,13.059992,9.504279,5.195385,15.668187
1004.226562,10.638847,9.897672,11.256953,8.402826
1004.230469,4.504877,5.710127,15.515445,4.265658
1004.234375,7.287513,6.953285,8.112523,-2.201657
1004.238281,14.878536,-1.518332,8.497987,5.692291
1004.242188,6.430369,3.682945,10.492895,1.799408
1004.246094,-2.412886,3.572028,0.805933,3.516242
1004.250000,1.488672,1.891494,0.724799,-3.877636
1004.253906,-2.958923,2.536004,-6.647026,3.332657
1004.257812,-7.917532,-5.165470,-1.384134,-4.818709
1004.261719,-5.081128,-5.422688,-3.991407,-3.621597
1004.265625,-10.178722,-5.315674,-8.322342,-3.944777
1004.269531,-10.986398,-0.506774,-12.304295,-9.107877
1004.273438,-6.709343,-13.755949,-12.397636,-14.837957
1004.277344,-8.291119,-5.387083,-13.944713,-8.311358
1004.281250,-15.015484,-10.347612,-10.699054,-10.127542
1004.285156,-15.546875,-7.484441,-4.397751,-7.512943
1004.289062,-12.426058,-13.168045,-6.429693,-9.406238
1004.292969,0.610184,-1.773936,-10.164005,1.945484
1004.296875,0.314249,1.121585,6.831291,-6.899121
1004.300781,-2.125738,4.030698,-0.103054,-1.261799
1004.304688,3.059543,1.852817,6.318121,2.693168
1004.308594,5.824445,9.752061,9.706557,3.156844
1004.312500,1.880800,8.909632,14.850713,6.420239
1004.316406,10.498026,15.901719,3.878210,14.713217
1004.320312,9.853707,8.913246,12.755764,1.734232
1004.324219,9.786013,8.930525,8.731514,6.756230
1004.328125,12.467033,17.107905,13.377155,12.616993
1004.332031,12.292812,8.929745,8.140287,13.647561
1004.335938,8.417925,1.470492,9.236138,5.092336
1004.339844,5.912885,6.092131,11.281753,3.388173
1004.343750,-0.117012,6.261773,8.205163,8.077149
1004.347656,-0.940512,-1.186840,-5.125745,6.138473
1004.351562,-1.881065,-7.844096,3.271484,-6.285213
1004.355469,1.701771,-4.156348,-9.256794,2.353043
1004.359375,-7.985439,-3.701408,-12.292633,0.183306
1004.363281,-6.918202,-7.787720,-5.429228,-3.430937
1004.367188,-7.401373,-7.728989,-10.618025,-3.188441
1004.371094,-13.731087,-10.751502,-11.015609,-14.202273
1004.375000,-11.243297,-7.686627,-7.427962,-6.143575
1004.378906,-13.525632,-5.790716,-13.240531,-13.969577
1004.382812,-8.529181,-7.734824,-4.193814,-6.239661
1004.386719,-5.037962,-8.689462,-6.008246,-8.805694
1004.390625,-12.489101,-7.430748,-5.420428,-1.456029
1004.394531,-6.659191,-12.012449,-4.566169,-5.137425
1004.398438,2.962349,-4.649984,-5.183766,3.211642
1004.402344,2.357769,6.601513,2.268732,7.140172
1004.406250,5.110848,2.240290,4.146311,1.737209
1004.410156,12.042968,5.518231,5.013030,12.957096
1004.414062,9.163821,7.933836,3.870657,11.127095
1004.417969,8.134447,8.348156,7.681532,13.611975
1004.421875,9.204918,8.266024,14.866657,10.788808
1004.425781,6.584237,3.880440,7.864289,10.871644
1004.429688,10.684374,9.118930,1.450045,14.983650
1004.433594,17.188163,4.563829,8.175187,4.822847
1004.437500,4.817156,12.422181,9.518385,10.807961
1004.441406,6.224477,8.222226,9.323136,11.858971
1004.445312,2.171278,0.980018,0.884191,-1.742949
1004.449219,1.435767,-3.523418,-4.747240,-5.488112
1004.453125,-7.210994,3.620527,-4.212973,0.951885
1004.457031,-4.758270,-1.911932,-8.155430,-3.892415
1004.460938,-3.552964,-3.724651,-4.509972,-5.278051
1004.464844,-14.702258,-20.430454,-11.848762,-4.888032
1004.468750,-7.991815,-6.231784,-9.150716,-10.432127
1004.472656,-10.169740,-0.150624,-11.097469,-14.235994
1004.476562,-13.728927,-12.709183,-14.708545,-15.301847
1004.480469,-9.698753,-12.750836,-7.750721,-5.516934
1004.484375,-5.191602,-6.473486,-3.222119,-5.697543
1004.488281,-0.337315,-9.023727,-6.265107,-5.576397
1004.492188,-5.521931,-2.488886,1.065735,-1.839288
1004.496094,-1.807696,6.569681,2.572238,-5.003906
1004.500000,-2.274892,0.957769,2.615218,6.161167
1004.503906,2.429617,3.536134,0.139155,4.607975
1004.507812,-3.390462,4.142359,2.885920,10.643501
1004.511719,8.027675,5.135181,4.483113,4.286320
1004.515625,6.697300,3.612643,9.669214,8.615264
1004.519531,8.649019,7.923826,6.279990,9.071943
1004.523438,8.811188,3.649823,14.121174,7.817522
1004.527344,8.603857,9.188142,11.762127,7.439468
1004.531250,6.318132,1.830855,11.074527,7.981755
1004.535156,1.084518,11.995207,5.354564,9.545627
1004.539062,4.502779,-1.545939,8.653952,-0.919774
1004.542969,2.023045,12.021711,8.246621,2.443116
1004.546875,-2.616009,-3.278944,5.924267,5.357318
1004.550781,3.738373,1.014861,0.979125,-6.298940
1004.554688,-0.563588,1.566385,-3.539256,-6.909027
1004.558594,-5.032903,-11.387754,-1.780857,-8.712558
1004.562500,-12.007315,-10.163728,-7.215045,-6.688301
1004.566406,-9.011881,-5.156531,-7.914360,-4.958514
1004.570312,-7.810670,-15.596112,-6.513536,-14.347245
1004.574219,-15.155009,-6.779512,-0.979782,-12.007857
1004.578125,-12.261922,-10.738725,-6.586116,-10.348818
1004.582031,-11.430584,-6.113208,-11.379683,-8.243239
1004.585938,-9.456558,-6.396047,-11.887656,-11.222563
1004.589844,-7.232265,-9.189786,1.625043,-11.641595
1004.593750,-13.158315,4.707882,-3.239922,-6.407569
1004.597656,1.110038,3.095734,7.909080,-1.211575
1004.601562,-0.586296,-2.260659,-2.742309,-2.506663
1004.605469,2.297573,8.430145,6.238681,-0.334797
1004.609375,3.562033,4.318481,7.382985,5.945096
1004.613281,10.461908,9.487562,9.276878,5.023164
1004.617188,13.971314,9.931405,5.299172,6.715657
1004.621094,4.226039,10.883222,11.369785,4.418559
1004.625000,8.320622,14.211061,10.086913,9.852023
1004.628906,9.372730,4.073754,10.036370,14.566045
1004.632812,12.369962,10.931170,5.375936,9.215017
1004.636719,6.557229,0.386542,10.096658,8.186336
1004.640625,6.096154,7.105023,4.427211,9.193112
1004.644531,6.823407,4.029431,-4.265518,7.684729
1004.648438,-1.959069,3.158396,6.994400,-4.962409
1004.652344,1.165662,2.294179,-0.946647,-6.015431
1004.656250,-3.555946,-10.404160,-5.810878,-1.572061
1004.660156,-6.195966,-7.363043,1.784378,-4.241311
1004.664062,-9.948632,0.544896,-11.143313,-9.979873
1004.667969,-9.195302,-15.604708,-10.861386,-4.523137
1004.671875,-5.475188,-8.213536,-0.203516,-8.867119
1004.675781,-7.891943,-11.492156,-10.441395,-15.189046
1004.679688,-6.461454,-6.730418,-11.659535,-2.890549
1004.683594,-11.473046,-14.122301,-5.625688,-8.631046
1004.687500,-10.027839,-4.258373,-5.847390,0.774721
1004.691406,-9.858513,-0.661681,-1.682281,-10.022613
1004.695312,-4.845234,-7.518050,-4.063818,0.387030
1004.699219,-1.021532,1.647665,3.017772,3.054342
1004.703125,0.971110,0.954625,4.221264,1.689367
1004.707031,4.045400,10.575012,2.174748,11.546807
1004.710938,6.742189,8.813292,5.263115,-0.907756
1004.714844,12.889254,8.634472,2.955936,5.161417
1004.718750,11.806521,1.579157,8.427408,10.915901
1004.722656,15.572383,7.487648,7.650826,6.908162
1004.726562,4.526674,8.506775,6.026236,15.922816
1004.730469,11.833726,13.114301,13.638365,3.972221
1004.734375,6.953849,11.219534,17.773406,15.025057
1004.738281,9.409200,5.543914,8.295576,9.224021
1004.742188,2.894591,8.751388,1.458763,3.264398
1004.746094,9.406781,1.512056,6.907725,1.895736
1004.750000,1.687445,0.588154,0.502396,1.063886
1004.753906,-4.926402,-7.966968,-3.453243,-3.177688
1004.757812,-4.535955,-0.943809,-6.072890,-8.391179
1004.761719,-3.738692,-9.166139,-1.929674,-8.280541
1004.765625,-5.269826,-15.471723,-13.319093,-5.093442
1004.769531,-8.154069,-11.523840,-12.537343,-6.722435
1004.773438,-10.374050,-12.660512,-6.860818,-6.885234
1004.777344,-8.823917,-4.404339,-10.737664,0.270886
1004.781250,-5.041232,-0.576571,-5.714847,-11.817793
1004.785156,-7.827324,-11.258147,-7.980834,-9.857599
1004.789062,-12.373239,2.522291,-2.675017,-3.976495
1004.792969,-1.748418,-6.146924,-8.355907,-0.331303
1004.796875,-4.954601,-3.146756,1.622429,-1.719588
1004.800781,3.305819,-4.890898,-4.307691,4.270073
1004.804688,7.618107,4.392956,7.616005,3.203435
1004.808594,-0.171949,3.415262,2.016224,9.651520
1004.812500,2.103776,11.157940,0.573134,10.395577
1004.816406,8.885209,12.624671,2.418054,2.966032
1004.820312,14.553230,8.873054,6.577079,12.882115
1004.824219,6.885446,4.357631,8.396327,13.453356
1004.828125,7.831545,7.974464,6.524396,11.952894
1004.832031,9.762580,8.401789,11.504158,9.064934
1004.835938,7.856928,5.570592,5.188362,6.160625
1004.839844,5.002622,5.314560,9.293405,5.890145
1004.843750,7.226821,2.098615,2.897307,7.058933
1004.847656,5.202657,5.483498,-3.631924,-1.216098
1004.851562,-0.341208,-0.201038,-3.212398,-5.390099
1004.855469,-4.942319,-9.493249,1.869364,-4.512238
1004.859375,-0.480578,-1.890589,-5.577339,-5.928963
1004.863281,-9.521429,-10.555150,-6.635823,-8.558022
1004.867188,-15.545833,-17.826424,-10.836370,-12.528002
1004.871094,-13.479092,-7.248260,-13.189307,-3.687076
1004.875000,-13.969819,-16.121001,-9.636080,-7.134907
1004.878906,-6.946684,-13.559804,-11.620605,-9.907766
1004.882812,-11.143358,-4.186694,-6.563140,-13.186342
1004.886719,-6.611203,-3.898196,-8.545196,-3.730930
1004.890625,-2.553903,-8.009221,1.968228,1.420007
1004.894531,2.100157,-1.808314,-3.864704,-0.761206
1004.898438,0.884836,0.644136,0.068243,2.606930
1004.902344,-0.620842,-3.906238,0.315916,5.941324
1004.906250,0.381057,5.225910,8.220862,5.749494
1004.910156,5.788167,5.141431,6.095549,5.628284
1004.914062,10.115852,5.876432,9.826937,6.000468
1004.917969,0.132373,7.828435,3.458567,1.429748
1004.921875,4.485054,13.526430,12.351459,4.650293
1004.925781,7.256025,3.764953,3.692339,15.107858
1004.929688,8.878955,10.117136,6.506649,13.362652
1004.933594,11.031238,7.633144,10.385913,8.840383
1004.937500,2.704532,1.706220,5.786448,2.711844
1004.941406,9.097908,0.687660,6.100506,-0.599666
1004.945312,0.206664,4.000754,0.496148,1.805076
1004.949219,0.900708,1.250484,0.402817,-2.865135
1004.953125,-2.959395,-2.079554,1.423464,3.022210
1004.957031,0.695701,-0.546080,-4.835191,-6.916620
1004.960938,-1.914045,-0.464401,-3.049165,-7.942059
1004.964844,-4.166473,-9.240728,-10.745169,-6.641455
1004.968750,-7.569968,-4.201707,-7.988852,-2.647831
1004.972656,-11.230119,-5.565787,-11.801847,-5.472357
1004.976562,-14.644113,-11.768601,-14.747665,-13.763945
1004.980469,-7.232843,-9.420485,-17.818019,-10.108595
1004.984375,-9.757008,2.236981,-11.063860,-2.750664
1004.988281,-15.522471,-4.744209,-0.603441,-5.531057
1004.992188,-4.790510,-5.715604,-1.310190,-7.796801
1004.996094,-3.660309,-4.223984,-1.110216,-0.947226
1005.000000,7.918142,-4.026433,-1.373225,-0.004354
1005.003906,5.867953,8.392234,4.332771,11.949448
1005.007812,4.474644,4.579837,-2.782223,-0.929570
1005.011719,-1.847045,6.495431,2.635611,8.205021
1005.015625,4.846277,7.573225,12.454872,8.655577
1005.019531,14.439947,7.861186,10.976979,11.239568
1005.023438,14.803400,1.945299,10.708918,11.650848
1005.027344,9.903964,7.539592,6.641854,8.442653
1005.031250,6.363886,7.641167,8.749994,14.638190
1005.035156,11.837483,6.553102,9.929171,6.532963
1005.039062,11.291786,-2.068036,10.377886,1.901863
1005.042969,3.297925,8.155593,1.424084,-0.126347
1005.046875,1.554200,3.083726,5.540031,5.924322
1005.050781,3.105745,-3.514734,0.990625,-2.498917
1005.054688,-2.260561,2.343914,3.224116,0.385114
1005.058594,-6.777844,-0.020077,-1.036567,-7.905445
1005.062500,-3.323125,-8.283108,-11.067247,-12.429680
1005.066406,-12.848029,-12.618046,-7.784294,-7.888333
1005.070312,-9.754818,-6.500498,-3.715553,-3.654995
1005.074219,-7.336220,-3.809396,-13.602770,-9.027156
1005.078125,-15.320485,-6.892256,-10.015718,-7.525449
1005.082031,-9.535487,-9.410849,-14.878658,-5.627805
1005.085938,3.384048,-5.344083,-15.867414,-10.232267
1005.089844,-5.257969,-11.186315,-4.785339,-4.203273
1005.093750,5.113548,-5.497342,-10.876202,-4.378087
1005.097656,0.827613,-0.742978,-1.417303,-0.145723
1005.101562,-2.712042,3.054905,-0.555257,1.559506
1005.105469,4.335930,-0.795829,5.003882,-1.316358
1005.109375,4.812004,2.101313,7.037948,7.426897
1005.113281,9.549001,0.431628,9.098370,9.060975
1005.117188,11.845222,12.839399,6.689630,5.120411
1005.121094,10.202611,13.677992,4.205877,6.293749
1005.125000,9.974174,11.988695,5.954266,5.947772
1005.128906,3.864779,3.516393,8.310367,8.689929
1005.132812,9.149549,6.451023,6.137873,9.115627
1005.136719,0.991694,8.728934,5.315139,2.958245
1005.140625,0.957942,10.941636,8.347881,4.999774
1005.144531,10.982930,1.635980,6.405483,9.996781
1005.148438,1.626501,6.323056,-0.034913,9.977606
1005.152344,-4.328365,-1.078310,-2.627363,-3.818040
1005.156250,0.979986,-1.149843,-5.896537,-8.846095
1005.160156,-8.088374,-13.951067,-6.068954,-10.688078
1005.164062,-2.898239,-2.847679,-8.246003,-8.669117
1005.167969,-13.016926,-4.374546,-9.009005,-9.804066
1005.171875,-13.975559,-6.649458,-9.910671,-7.124391
1005.175781,-20.513695,-12.297764,-9.757905,-13.049252
1005.179688,-9.746148,-12.850335,-11.688015,-12.439811
1005.183594,-6.476469,-6.385672,-10.843348,-9.698666
1005.187500,3.707964,-12.621281,-1.944323,-9.419686
1005.191406,-7.778788,-5.568770,-5.573012,3.236323
1005.195312,-0.906781,-6.168693,-4.488249,-6.004254
1005.199219,8.833146,5.905423,-0.761977,-4.379848
1005.203125,3.500858,2.513022,8.775830,0.465097
1005.207031,5.638384,3.555916,4.439275,10.442690
1005.210938,14.836148,6.943677,3.003531,4.516448
1005.214844,1.284877,6.888307,12.633993,8.137393
1005.218750,5.512554,5.197161,6.091017,13.448085
1005.222656,10.298106,8.062634,10.381818,14.068482
1005.226562,3.750471,8.884588,9.321879,8.575598
1005.230469,14.656638,11.043613,13.108462,11.520498
1005.234375,11.647091,2.589307,6.800121,5.875278
1005.238281,5.533217,9.114784,3.779517,4.156541
1005.242188,0.797913,1.220694,13.834991,6.996894
1005.246094,1.722220,1.785982,-5.895072,4.021513
1005.250000,-2.483788,-4.841402,1.184062,-2.483154
1005.253906,-5.512979,-9.472220,-5.588692,-1.842680
1005.257812,-3.407540,-3.706875,-7.671306,-10.979112
1005.261719,-6.783025,-8.544102,-10.030217,-6.062320
1005.265625,-7.341619,-8.165769,-9.691659,-9.488125
1005.269531,-8.144991,-2.767067,-7.748999,-16.206794
1005.273438,-11.601622,-17.182903,-10.804680,-9.875399
1005.277344,-11.529459,-4.705448,-10.239213,-5.998601
1005.281250,-7.672200,-12.021026,-15.632168,-3.350374
1005.285156,-4.533725,-10.860693,-5.375408,-13.290181
1005.289062,-13.802381,-9.694913,-9.465022,-3.830233
1005.292969,-12.068619,-1.166990,-11.196759,1.535661
1005.296875,-2.449101,-5.008287,1.669847,-2.981273
1005.300781,-0.442950,0.772752,4.350661,-0.389095
1005.304688,4.680450,5.529071,11.049543,5.697863
1005.308594,3.380685,0.924219,8.497740,1.739577
1005.312500,5.090865,10.806766,0.754052,11.969499
1005.316406,9.832490,13.908086,14.384471,12.205119
1005.320312,12.212847,13.711631,14.162309,8.146766
1005.324219,11.483568,12.999262,7.057574,5.449925
1005.328125,7.030499,6.998125,10.128905,10.257810
1005.332031,3.572460,12.578157,6.977139,13.897671
1005.335938,1.921171,11.288444,12.845826,15.003246
1005.339844,10.540385,3.081223,4.048628,0.671497
1005.343750,5.162376,5.048080,4.680387,-7.080215
1005.347656,-1.891165,1.616502,2.554154,-0.279885
1005.351562,-0.860533,-2.447298,-4.591890,-7.470204
1005.355469,-8.266585,-4.290445,-2.733325,-1.515757
1005.359375,-5.139321,-5.669115,-6.835209,-2.839997
1005.363281,-11.718739,-1.798449,-11.089506,-2.638095
1005.367188,-9.012324,-10.123984,-9.450687,-7.058463
1005.371094,-11.523704,-4.686905,-3.720230,-5.160622
1005.375000,-6.860391,-13.650472,-8.002102,-9.997135
1005.378906,-6.349134,-7.833486,-7.413001,-4.444203
1005.382812,-6.620387,-7.860430,-5.129609,-12.240532
1005.386719,-3.649313,-5.908830,-5.902668,-6.240997
1005.390625,-3.966136,-3.607415,-5.643096,-5.961310
1005.394531,-3.925141,-6.018590,6.029506,-8.358839
1005.398438,2.262375,-6.365870,1.497242,6.115520
1005.402344,4.200470,-2.183426,-0.540865,8.206536
1005.406250,6.015041,7.333616,-3.758524,8.800315
1005.410156,7.146223,5.047257,-4.981106,0.774269
1005.414062,0.486191,10.659574,10.704192,12.959844
1005.417969,12.642676,10.051474,6.089472,13.473476
1005.421875,13.108167,15.044207,13.997467,10.095795
1005.425781,18.554587,8.215499,5.500729,7.120397
1005.429688,7.855666,6.785876,9.363918,7.278194
1005.433594,8.685187,9.461590,5.960694,-0.607998
1005.437500,5.190247,4.491231,7.729461,0.313983
1005.441406,3.673807,-0.632477,6.480996,6.194778
1005.445312,4.053511,-0.020030,4.601994,0.059587
1005.449219,4.632600,-5.897033,0.471394,1.706996
1005.453125,-0.175293,-3.454296,-6.062647,-1.096534
1005.457031,-7.169438,-0.120795,-6.636623,0.299812
1005.460938,-14.272365,-4.521222,-6.801765,-1.240086
1005.464844,-11.970793,-10.912963,-3.247331,-3.406109
1005.468750,-11.250269,-5.689747,-10.312528,-10.029272
1005.472656,-5.233086,-7.330328,-2.087802,-5.238489
1005.476562,-10.977553,1.038238,-12.196012,-9.594449
1005.480469,-13.434597,-7.601597,-12.412998,-14.904056
1005.484375,-10.260964,-10.952553,-11.287808,-7.908678
1005.488281,-5.613984,-1.240747,2.441082,-5.757098
1005.492188,-6.145581,-6.799883,-2.298433,-0.718248
1005.496094,-2.147684,-6.018816,-5.149462,-4.908071
1005.500000,-5.837937,1.639339,-0.095653,1.867170
1005.503906,3.118358,6.319593,2.961903,3.658857
1005.507812,10.540064,2.929093,9.362250,0.075724
1005.511719,-0.901186,5.129275,2.068069,6.422775
1005.515625,9.983303,9.395509,5.088314,12.743947
1005.519531,11.505905,7.821638,17.717989,8.956308
1005.523438,12.107586,8.993380,13.375805,19.613888
1005.527344,7.904044,3.223935,16.622440,6.718756
1005.531250,3.912994,14.503791,9.221055,10.155557
1005.535156,12.930186,9.031566,-0.395036,4.942157
1005.539062,1.456572,3.512890,-1.075080,10.782284
1005.542969,2.193284,6.621607,3.120874,5.480532
1005.546875,2.119109,7.823339,10.802723,2.089759
1005.550781,4.552633,-3.435261,-5.617966,2.183910
1005.554688,0.303952,-4.449952,-0.960672,2.208509
1005.558594,-11.774140,-7.976741,-5.394449,-5.057324
1005.562500,-9.600872,-8.146668,-5.542926,-3.244324
1005.566406,-5.607577,-15.098785,1.657535,-16.693056
1005.570312,-12.954778,-7.428628,-10.233219,-6.558113
1005.574219,-12.753834,-14.130375,-8.435816,-11.001768
1005.578125,-10.928470,-11.688219,-14.952410,-10.616645
1005.582031,-4.970584,-8.613589,-5.552962,-15.133294
1005.585938,-5.909679,-6.735899,-8.479859,-4.837781
1005.589844,-1.923770,-6.597215,-4.002983,-10.275945
1005.593750,-3.367310,-2.193015,-6.449408,-8.891625
1005.597656,-6.412769,4.921729,-8.411316,-2.679080
1005.601562,4.646088,-6.683349,1.586893,0.310575
1005.605469,2.749938,2.123987,4.359716,1.431373
1005.609375,13.062218,12.686327,11.591984,5.367205
1005.613281,9.025982,3.935264,16.201522,9.546045
1005.617188,5.051422,14.292709,6.608357,6.610905
1005.621094,8.064116,9.825070,9.817207,10.568884
1005.625000,16.777328,9.185172,14.055215,13.123508
1005.628906,16.284600,15.526693,6.837499,9.115538
1005.632812,14.290785,7.555946,8.678627,6.861980
1005.636719,0.360837,7.939478,2.621304,8.950172
1005.640625,10.168095,6.344531,8.863860,3.465892
1005.644531,3.133790,-2.647380,1.168973,5.123790
1005.648438,5.788645,-6.725311,0.569856,3.991951
1005.652344,-3.947776,-1.498960,-2.561078,-1.596096
1005.656250,-6.321646,-9.541373,-0.944089,-2.140333
1005.660156,-7.383807,-5.358818,-20.860298,-1.746238
1005.664062,-10.387154,-5.131236,4.194785,-4.268799
1005.667969,-4.927979,-3.725360,-6.259825,-1.838711
1005.671875,1.067703,-8.950786,-10.916998,-13.362763
1005.675781,-4.580163,-8.494722,-11.954687,-1.552443
1005.679688,-16.773543,-11.606670,-11.001448,-8.379731
1005.683594,-13.908725,-12.318903,-3.106510,-8.934526
1005.687500,-1.381585,-9.142610,-10.757648,-4.724936
1005.691406,-2.672190,-0.051133,-8.343330,-0.555927
1005.695312,-6.742627,-0.744078,-5.249638,-9.978704
1005.699219,-7.310020,3.380123,-5.056017,1.229900
1005.703125,-13.385122,5.427575,5.774324,3.347602
1005.707031,1.140719,1.940715,0.853573,7.401429
1005.710938,16.423811,-1.408725,8.103738,13.419063
1005.714844,5.067036,3.734338,10.308345,6.023457
1005.718750,5.610173,8.103362,6.952659,9.277066
1005.722656,15.378191,13.948125,12.105779,18.592575
1005.726562,11.612516,9.775449,8.461260,13.917935
1005.730469,11.231674,8.665257,9.348074,12.165930
1005.734375,15.754496,8.512302,7.168151,11.024175
1005.738281,6.260495,-0.739342,6.058711,17.956360
1005.742188,7.100627,7.438134,7.450783,6.565997
1005.746094,2.939924,5.958221,-1.127728,8.561173
1005.750000,2.904700,0.147690,4.653733,-7.129335
1005.753906,-2.824269,-3.078326,6.660056,-3.225122
1005.757812,-9.349886,0.142595,1.095857,-6.484864
1005.761719,-16.632637,-5.685501,-6.999994,-1.936821
1005.765625,-13.597687,-11.711759,-9.241594,-0.903377
1005.769531,-12.581063,-10.537304,-5.101523,-9.554550
1005.773438,-3.796280,-12.977565,-9.060670,-7.442878
1005.777344,-7.379820,-8.077671,-4.554486,-9.454977
1005.781250,-10.111859,-5.180224,3.940334,-0.944073
1005.785156,-7.406676,-11.906237,-8.005403,-11.208051
1005.789062,-6.233641,-8.240054,-14.223479,-7.581743
1005.792969,-5.782978,-1.320467,-6.484249,2.185824
1005.796875,-2.637552,-10.919458,-2.019869,-4.043764
1005.800781,2.649883,3.580877,1.248751,1.199590
1005.804688,1.659886,2.623099,9.361226,2.350968
1005.808594,4.823766,9.436367,9.250937,-1.532448
1005.812500,7.037153,0.452005,5.724122,-2.768300
1005.816406,12.686161,7.052163,2.936674,8.107664
1005.820312,20.802446,6.638477,11.016335,13.166824
1005.824219,5.908143,8.726968,11.305767,6.967880
1005.828125,8.320612,14.386716,12.193751,6.030445
1005.832031,15.946079,13.871436,8.130170,-0.860774
1005.835938,3.115905,6.155738,3.608962,0.991323
1005.839844,12.340512,8.481772,3.688588,5.668832
1005.843750,6.469177,8.823607,6.125474,8.211648
1005.847656,-2.595356,2.426834,-0.362105,-2.641764
1005.851562,-3.015089,3.731279,1.523798,-3.475345
1005.855469,-5.882802,-4.200787,2.287725,-0.938332
1005.859375,-7.470280,-0.966059,-7.093367,-1.632314
1005.863281,-8.556016,-5.723269,-7.060014,-3.569733
1005.867188,-10.712667,-7.859255,-9.471795,-6.688755
1005.871094,-9.040877,-14.787406,-11.636070,-11.394669
1005.875000,-7.487046,-10.052109,-13.321715,-11.540509
1005.878906,-9.044499,-10.490549,-15.714300,-4.420439
1005.882812,-11.220021,-5.623896,-15.094196,-9.699730
1005.886719,-6.540747,-11.113530,-5.584821,-10.175184
1005.890625,-4.760421,-9.441530,-11.453533,-0.860931
1005.894531,-2.057259,-7.046608,-7.007838,-9.551747
1005.898438,-4.554775,0.536895,-1.121158,-7.343976
1005.902344,-0.487015,10.072966,-0.991146,5.316280
1005.906250,2.207853,1.078238,-1.788311,2.945519
1005.910156,4.958288,9.492497,10.075437,-0.392123
1005.914062,5.634453,5.062445,15.882923,2.377361
1005.917969,8.199166,2.487205,8.418374,13.378562
1005.921875,16.143142,10.002464,4.846235,13.733010
1005.925781,8.311765,12.600857,5.302789,5.217208
1005.929688,12.266214,7.408795,11.866316,5.758329
1005.933594,7.250587,3.270721,7.157271,7.627598
1005.937500,1.567978,17.879082,9.146868,9.394145
1005.941406,10.643468,2.218379,5.949284,2.327953
1005.945312,5.136625,12.675650,1.870776,2.873346
1005.949219,6.842253,4.162405,4.249326,1.074549
1005.953125,-3.326040,-5.564551,-0.122478,0.917998
1005.957031,-1.976863,-4.683053,6.993425,-2.931858
1005.960938,-1.115097,-5.820421,-5.715467,-2.099696
1005.964844,-7.761603,-11.069748,-7.804451,-10.273558
1005.968750,-7.964188,-7.982948,-6.041872,-13.579467
1005.972656,-17.838797,-12.805109,2.390800,-11.469372
1005.976562,-16.048227,-2.728086,-10.948212,-9.375494
1005.980469,-9.590192,-12.895239,-9.493540,-11.152809
1005.984375,-7.212165,-1.869656,-5.819147,-12.802404
1005.988281,-11.006011,-13.251560,-7.002439,-6.081306
1005.992188,-7.093110,4.250127,-9.074441,-7.827110
1005.996094,-1.893388,-1.670355,-3.716608,-9.129405
1006.000000,1.551026,2.850981,-6.593698,0.005410
1006.003906,0.395835,-5.574246,-0.381213,4.256659
1006.007812,-3.020476,2.025562,2.051954,4.230490
1006.011719,5.115384,2.355746,4.827044,3.818782
1006.015625,14.075784,11.834946,8.893029,6.206148
1006.019531,12.638451,13.184427,8.771497,17.503636
1006.023438,10.785867,11.054892,9.518685,11.344555
1006.027344,14.530013,5.906108,4.492688,11.680810
1006.031250,15.899736,10.231515,-0.190251,6.179661
1006.035156,9.707545,10.195511,14.229282,0.781896
1006.039062,10.550545,6.251558,8.784803,7.167752
1006.042969,4.165802,1.777603,-2.238300,10.517853
1006.046875,6.393053,9.189724,1.960356,-2.011424
1006.050781,3.899950,-0.515778,4.926652,-4.177215
1006.054688,-1.291258,-2.224103,-8.267674,-1.266545
1006.058594,-16.591409,-2.376059,-5.942074,-4.125998
1006.062500,-5.309263,-4.437192,-6.365892,-12.588962
1006.066406,-7.877848,-9.312897,-5.153924,-7.412344
1006.070312,-9.071833,-8.811268,-11.200329,-6.878732
1006.074219,-11.847734,-14.142458,-13.037022,-14.257962
1006.078125,-7.263889,-7.475552,-11.973129,-7.271874
1006.082031,-12.106743,-4.093435,-9.369496,-0.196348
1006.085938,-8.294890,-5.512558,-1.079532,-5.148610
1006.089844,-7.169100,2.630578,-4.109685,-8.494760
1006.093750,0.063055,5.974490,1.858125,-1.103991
1006.097656,1.457743,-2.499008,0.740362,-4.895372
1006.101562,8.456120,7.612283,-0.848702,9.955923
1006.105469,-4.469472,2.507029,8.181893,1.420527
1006.109375,3.441259,2.196829,2.132024,7.918264
1006.113281,7.249156,16.348275,10.513210,6.469738
1006.117188,9.020822,10.820030,8.308935,11.180484
1006.121094,11.603096,13.705373,5.579378,8.940153
1006.125000,6.845453,2.868133,2.394682,9.902535
1006.128906,2.488314,1.830960,10.741227,13.873012
1006.132812,11.482663,6.448868,5.861820,11.334981
1006.136719,5.364477,0.724208,8.563132,6.603252
1006.140625,5.885931,1.554407,5.990842,5.748693
1006.144531,10.604267,-2.442640,6.300063,3.379449
1006.148438,6.346389,1.481038,-0.896530,-0.154750
1006.152344,5.150972,-7.648240,-6.309335,-6.061164
1006.156250,-5.065887,-3.166561,-3.046018,-8.651147
1006.160156,-2.984606,-7.026836,0.462440,-3.953624
1006.164062,-8.045853,-8.891724,-12.384162,-4.133344
1006.167969,-4.361950,-10.239026,-10.025410,-3.799562
1006.171875,-10.774658,-12.947015,-1.018956,-14.631537
1006.175781,-13.469432,-15.426191,-10.127161,-12.729871
1006.179688,-8.656572,-11.862573,-13.675425,-14.329284
1006.183594,-13.668123,-12.197699,-10.943159,-11.078094
1006.187500,0.637820,-3.154992,-7.478807,-9.001522
1006.191406,-8.386537,-6.216526,-9.813993,-4.614908
1006.195312,-5.464648,-5.712612,1.777792,-4.151262
1006.199219,-3.142824,-4.707987,7.429040,0.653313
1006.203125,-4.065518,0.631037,-0.888161,-3.232968
1006.207031,8.679247,4.792832,8.555328,8.913813
1006.210938,11.388255,8.646636,2.228893,13.118159
1006.214844,2.631321,7.625721,15.457914,8.355683
1006.218750,6.015141,9.741290,13.407999,8.588360
1006.222656,10.459097,13.853233,8.252458,15.452720
1006.226562,8.278984,12.069699,12.005802,16.880251
1006.230469,8.621297,7.076442,3.528312,13.875747
1006.234375,4.505790,11.947017,8.374420,12.653016
1006.238281,3.726150,4.420790,7.164299,5.040334
1006.242188,8.469691,6.468175,7.279704,6.052684
1006.246094,-4.087939,-0.075865,6.704083,3.099073
1006.250000,1.592964,-0.376584,-3.425944,-0.223525
1006.253906,-5.919807,-1.931037,3.173733,-6.979185
1006.257812,-2.191468,-7.310881,4.329538,-7.078944
1006.261719,-2.487736,-5.591662,-8.856873,-7.326508
1006.265625,-10.735838,-13.229296,-12.080879,-9.446035
1006.269531,-11.330033,-10.662413,-5.526159,-10.341056
1006.273438,-6.113715,-9.424206,-16.792097,-3.504969
1006.277344,-13.457449,-4.641659,-6.276947,-11.236796
1006.281250,-12.542850,-11.099053,-14.897345,-15.878506
1006.285156,-10.499083,-4.610539,-3.342940,-6.198280
1006.289062,-4.902580,-8.697267,-12.236990,-12.066128
1006.292969,2.350618,-10.460851,-3.470843,-1.269594
1006.296875,4.547181,3.967163,-9.440315,-3.230481
1006.300781,-2.570660,-0.472963,0.243897,1.338807
1006.304688,0.774435,1.391377,4.391228,1.691410
1006.308594,-2.124706,13.126483,13.020871,6.020911
1006.312500,12.302031,8.258014,11.581590,2.917042
1006.316406,16.913326,2.506858,9.831349,9.197285
1006.320312,7.508034,3.967946,12.848535,7.619698
1006.324219,10.917359,3.695608,13.252529,2.430362
1006.328125,9.386286,6.579150,11.898871,13.074871
1006.332031,11.583108,12.323387,14.075731,13.325933
1006.335938,9.577284,11.422196,11.842044,15.477377
1006.339844,4.213037,9.090834,1.188248,0.384459
1006.343750,-0.162556,3.209357,2.053491,8.958634
1006.347656,9.310954,0.369917,2.911818,-3.665850
1006.351562,5.049548,-0.900522,-4.752098,-3.269608
1006.355469,-4.541763,1.045700,0.569272,-5.570175
1006.359375,-5.443013,-6.952116,-2.672167,-7.172553
1006.363281,-10.093966,-14.134001,-5.183538,-5.880440
1006.367188,-5.105049,-6.335673,-8.972182,-9.183974
1006.371094,-16.173352,-8.181810,-12.656556,-6.827290
1006.375000,-16.390088,-11.577102,-13.445552,-7.469382
1006.378906,-15.196206,-5.156143,-14.232012,-8.183157
1006.382812,-7.961123,-8.967793,0.538398,-7.251337
1006.386719,-5.347403,-12.128028,-8.234764,-14.933536
1006.390625,4.417428,-5.275929,2.702177,-8.365698
1006.394531,-4.721518,-8.708269,-9.902244,-0.103648
1006.398438,2.336034,-2.500187,-3.861438,-4.155874
1006.402344,0.695229,1.343975,4.492248,7.112679
1006.406250,4.546260,3.208848,3.773987,2.802609
1006.410156,5.002992,5.644700,5.711109,1.575890
1006.414062,8.684312,10.305979,11.326216,10.303832
1006.417969,4.030699,11.224959,10.618649,0.721633
1006.421875,3.895378,6.205505,10.880425,9.203117
1006.425781,9.647607,7.294572,-0.023203,12.577112
1006.429688,16.268118,7.262626,15.678316,10.593905
1006.433594,3.444676,4.740420,1.804893,12.374339
1006.437500,8.993079,3.524210,7.687558,8.371032
1006.441406,2.553245,-2.083059,5.470406,7.812768
1006.445312,4.486642,1.506075,1.973008,-0.256776
1006.449219,4.501429,3.432024,2.151167,2.033722
1006.453125,-1.187828,0.703776,-2.081160,5.767170
1006.457031,-3.004210,-2.061840,-2.408271,1.398342
1006.460938,-1.494611,-12.173231,-4.899077,0.330466
1006.464844,-10.428620,-8.161949,-1.802868,-5.628707
1006.468750,-14.170520,-8.992729,-11.437454,-7.096420
1006.472656,-10.850887,-10.227930,-6.497422,-3.805742
1006.476562,-11.535253,-14.288956,-9.328538,-2.693474
1006.480469,-21.523133,-5.999955,-14.342253,-11.321388
1006.484375,-16.285567,-6.855184,-13.042067,-8.074534
1006.488281,-7.380377,-3.971650,-7.514013,-14.581878
1006.492188,-3.586947,-8.723969,-4.657056,-5.219567
1006.496094,-2.199062,-5.077951,-7.706153,-0.514426
1006.500000,-6.300966,-5.317379,-1.804723,-3.314400
1006.503906,5.297934,1.693112,5.704455,1.629602
1006.507812,2.521505,5.071398,3.356051,10.189646
1006.511719,7.601704,6.138829,3.204823,2.443366
1006.515625,13.778436,17.353996,5.448969,2.928748
1006.519531,9.212874,6.913794,9.864765,9.123953
1006.523438,13.646971,9.108472,8.825962,8.986478
1006.527344,11.159473,11.916739,13.254072,12.403875
1006.531250,8.060372,9.197724,8.806729,4.015154
1006.535156,7.745429,13.586867,10.965457,5.892743
1006.539062,2.151327,3.688715,5.039019,5.388726
1006.542969,5.861574,1.953879,1.120049,3.828804
1006.546875,10.123932,-5.728022,-0.210242,-8.253797
1006.550781,-1.438592,2.703246,-11.324344,-0.976400
1006.554688,-2.755156,-4.478904,-9.044197,-7.652587
1006.558594,-12.160583,-4.251003,-4.915236,-3.266551
1006.562500,-7.703875,-2.060300,-6.031428,-9.807597
1006.566406,-5.151013,-6.733235,-7.777805,-7.442578
1006.570312,-7.510504,-7.338702,-14.075471,-10.914346
1006.574219,-2.849026,-9.327419,-17.636563,-2.877752
1006.578125,-3.863281,-9.990325,-13.946998,-9.664337
1006.582031,-2.329958,-10.852589,-8.575078,0.548671
1006.585938,-12.403449,-15.684482,-10.926287,-10.034918
1006.589844,-7.399329,-6.183152,-0.568692,-7.598296
1006.593750,0.435890,-2.100659,-8.409715,-11.858344
1006.597656,6.152389,-1.312236,0.167336,0.137775
1006.601562,-1.650605,4.421099,2.948196,0.890692
1006.605469,5.156879,2.149791,11.546954,11.348341
1006.609375,7.654221,8.529782,2.428624,5.830312
1006.613281,7.427139,7.291900,1.317589,5.388546
1006.617188,19.061680,6.193939,1.672729,10.157405
1006.621094,8.974818,7.836495,11.658644,11.127235
1006.625000,18.924573,12.840272,11.288534,3.661780
1006.628906,16.092924,9.811212,5.902131,12.843341
1006.632812,4.645153,12.030315,9.662706,7.983942
1006.636719,8.753309,4.997447,6.125392,9.372595
1006.640625,4.897794,12.423822,11.008112,7.159203
1006.644531,7.160159,4.792175,11.545735,-1.162440
1006.648438,0.840111,1.077010,-1.556690,-7.125317
1006.652344,-5.941661,-4.065135,4.359700,2.382126
1006.656250,0.259780,-3.346462,-7.694677,-10.560412
1006.660156,-3.678658,-6.528399,-5.968316,-7.330975
1006.664062,-15.407483,-7.195085,-2.169200,-4.720286
1006.667969,-5.073721,-8.494238,-11.412529,-11.473408
1006.671875,-4.842044,-5.603903,-8.689335,-12.338367
1006.675781,-4.475792,-15.749228,-7.175122,-6.598015
1006.679688,-8.695619,-18.764421,-12.821663,-0.830064
1006.683594,-5.955272,-4.881946,-13.770183,-9.972411
1006.687500,-9.458245,-10.369187,-5.078282,-4.797257
1006.691406,-13.332403,-6.893441,-8.102831,-9.398276
1006.695312,-3.277389,-10.387502,-2.228603,-1.186593
1006.699219,-1.528711,-0.790860,-7.063551,2.814830
1006.703125,7.214392,9.628793,3.149958,-1.349216
1006.707031,5.110477,0.933785,4.144576,8.309008
1006.710938,4.971881,11.005581,2.297356,8.885076
1006.714844,8.190229,4.959814,7.756890,3.514434
1006.718750,11.459959,13.018949,2.996173,7.920864
1006.722656,7.960112,14.011517,11.512875,17.017683
1006.726562,9.697138,9.029933,19.581484,7.451911
1006.730469,8.224028,8.534454,6.873453,12.486070
1006.734375,3.834132,7.959506,8.001484,10.345590
1006.738281,3.385817,8.180105,3.684121,13.250254
1006.742188,18.728649,1.478874,-3.147593,-2.001122
1006.746094,-2.836358,-0.908999,0.002734,-1.392421
1006.750000,3.084817,0.766686,0.298437,-1.183090
1006.753906,3.877074,3.383811,-0.909606,-1.189511
1006.757812,-0.534502,-2.404725,-2.060135,2.485552
1006.761719,-6.054014,-5.174393,-6.830100,-2.839697
1006.765625,-5.598764,-3.620274,-10.315826,-5.536394
1006.769531,-2.503314,-10.617698,-13.621057,-11.511712
1006.773438,-4.709789,-10.042378,-16.139118,-12.696284
1006.777344,-11.291471,-10.593067,-1.348192,-10.693038
1006.781250,-12.155622,-8.993625,-9.563087,-12.093328
1006.785156,-14.114656,-12.772851,-13.265705,-5.431555
1006.789062,-8.798739,-3.576469,-12.294238,-5.851204
1006.792969,-5.897971,-2.066311,-6.657761,-0.954716
1006.796875,-11.945561,-2.325824,1.728957,1.738853
1006.800781,1.435025,2.267161,0.358768,-3.495084
1006.804688,8.372657,10.535370,9.130821,3.888576
1006.808594,1.912517,9.452452,-2.644706,5.477338
1006.812500,10.808535,2.424613,7.943045,4.691422
1006.816406,6.585801,6.532734,5.672209,10.010417
1006.820312,15.347692,2.305209,11.148663,12.118951
1006.824219,11.422186,14.969586,13.858292,9.252935
1006.828125,10.339493,10.180888,6.657890,20.001968
1006.832031,7.368834,12.702837,10.865850,16.279400
1006.835938,0.722542,3.127212,6.260007,-0.255293
1006.839844,5.716383,1.572188,12.317822,8.285092
1006.843750,10.482440,7.339550,6.146946,-0.848309
1006.847656,1.719727,-2.984847,2.281030,9.619113
1006.851562,0.506573,2.186177,2.988987,-4.859835
1006.855469,-12.015659,-4.358500,1.925936,-0.679177
1006.859375,-6.576399,-3.546051,-8.253625,-2.858152
1006.863281,-4.252020,-2.539627,-8.066326,-8.706714
1006.867188,-3.914430,-10.757910,-10.638805,-8.278461
1006.871094,-10.948136,-8.426585,-6.123706,-10.899356
1006.875000,-9.162656,-13.367065,-6.938857,-8.104464
1006.878906,-12.546553,-4.689660,-5.639378,-14.145602
1006.882812,-8.152456,-8.600340,-6.169805,-6.030745
1006.886719,-4.913310,-7.724712,-6.045206,-7.339459
1006.890625,-16.533779,-3.729452,-4.835885,-2.690618
1006.894531,-1.037712,5.940091,-1.418482,-1.112658
1006.898438,-2.274473,0.373316,4.432574,-0.249525
1006.902344,5.231215,0.209393,-4.903408,2.100215
1006.906250,-1.535622,9.851622,6.859556,3.965595
1006.910156,3.420133,4.093579,10.850336,4.020445
1006.914062,5.475758,6.707607,4.218767,4.511363
1006.917969,6.027840,7.713604,5.129603,8.720603
1006.921875,14.554454,10.289734,9.272331,13.840414
1006.925781,11.573225,5.544892,6.710452,15.909896
1006.929688,17.367212,8.382322,18.009531,7.277991
1006.933594,7.915869,6.846454,15.255849,3.414217
1006.937500,3.597413,9.139837,9.792187,5.205788
1006.941406,4.454636,11.602813,2.903772,9.167632
1006.945312,0.099938,4.081394,5.973794,4.198690
1006.949219,3.373446,-6.141815,5.846017,-3.812476
1006.953125,1.567114,-5.652054,-1.044002,3.830517
1006.957031,-2.260727,-4.117350,-0.348992,-10.278257
1006.960938,-7.418204,-0.875101,-11.096378,-7.484121
1006.964844,-8.718029,-3.165184,-15.292571,-10.541316
1006.968750,-5.573304,-6.942019,-12.055280,-14.735399
1006.972656,-3.885027,-11.419700,-4.328788,-14.540783
1006.976562,-11.612272,-11.930282,-9.083121,-11.184113
1006.980469,-8.075355,-13.563715,-4.774574,-0.345703
1006.984375,-4.891738,-10.437509,-4.923588,-4.028144
1006.988281,-9.537967,-2.482686,0.137905,-8.708500
1006.992188,-3.864880,-6.261016,-6.718799,-2.350963
1006.996094,-3.395925,-0.424776,7.679334,-6.340272
1007.000000,5.405686,3.961479,-9.468019,-0.700063
1007.003906,0.288460,-8.885251,4.558395,0.832794
1007.007812,3.378626,5.288506,9.226938,8.530513
1007.011719,4.353652,6.753447,3.668371,0.104734
1007.015625,7.338758,9.452436,11.097209,10.069688
1007.019531,11.048428,5.939650,7.265552,4.546687
1007.023438,11.160860,13.940868,7.218765,5.178994
1007.027344,7.907000,14.403710,4.211061,8.546244
1007.031250,10.002385,6.096732,12.797218,9.752930
1007.035156,11.410925,11.235451,1.864465,16.259069
1007.039062,2.920944,5.474855,3.873184,3.305373
1007.042969,2.478953,4.283146,3.921405,0.572062
1007.046875,6.526202,6.411882,2.074204,5.853331
1007.050781,-0.149490,-1.883419,-0.707160,0.393451
1007.054688,0.660224,3.752717,-4.193497,-1.168852
1007.058594,-4.247499,-6.760526,-2.270603,-4.025672
1007.062500,-7.441943,-5.692432,-4.459671,-12.350956
1007.066406,-2.253772,-0.835600,-9.461645,-7.699995
1007.070312,-2.487057,-4.101217,-8.402934,-6.890030
1007.074219,-7.572075,-4.269329,-2.783977,-17.988445
1007.078125,-8.917566,-4.117068,-11.998355,-6.254301
1007.082031,-9.499954,-11.354136,-6.043209,-14.197531
1007.085938,-9.240950,-5.759812,-9.945713,-11.482951
1007.089844,-9.571559,-2.612978,-5.938302,-9.212035
1007.093750,-13.466000,-9.501615,-5.599870,-3.913102
1007.097656,-7.105334,4.862045,-0.554576,-7.868701
1007.101562,-1.598506,5.570563,-3.463365,2.376874
1007.105469,3.000576,0.758290,-9.079078,0.218295
1007.109375,0.460808,7.906013,4.086401,9.218527
1007.113281,3.414305,3.015864,8.311219,14.356018
1007.117188,10.851396,10.331585,12.795746,5.587424
1007.121094,9.065150,7.424026,10.478973,10.821498
1007.125000,8.267269,1.850467,10.105430,15.332408
1007.128906,8.492140,-1.849033,7.279690,13.665565
1007.132812,6.417583,5.207069,10.427401,16.678474
1007.136719,8.152066,0.870114,9.983063,0.624863
1007.140625,1.333854,11.456169,-0.695272,13.587037
1007.144531,-0.621441,-0.833500,3.766534,1.185048
1007.148438,-1.623003,1.399069,3.083241,-7.510086
1007.152344,-5.396590,-5.558028,4.310314,-1.549606
1007.156250,-3.633966,-7.275731,-10.325865,-0.763277
1007.160156,-4.284190,-7.319998,-4.824965,-2.665834
1007.164062,-5.459355,-3.221149,-5.191520,-1.969942
1007.167969,-6.749892,-12.142398,-10.509209,-5.530740
1007.171875,-8.629090,-6.360700,-12.191799,-2.141948
1007.175781,-9.215613,-7.246815,-5.235931,-13.416949
1007.179688,-7.534351,-16.175385,-11.632548,-7.553952
1007.183594,-10.140112,3.208706,-10.118469,-11.816957
1007.187500,-6.975053,-1.665166,-5.302928,-3.609595
1007.191406,-2.192454,-2.162262,-0.394468,-10.375724
1007.195312,-4.554555,-1.509857,-0.253648,4.948943
1007.199219,0.050804,-4.264829,-4.060683,3.847471
1007.203125,-3.259837,-3.276398,3.501925,-2.591096
1007.207031,-0.154440,1.097446,1.160047,3.256632
1007.210938,5.390926,10.567549,3.481982,9.364635
1007.214844,8.438238,9.538055,3.870241,5.479852
1007.218750,10.390617,9.569318,4.644202,9.479743
1007.222656,12.249245,7.161620,12.658893,4.189646
1007.226562,13.391687,7.145650,11.654310,10.430967
1007.230469,9.405375,11.146654,0.657834,9.511461
1007.234375,2.680801,5.884049,4.723396,-1.983676
1007.238281,0.686822,12.870065,2.172510,5.450305
1007.242188,7.423040,8.134880,0.947745,4.964685
1007.246094,-0.122425,0.637467,5.261690,-0.456965
1007.250000,-6.546084,5.000999,6.951321,1.901694
1007.253906,-2.896106,2.428957,-3.717369,-4.543468
1007.257812,-1.835593,-5.368370,-7.371099,-6.861832
1007.261719,0.703314,-9.264080,-3.015114,-4.758939
1007.265625,-4.069831,-8.199063,-17.040891,-0.158393
1007.269531,-2.596771,-9.985680,-12.421523,-10.477102
1007.273438,-21.800021,-3.350923,-14.774112,-15.706378
1007.277344,-10.929957,-9.088788,-8.544427,-7.461568
1007.281250,-10.205882,-9.746931,-11.540804,-13.936164
1007.285156,-5.516473,-4.443207,-7.174216,-4.450825
1007.289062,-4.071437,-5.117390,-7.463742,2.168590
1007.292969,0.421087,-1.275996,-9.207473,-1.863823
1007.296875,-0.726729,-4.961951,-0.141169,8.869583
1007.300781,6.856169,-2.069337,6.973272,2.894872
1007.304688,4.803348,10.689918,-2.606393,0.238000
1007.308594,2.181622,6.098137,5.156403,1.810332
1007.312500,9.056597,11.684912,8.549994,9.860051
1007.316406,5.451873,10.413159,2.809133,8.616005
1007.320312,1.944716,16.138906,16.360913,12.210356
1007.324219,13.712722,0.368666,6.858474,10.647802
1007.328125,9.171369,9.007062,5.840508,13.623385
1007.332031,16.228332,7.209187,15.239199,6.237944
1007.335938,3.365818,4.602800,11.181506,16.289085
1007.339844,9.072698,7.009028,8.014358,8.343581
1007.343750,6.285377,2.507801,3.448611,0.541494
1007.347656,-3.140213,3.871308,4.574477,-2.816663
1007.351562,-3.727775,2.464730,-2.256015,-2.955172
1007.355469,0.691420,3.405427,-2.322349,-0.202107
1007.359375,-3.959731,-4.535969,-9.564057,-3.730406
1007.363281,-2.752930,0.775482,-8.770831,-10.534574
1007.367188,-12.364986,-15.369149,-4.373733,-8.101586
1007.371094,-8.771867,-4.876275,-2.240748,-9.375320
1007.375000,-9.185853,-11.245073,-2.881935,-9.330020
1007.378906,-11.442621,-14.503052,-14.389651,-13.226120
1007.382812,-9.404335,-8.671428,-8.117095,-9.409010
1007.386719,-8.683570,-10.225277,-8.729478,-3.345213
1007.390625,-3.470093,-7.285028,-5.813985,-6.162456
1007.394531,-9.880398,-0.281699,-9.422923,-5.170971
1007.398438,-0.556977,0.571153,1.039269,-3.998747
1007.402344,6.029678,1.465296,1.272955,0.836450
1007.406250,7.860416,-0.176092,0.472784,3.200379
1007.410156,6.032238,8.620221,7.574895,7.746741
1007.414062,7.134429,10.974968,12.572651,4.689926
1007.417969,6.583301,13.622052,8.134111,8.214410
1007.421875,9.270313,4.637708,12.662342,14.443112
1007.425781,8.845260,1.605014,5.518759,10.607337
1007.429688,8.981869,8.977843,15.395145,6.607521
1007.433594,15.782544,6.984661,10.833103,5.421774
1007.437500,1.682970,3.691547,11.762711,9.186068
1007.441406,7.276716,15.201569,-1.639574,2.962568
1007.445312,8.726696,0.508605,2.993107,5.717980
1007.449219,-2.729279,-5.655001,8.931504,3.462272
1007.453125,-4.747434,0.372142,-4.171403,-0.636246
1007.457031,-5.824601,-3.135684,-6.111282,-2.063034
1007.460938,-2.292617,0.323316,-6.959232,-7.232982
1007.464844,-11.192984,-8.825179,-10.382126,0.852306
1007.468750,-10.499509,-5.207477,-9.506802,-11.397517
1007.472656,-8.984301,-5.436705,-8.493704,-8.765914
1007.476562,-11.125311,-1.388120,-8.434565,-8.366169
1007.480469,-9.737118,-11.498821,-12.802703,-13.237625
1007.484375,-1.271359,-9.080531,0.257163,-5.222006
1007.488281,-7.026985,-10.088532,-5.444103,-3.681253
1007.492188,-4.986309,-1.240470,-7.102432,-4.269101
1007.496094,-7.585246,-6.052470,-0.534891,1.239245
1007.500000,-3.614642,-5.729885,7.285854,-6.651019
1007.503906,-5.009505,-2.395632,0.181995,7.474609
1007.507812,4.192961,10.940346,11.245437,4.615374
1007.511719,6.640513,11.839768,9.450752,10.467558
1007.515625,9.212220,4.388641,9.302148,10.208977
1007.519531,11.282680,10.540070,8.648790,10.536867
1007.523438,15.037914,13.288499,9.252263,10.637968
1007.527344,11.719573,7.085993,9.888929,16.390867
1007.531250,5.207107,11.496821,12.496095,10.749496
1007.535156,6.120193,8.568001,4.918556,10.032390
1007.539062,8.671231,0.679362,8.993405,7.364719
1007.542969,8.111111,2.591466,8.423502,8.970185
1007.546875,11.891881,7.169384,-3.826543,3.167686
1007.550781,-2.552427,6.857192,-0.943160,0.510863
1007.554688,-5.081610,-5.355175,-4.877601,-12.348370
1007.558594,-11.847924,-5.481421,-3.397957,1.016084
1007.562500,-3.466414,-7.256299,-11.481794,-11.307641
1007.566406,-6.105708,-11.396181,-8.860791,-10.524096
1007.570312,-6.049483,-9.231455,-15.672942,-9.486816
1007.574219,-2.593691,-14.602727,-11.192216,-2.847847
1007.578125,-16.336791,-9.541585,-11.031517,-4.015633
1007.582031,-7.274916,-11.090642,-12.691790,-11.475570
1007.585938,-4.116992,-8.546102,-5.698057,-10.018214
1007.589844,-7.011017,-11.844695,-8.048568,-3.223855
1007.593750,4.475175,-9.849678,-4.006393,-8.223812
1007.597656,-0.710668,-7.508554,0.036248,1.250229
1007.601562,-0.492938,-0.576167,-1.531660,1.186037
1007.605469,-1.377746,4.452006,3.095066,3.807615
1007.609375,9.763046,6.020660,8.534113,2.375194
1007.613281,8.079896,5.821174,10.994481,7.642396
1007.617188,11.777300,6.320659,14.868993,11.345643
1007.621094,7.947943,8.699985,12.903120,9.326511
1007.625000,3.756306,10.432917,4.204214,7.394930
1007.628906,3.878563,6.012110,6.350151,7.469691
1007.632812,12.803869,4.563404,4.763116,0.520125
1007.636719,10.827413,3.096705,15.612092,6.317189
1007.640625,5.062066,0.094508,10.335868,2.102574
1007.644531,-3.240235,2.151914,-4.888525,0.803608
1007.648438,5.596576,-0.603600,1.020879,-1.321720
1007.652344,-0.839156,-0.645178,-2.144864,1.051461
1007.656250,-7.258204,-3.647874,-1.387564,2.830330
1007.660156,-6.855911,-8.315467,-7.235009,-4.824442
1007.664062,-5.768955,-2.832046,-16.783920,-10.137945
1007.667969,-5.495942,-11.841931,-7.064252,-1.213280
1007.671875,-4.314909,-8.676415,-12.101226,-10.667480
1007.675781,-8.973611,-13.997935,-6.916906,-3.925114
1007.679688,-10.919924,-8.008239,-6.882829,-11.813028
1007.683594,-9.119154,-6.723255,-15.372499,-17.125965
1007.687500,-12.965092,-8.737174,-9.438715,-8.476250
1007.691406,-1.874074,2.402159,-5.932298,-5.314993
1007.695312,-4.516433,-6.352167,-5.572480,-6.079232
1007.699219,-4.670431,1.871543,-3.820623,-4.037526
1007.703125,2.720354,-6.923275,-0.494896,-2.932196
1007.707031,7.476337,-0.802135,5.948870,2.356480
1007.710938,4.980786,13.958924,-0.597317,3.448066
1007.714844,12.120876,10.929634,4.848827,14.183183
1007.718750,3.432592,16.924050,7.561177,7.527789
1007.722656,12.157133,7.552108,6.775416,8.930325
1007.726562,11.268831,5.145461,10.213205,13.528443
1007.730469,7.937687,7.962884,4.812680,6.361920
1007.734375,5.524332,7.530298,7.193673,12.796503
1007.738281,9.093171,6.266140,10.405978,6.367794
1007.742188,-4.771182,4.127677,6.799938,1.402092
1007.746094,11.569921,9.052201,3.748732,1.429866
1007.750000,-2.231163,0.977116,-1.222266,-1.415258
1007.753906,-3.637443,0.961135,-7.274234,-1.894656
1007.757812,3.048602,-3.631120,-8.720359,-1.670393
1007.761719,-8.833213,-1.354649,-0.188862,-13.162339
1007.765625,-1.165324,-10.828898,-6.021878,-10.417270
1007.769531,-5.260715,-7.171715,-7.708300,-9.890884
1007.773438,-14.215035,-14.870942,-1.922440,-3.309645
1007.777344,-17.001337,-6.108941,-20.794782,-11.181025
1007.781250,-12.395715,-15.770965,-14.380463,-0.457144
1007.785156,-6.433070,-7.169473,-14.426963,-5.722006
1007.789062,-1.202772,-5.993496,-10.596739,-4.660375
1007.792969,-3.753629,-5.686560,-2.857406,-8.259597
1007.796875,-5.200258,-6.493953,-2.063784,-2.563054
1007.800781,1.287215,0.672692,7.128782,1.960177
1007.804688,7.887670,6.882036,8.763266,7.372896
1007.808594,4.916812,9.298827,9.312707,2.587570
1007.812500,9.909390,7.446897,5.272949,6.497402
1007.816406,10.105515,10.700657,5.946362,13.903494
1007.820312,10.024983,13.284466,4.801314,11.011721
1007.824219,5.105758,13.117373,12.989356,7.577408
1007.828125,9.328635,3.959651,3.505193,8.198782
1007.832031,4.197657,4.018959,5.447318,10.979571
1007.835938,9.589996,4.104173,13.565214,6.432022
1007.839844,5.841285,6.246305,6.143613,4.624743
1007.843750,6.951898,4.611119,-4.007557,6.824835
1007.847656,3.085720,-4.017667,-1.731980,6.866485
1007.851562,-4.781959,-0.487124,-4.414888,4.229865
1007.855469,-5.718986,-0.563097,-6.231853,-4.548939
1007.859375,-8.273508,-8.027178,-1.168662,-4.516241
1007.863281,-3.447179,-4.948145,-4.334917,-9.942648
1007.867188,-6.180226,-11.596597,-10.460984,-15.940626
1007.871094,-6.546009,-14.838545,-3.302881,-8.727384
1007.875000,-5.495316,-10.583725,-15.161842,-12.855708
1007.878906,-7.292537,-8.729837,-10.033571,-3.969225
1007.882812,-8.796493,-1.048710,-8.016593,-8.014941
1007.886719,-0.630848,-6.452204,-2.936272,-16.474950
1007.890625,-4.349097,-8.002289,-1.050110,-1.651686
1007.894531,-0.657042,-6.962946,3.211052,-0.456642
1007.898438,-5.398973,8.580136,-3.552886,-0.696812
1007.902344,-0.616415,1.112345,-2.285335,8.169922
1007.906250,1.520527,-0.944673,6.581995,0.304464
1007.910156,0.613227,4.170623,1.105182,-0.219102
1007.914062,9.158538,3.797301,16.678220,6.370975
1007.917969,7.204680,10.653606,7.147249,14.255961
1007.921875,13.980983,7.556948,17.704158,15.420429
1007.925781,10.704673,9.793299,5.753236,18.111304
1007.929688,3.757081,15.152127,7.828506,5.282121
1007.933594,7.309941,13.063846,9.531026,11.539489
1007.937500,9.464922,8.169474,9.137159,8.932791
1007.941406,7.720829,2.378929,5.505595,3.211280
1007.945312,8.523869,6.489161,-0.049116,3.396849
1007.949219,-1.933581,-0.059564,0.928226,-0.267717
1007.953125,-7.461630,-0.307940,0.085254,-0.898484
1007.957031,-0.697781,0.114498,-12.963160,-2.982939
1007.960938,-10.163616,-5.186124,-6.606432,-0.612790
1007.964844,-17.798394,-9.794993,-10.023373,-7.028808
1007.968750,-2.270183,-11.971667,-12.335418,-7.729636
1007.972656,-7.901271,-12.754671,-15.819168,-3.931420
1007.976562,-19.540092,-7.075238,-4.596827,-5.091664
1007.980469,-11.478766,-14.292057,-13.921653,-10.216014
1007.984375,-6.782110,-8.122112,-6.406438,-9.456623
1007.988281,-6.466780,-0.741571,-10.757592,-10.856163
1007.992188,-7.981840,-5.667021,-1.367934,-6.796511
1007.996094,-6.918091,-4.385407,-9.338472,3.173878
1008.000000,-4.350650,0.932360,1.460878,0.612133
1008.003906,7.464519,7.755388,6.033579,2.792265
1008.007812,4.982431,3.532997,10.138593,7.324693
1008.011719,12.849349,11.559941,6.786174,4.969658
1008.015625,-2.227312,11.683530,14.824394,15.293127
1008.019531,11.017814,9.969672,6.408838,12.989394
1008.023438,7.571245,15.228762,14.241817,3.921902
1008.027344,10.980920,4.360044,13.739492,7.640973
1008.031250,0.801980,6.490353,5.681590,8.853982
1008.035156,12.483203,10.568175,8.983293,11.022039
1008.039062,10.251977,3.849040,6.622320,4.100936
1008.042969,-0.712574,3.496040,5.224207,6.926125
1008.046875,-5.431426,-2.927548,4.314649,2.375562
1008.050781,1.149655,-8.421121,0.330598,-3.153905
1008.054688,-7.810214,-3.448210,1.892214,0.558903
1008.058594,-5.431218,-8.243140,-8.694250,-5.777617
1008.062500,-6.042751,-8.364569,1.568300,-5.392621
1008.066406,-11.633765,-13.076352,-14.472913,-1.550569
1008.070312,-7.012080,-10.806027,-11.925734,-7.714434
1008.074219,-3.811491,-11.340655,-13.613048,-12.794079
1008.078125,-10.457552,-9.402172,-6.556202,-7.188213
1008.082031,-7.579303,-8.571190,-5.814497,-9.292547
1008.085938,-5.089731,-8.115208,-5.781748,-12.274397
1008.089844,-7.446065,-3.368625,-8.255374,-10.054052
1008.093750,-4.130031,-3.777281,-3.477332,-12.694256
1008.097656,0.736076,-2.937934,1.015445,-4.882375
1008.101562,2.005249,-5.415376,0.693425,-5.655361
1008.105469,6.258144,-3.498203,-1.508741,2.707314
1008.109375,11.104009,-4.389235,-3.607764,6.269657
1008.113281,4.094979,6.927698,10.290856,6.879127
1008.117188,5.237369,13.249302,4.290609,2.921866
1008.121094,8.105815,8.778487,8.404115,14.977597
1008.125000,8.921831,16.172718,2.762888,9.933966
1008.128906,6.776683,5.799178,10.683464,19.479673
1008.132812,12.464613,11.096703,12.649923,5.149268
1008.136719,4.931375,9.735691,7.368256,2.402341
1008.140625,1.128625,9.757318,11.162008,8.470653
1008.144531,1.706304,4.209750,-5.724401,8.970029
1008.148438,6.429395,-6.714997,6.764183,0.972550
1008.152344,4.138947,-4.112105,5.137418,-3.691292
1008.156250,-10.552536,-14.758846,-6.712225,0.383099
1008.160156,-5.849159,-6.310098,-5.429486,-7.058360
1008.164062,-8.009891,-6.215727,-9.142377,-3.187054
1008.167969,-13.584046,-10.453423,-10.184497,-5.042029
1008.171875,-18.471088,-6.443267,-8.796578,-9.703147
1008.175781,-9.326910,-17.549524,-7.740470,-12.098103
1008.179688,-5.195169,-5.894177,-1.093892,-6.508476
1008.183594,-4.601630,-3.712164,-3.862457,-10.573910
1008.187500,-12.999188,-6.517789,-2.363848,-4.583487
1008.191406,-1.399842,0.342255,-4.640611,-4.370843
1008.195312,-4.889447,-3.960238,-4.087908,-4.884874
1008.199219,-3.895891,2.481946,-7.043680,4.309067
1008.203125,0.206286,4.846875,5.972237,0.703089
1008.207031,4.879103,4.050848,1.000716,3.238370
1008.210938,2.376671,3.225460,1.521021,6.010862
1008.214844,11.082981,7.342551,7.059587,10.885351
1008.218750,14.457942,6.400502,18.465455,10.325658
1008.222656,10.644693,16.174748,11.871991,13.670044
1008.226562,11.131262,9.690700,15.051130,5.043610
1008.230469,6.054449,8.707986,9.487596,9.230509
1008.234375,10.842539,1.810302,4.216624,7.579158
1008.238281,4.678821,-2.891605,15.967769,12.808965
1008.242188,2.488627,10.231389,9.031799,1.175739
1008.246094,6.864447,4.861578,-0.935344,-1.231420
1008.250000,1.926074,4.020517,-5.108341,1.263675
1008.253906,1.080930,3.276119,-0.796988,-3.339701
1008.257812,-1.915196,1.360694,5.002251,-8.000390
1008.261719,-4.388624,-10.932551,-11.624028,-7.773754
1008.265625,-4.113334,-4.467844,1.917817,-6.293320
1008.269531,-8.769007,-9.629677,-8.969508,-7.649079
1008.273438,-12.116230,-9.394788,-6.275642,-8.477242
1008.277344,-3.721289,-9.919494,-10.752736,-12.103498
1008.281250,-9.610653,-10.177742,-13.109001,-4.524304
1008.285156,-6.400340,-6.645578,-13.140309,-4.536857
1008.289062,-3.983169,-5.008833,-9.515366,-10.247694
1008.292969,-0.152228,-6.313192,-4.222513,-3.629725
1008.296875,-1.929768,3.139846,-4.965345,-5.720953
1008.300781,4.678185,-8.609444,-7.327058,-0.830060
1008.304688,-6.257979,1.844585,-0.055942,7.231778
1008.308594,4.647602,8.401582,-0.333748,2.106038
1008.312500,2.056433,7.494813,7.898803,-3.805750
1008.316406,13.137796,13.985269,8.813652,12.797804
1008.320312,12.658917,16.367928,7.889561,8.300462
1008.324219,6.332954,6.073807,2.367652,11.685655
1008.328125,4.353991,12.907713,9.245942,9.421991
1008.332031,7.356147,10.102516,13.134723,16.967500
1008.335938,10.306681,8.172651,0.653865,2.349200
1008.339844,7.179096,4.577511,12.387607,7.274474
1008.343750,11.156409,5.766784,-4.918399,3.099341
1008.347656,2.678778,-1.219743,2.612164,1.255144
1008.351562,3.814604,-3.361547,2.980019,-5.934302
1008.355469,1.683191,-3.703518,1.853255,0.772563
1008.359375,-0.272334,-5.026254,-5.614266,3.457008
1008.363281,-5.651855,-9.968155,-17.516845,-8.649872
1008.367188,-7.579503,-9.946810,-3.418570,-14.237102
1008.371094,-3.315625,-9.975309,-14.426412,-11.909831
1008.375000,-16.191889,-9.814167,-12.641917,-5.630928
1008.378906,-14.906161,-6.822903,-12.718393,-17.264479
1008.382812,-7.431768,-9.323254,-15.884480,-10.815812
1008.386719,-5.723940,-4.162770,-7.392601,-1.837040
1008.390625,-5.031366,-10.320954,-13.266143,-4.384637
1008.394531,1.701834,-6.300268,-0.408671,-9.491216
1008.398438,2.692208,-0.917676,-2.704609,2.728768
1008.402344,3.880917,-3.610683,0.176507,4.814707
1008.406250,3.350379,10.289245,5.542710,3.276844
1008.410156,8.807452,6.604408,11.028998,-3.447063
1008.414062,8.356634,9.627192,1.163099,5.770621
1008.417969,6.543237,7.633451,11.587761,14.926408
1008.421875,15.195789,5.111393,10.175986,14.861547
1008.425781,6.976895,12.626745,11.730429,8.130511
1008.429688,3.613611,-3.296736,4.816159,9.590896
1008.433594,-0.640571,11.600062,7.174976,7.157432
1008.437500,7.877893,19.720018,5.270938,14.674147
1008.441406,0.772026,6.924894,4.876938,13.155275
1008.445312,-1.007844,7.460518,2.255745,-9.149502
1008.449219,4.975980,4.582608,-2.463707,5.339721
1008.453125,-4.535077,0.030399,-10.697111,3.712792
1008.457031,-10.870651,-1.907924,-3.975479,-11.496637
1008.460938,-9.185717,-9.386312,-7.300986,-9.760901
1008.464844,-10.952382,-9.694708,-10.682036,-9.780311
1008.468750,-14.665440,-7.734491,-19.764519,-6.610010
1008.472656,-7.517949,-7.293042,-9.535977,-6.769865
1008.476562,-5.787141,-10.098122,-12.896973,-9.576265
1008.480469,-13.594031,-12.779540,-5.308862,-9.940834
1008.484375,-5.481459,-1.053931,-10.108290,-6.491513
1008.488281,-9.492717,-4.243878,-11.147969,-10.215209
1008.492188,-6.632188,-6.615686,-3.974137,-4.529562
1008.496094,-0.360563,1.483054,-4.772010,3.165975
1008.500000,2.036373,8.733814,1.431393,-6.939740
1008.503906,2.826738,7.134763,3.034137,-1.100322
1008.507812,6.490775,2.511713,4.315698,8.231639
1008.511719,3.361063,0.853103,8.209248,4.528154
1008.515625,4.551142,-0.759391,9.227652,11.295125
1008.519531,9.509744,7.790924,12.091825,5.578606
1008.523438,8.905165,14.758041,4.489197,8.286535
1008.527344,8.461794,13.602786,10.001492,12.986815
1008.531250,3.223906,9.711591,9.218520,9.077976
1008.535156,9.632873,10.437511,13.291982,4.216096
1008.539062,8.731926,8.176695,7.668624,8.194303
1008.542969,2.828122,7.442444,-1.170641,6.867228
1008.546875,4.546417,5.651391,7.526339,3.159243
1008.550781,-3.789237,0.438894,4.894075,1.076134
1008.554688,-9.846523,-1.008951,0.524533,-2.120957
1008.558594,-11.989174,-5.627933,-9.400095,1.707888
1008.562500,-6.954055,-2.463451,-5.708777,-2.605463
1008.566406,-7.217895,-5.477285,-18.579553,-10.168704
1008.570312,-13.328861,-4.131631,-7.778082,-18.135515
1008.574219,-10.355046,-7.308321,-5.584817,-7.039105
1008.578125,-2.151591,-3.954692,-1.921781,-16.869911
1008.582031,-8.830547,-5.963415,-9.964926,-14.460248
1008.585938,-11.672147,-13.048246,-3.165869,-10.445450
1008.589844,-11.205256,-3.824348,-10.014173,-8.152869
1008.593750,-7.165188,8.065236,-6.732973,-2.872590
1008.597656,-2.457452,-1.055815,-3.710608,2.145285
1008.601562,-3.231535,6.795777,-4.099941,-0.956519
1008.605469,1.601392,12.597993,-1.525830,3.456579
1008.609375,9.784447,9.083038,2.051985,8.784397
1008.613281,7.664592,4.375118,5.556683,9.805264
1008.617188,10.117817,8.390477,7.666794,10.080319
1008.621094,9.926006,8.983933,11.066503,5.515861
1008.625000,10.319703,3.393178,10.237940,2.063757
1008.628906,14.026484,4.425988,10.111593,4.330906
1008.632812,6.763077,15.027014,12.907434,2.864335
1008.636719,3.802763,2.534540,10.930582,1.754670
1008.640625,12.259882,11.413218,11.766238,3.167570
1008.644531,0.032765,7.232205,7.322149,3.628545
1008.648438,-1.630379,1.993884,0.538591,4.760512
1008.652344,-6.195681,-6.171025,-0.303004,4.720554
1008.656250,-5.181529,-6.095524,-4.088477,-0.253332
1008.660156,-3.742904,-2.933115,-0.991026,-9.453191
1008.664062,-7.214038,-5.073794,-10.514067,-8.332919
1008.667969,-3.184947,-7.156199,-5.908298,-18.515023
1008.671875,-15.456057,-7.337964,-13.159466,-5.860192
1008.675781,-10.089830,-10.072956,-11.160390,-10.341200
1008.679688,-8.376660,-4.733409,-10.835224,-8.990999
1008.683594,-3.062172,-13.091472,-11.217519,-16.165803
1008.687500,-2.941702,-9.970309,-7.433748,0.474434
1008.691406,-4.884153,-10.417398,-6.293184,-5.386102
1008.695312,-3.354613,-6.566587,-8.392705,0.362021
1008.699219,-4.863555,-3.315045,-3.354643,0.131203
1008.703125,1.233967,7.151323,2.515251,-6.305408
1008.707031,3.845407,5.515007,7.613868,3.970242
1008.710938,1.091420,5.823579,4.080075,4.425618
1008.714844,7.521613,13.131413,-0.191101,9.242458
1008.718750,14.273692,15.701225,8.027357,8.795898
1008.722656,20.620508,9.775082,2.342078,17.866449
1008.726562,8.530992,15.493349,14.585926,14.064415
1008.730469,5.570960,1.757331,11.469486,14.737664
1008.734375,7.933044,7.393254,9.937197,10.480733
1008.738281,10.351641,6.416363,2.998255,8.208259
1008.742188,10.185170,8.073184,5.373898,4.056144
1008.746094,2.052214,-1.158139,0.952403,11.170147
1008.750000,-5.567456,1.320067,-4.614701,-5.765397
1008.753906,6.102407,-6.388795,-3.314566,4.171888
1008.757812,-11.507306,-7.978218,-2.745725,-5.089809
1008.761719,-10.509272,-9.946984,-9.970996,-4.878083
1008.765625,-9.536857,1.749772,-3.856555,-7.316086
1008.769531,-12.062295,-8.708463,-7.715110,-9.557738
1008.773438,-8.478243,-4.701969,-17.098857,-13.004520
1008.777344,-5.795511,-7.061562,-7.388258,-7.014053
1008.781250,-12.559851,-17.899111,-13.556815,-13.842821
1008.785156,-12.000771,-6.734831,-7.201066,-2.573179
1008.789062,-9.623584,-11.131618,-2.192946,-7.854966
1008.792969,-5.556331,-4.423507,-0.154914,-6.122772
1008.796875,-8.319325,-5.432188,-1.778152,-4.270697
1008.800781,-0.503940,0.605308,3.693504,0.384878
1008.804688,-1.640222,-0.475780,3.912934,7.723686
1008.808594,4.297949,6.625164,1.049047,5.875323
1008.812500,5.937730,13.906021,3.230191,3.208596
1008.816406,2.598882,5.944161,10.265688,8.917607
1008.820312,17.104178,4.142417,4.494397,10.015820
1008.824219,10.927747,2.692329,8.263548,9.316389
1008.828125,10.234049,10.315876,13.644494,9.891357
1008.832031,12.575347,8.100050,3.484497,11.144703
1008.835938,0.888429,-1.992898,5.274069,11.060964
1008.839844,6.493924,11.448886,-0.243978,6.953890
1008.843750,1.826329,-0.417699,9.623798,5.003820
1008.847656,3.641832,-2.253296,4.193316,2.630261
1008.851562,0.357841,-0.365056,-5.292991,-1.020242
1008.855469,-12.353717,-7.365478,1.101239,-1.816290
1008.859375,-7.008069,-11.672693,-3.140966,-7.152062
1008.863281,-7.833764,-3.603118,-6.162685,-8.010024
1008.867188,-6.779778,-6.913475,-12.755496,-6.541134
1008.871094,-5.931145,-2.767992,-11.441210,-13.849360
1008.875000,-13.790146,-9.904520,-6.790125,-15.611419
1008.878906,-17.287758,-8.275829,-15.240056,-3.247985
1008.882812,-6.757709,-6.405241,-9.794935,-9.087810
1008.886719,-11.235326,-4.968133,0.416723,-6.881811
1008.890625,-1.719794,-3.219516,6.049342,-11.718610
1008.894531,-4.862144,-3.844105,-6.702763,-5.311305
1008.898438,-6.501070,0.773609,-3.425509,-3.925242
1008.902344,3.022512,6.020076,-1.108779,-1.184840
1008.906250,5.671172,-4.989881,1.846989,-2.316345
1008.910156,-5.889039,9.096619,3.606598,1.800771
1008.914062,8.046477,8.902040,14.745370,10.549209
1008.917969,4.789774,16.662217,13.131505,14.314802
1008.921875,12.077287,6.194264,6.256488,9.597666
1008.925781,9.592779,8.776587,6.861053,5.401291
1008.929688,8.058593,2.229037,14.137457,11.409578
1008.933594,7.806127,8.894181,13.524509,1.722793
1008.937500,9.003064,-0.622344,0.467690,9.896134
1008.941406,13.389501,7.244131,3.675558,5.571453
1008.945312,4.570166,1.555980,9.978404,2.426117
1008.949219,5.677028,-3.260106,6.374145,2.546513
1008.953125,1.445617,-4.472937,-2.229130,-2.807601
1008.957031,-1.466883,-2.472094,-8.822644,2.869637
1008.960938,-8.189457,-12.292659,-2.238354,-10.506811
1008.964844,-11.693768,-3.898585,0.025603,-4.347549
1008.968750,-14.294188,-10.022207,-9.592974,-14.026625
1008.972656,-15.613455,-7.538357,-17.779062,-8.402239
1008.976562,-2.694796,-7.210696,-15.846168,-13.348249
1008.980469,-9.019041,-8.732548,-12.881343,-10.796067
1008.984375,-13.466354,-6.183286,-5.344281,-9.787172
1008.988281,-11.211067,0.771388,-5.088375,-5.917316
1008.992188,-10.389313,-2.545593,-12.073339,-0.014035
1008.996094,-1.811520,-3.500837,5.526369,-0.947875
1009.000000,2.201096,1.133000,1.678476,-0.984081
1009.003906,-1.156090,2.970045,-3.435861,-0.152666
1009.007812,-1.900666,-1.287063,3.904367,7.328323
1009.011719,2.713341,3.325118,13.457209,7.172465
1009.015625,3.299793,5.622892,6.940675,10.850685
1009.019531,3.631674,10.515448,7.275007,4.145982
1009.023438,10.911989,8.530285,13.418809,12.108679
1009.027344,7.346691,14.413590,9.496666,16.202935
1009.031250,5.108410,8.260200,6.412584,6.820529
1009.035156,6.546839,-2.679827,11.675017,10.004215
1009.039062,-0.166196,7.910911,3.702310,6.283651
1009.042969,-0.985398,1.196396,9.400218,3.688134
1009.046875,6.373320,7.872937,0.776915,-1.406466
1009.050781,-1.971279,1.988023,7.186028,3.725021
1009.054688,-6.157563,-3.942044,0.905807,-6.003695
1009.058594,-9.247011,-4.221950,-1.109093,-6.125729
1009.062500,-5.015712,-7.137735,-7.129558,-9.751879
1009.066406,-3.044572,-3.049129,-9.816899,-7.027861
1009.070312,-8.842781,-8.848103,-5.750968,-9.494858
1009.074219,-4.143902,-7.304048,-8.320929,-6.798584
1009.078125,-13.170196,-4.184694,-5.589470,-8.807981
1009.082031,-10.328376,-10.703296,-7.057447,-16.063209
1009.085938,-3.726686,-4.365228,-7.919310,-0.837645
1009.089844,-8.137899,-7.852255,-13.097761,-0.402457
1009.093750,-4.633641,-8.026914,-0.037461,-6.314447
1009.097656,-2.684981,2.858066,0.252595,-12.508416
1009.101562,1.861396,6.956398,4.819761,-2.474270
1009.105469,-1.468416,6.596906,3.378949,-3.002506
1009.109375,7.891372,11.862496,6.501169,5.693172
1009.113281,5.376800,10.079790,5.959467,1.287083
1009.117188,6.592113,4.511124,8.117501,9.654044
1009.121094,14.119454,14.576977,9.806445,6.623038
1009.125000,16.209214,11.642872,6.745249,16.090906
1009.128906,12.439532,14.660625,6.155701,10.431261
1009.132812,3.508047,5.898879,10.880390,1.711468
1009.136719,18.046311,8.634490,9.722005,9.778442
1009.140625,3.655575,6.874239,10.517945,11.175931
1009.144531,5.173088,-0.650970,4.145940,8.018917
1009.148438,-0.522872,3.852931,-2.465456,2.572311
1009.152344,2.367824,3.509347,2.342278,-2.904045
1009.156250,-10.062668,-2.560659,-2.043954,-6.054223
1009.160156,0.158413,-6.272874,-7.811361,-6.180151
1009.164062,-6.584766,-8.958060,-2.836905,-5.876378
1009.167969,-12.846194,-12.349608,-8.270990,-7.994624
1009.171875,-14.952383,-10.103412,-14.752122,-12.715267
1009.175781,-13.613432,-10.933916,-18.241673,-3.902570
1009.179688,-14.667993,-14.840543,-14.416126,-11.679784
1009.183594,-9.544131,-7.750554,-8.600613,0.116162
1009.187500,-10.016069,-8.141265,-5.305390,-6.881563
1009.191406,-5.659159,-7.309047,-11.954267,-8.117844
