timestamp,TP9,AF7,AF8,TP10
1000.000000,1.764555,-4.390983,-0.340619,-1.404334
1000.003906,-1.921125,1.904546,6.617713,-0.659346
1000.007812,3.731064,11.402731,5.609315,13.018546
1000.011719,-0.075097,9.156275,4.473053,9.129147
1000.015625,5.844049,9.983852,11.257766,9.985266
1000.019531,6.948420,13.817720,11.502268,4.576691
1000.023438,7.695524,7.623789,16.390424,12.528191
1000.027344,14.348357,5.183016,9.972818,8.702021
1000.031250,14.719048,7.814924,6.510976,4.403805
1000.035156,9.261490,8.021383,7.600047,6.033368
1000.039062,-1.092827,6.028965,2.652941,13.169687
1000.042969,10.367704,9.927213,2.048298,-0.267956
1000.046875,2.313945,2.353464,-5.215220,7.693854
1000.050781,-0.742730,6.734100,9.211740,-7.743207
1000.054688,9.072300,-5.614237,-1.683541,-3.443876
1000.058594,-11.921440,-6.696598,-2.822724,-12.830052
1000.062500,2.739059,-2.138045,-9.753541,-5.160024
1000.066406,-17.683702,-4.390726,-10.337215,-9.286983
1000.070312,-13.461013,-15.235238,-10.615967,-9.047131
1000.074219,-8.510668,-5.270932,-12.342896,-5.739137
1000.078125,-9.588145,-3.800691,-12.072941,-6.484566
1000.082031,-4.411714,-11.991858,-2.463607,-7.073253
1000.085938,-4.498511,-5.986108,-7.640651,-6.719540
1000.089844,-10.816126,-8.359170,-4.568899,-4.448810
1000.093750,-6.058862,2.436456,2.614383,-7.639634
1000.097656,-5.891729,0.642399,1.083986,-3.083614
1000.101562,3.504103,6.700139,-0.186076,-3.925014
1000.105469,-2.228465,5.614367,9.636758,2.469634
1000.109375,8.982411,5.937518,7.962465,-1.268261
1000.113281,8.887092,4.370233,10.358318,7.514370
1000.117188,0.506843,4.159659,10.598528,14.214115
1000.121094,3.164558,7.327965,14.027641,8.926725
1000.125000,9.962793,4.157478,5.125948,8.572090
1000.128906,3.399215,4.842134,6.782871,9.535360
1000.132812,2.527451,6.760749,3.990717,3.843205
1000.136719,6.398530,7.527035,11.930595,8.326537
1000.140625,7.053546,8.924104,6.032640,6.666597
1000.144531,-3.140518,2.689066,-2.020422,6.518053
1000.148438,-1.104258,-3.179990,7.713367,-3.882423
1000.152344,-0.588269,3.741186,1.726870,-2.505432
1000.156250,-0.490262,-3.941816,-8.206068,-6.122483
1000.160156,-5.927137,-5.817969,-2.214659,-11.524033
1000.164062,-4.476524,-0.943004,-9.762702,-12.821783
1000.167969,-7.410519,-10.843681,-16.793402,-3.335166
1000.171875,-8.700019,-10.126756,-1.827650,0.867350
1000.175781,-11.275081,-7.372075,-14.227876,-15.448187
1000.179688,-7.807782,-8.135295,-7.883674,-15.862681
1000.183594,-7.472451,-13.915791,-5.131054,-9.375758
1000.187500,-6.273060,-9.051857,-14.288004,-11.673852
1000.191406,-1.115862,-13.806733,-6.238476,-6.742368
1000.195312,-8.316298,-4.551958,0.428920,-2.564851
1000.199219,-1.635126,7.843497,3.810698,0.978302
1000.203125,6.848852,3.205343,1.501100,-0.364804
1000.207031,7.502853,8.888751,3.004983,3.980577
1000.210938,3.421971,9.533617,1.882575,8.457861
1000.214844,3.233542,4.607550,3.846323,8.101290
1000.218750,15.885977,11.392190,9.349636,-0.890381
1000.222656,12.955489,6.969759,6.380981,10.948514
1000.226562,9.170713,6.052314,14.034298,8.501940
1000.230469,3.652347,6.461310,4.865910,5.473083
1000.234375,4.285163,5.611614,1.591017,8.090302
1000.238281,9.607326,0.570550,7.781990,2.463644
1000.242188,7.983870,4.427345,12.873198,5.487856
1000.246094,1.292494,3.571723,-3.240016,4.017706
1000.250000,0.523640,-1.366734,-5.838799,-0.012579
1000.253906,-6.301017,1.915909,-2.614545,-0.068741
1000.257812,-4.150443,7.373273,1.227909,-5.444295
1000.261719,-11.615677,-9.085395,-14.144996,-1.750287
1000.265625,-9.125254,-8.974554,-7.463037,-5.212073
1000.269531,-8.676880,-13.868325,-3.080165,-8.737396
1000.273438,-16.669680,-12.277710,-10.354946,-7.628395
1000.277344,-9.512430,-11.223871,-7.640923,-1.408772
1000.281250,-5.353933,-12.572614,-12.140678,-7.287103
1000.285156,-8.390391,-0.639518,-6.516837,-8.167028
1000.289062,-10.328866,-9.617016,-10.399362,0.573851
1000.292969,-6.550665,-8.005262,2.086068,3.229044
1000.296875,2.902234,4.088449,-9.311367,7.151335
1000.300781,4.380311,-0.160483,-1.713123,6.973363
1000.304688,7.186558,-3.702882,5.700465,-0.546556
1000.308594,2.084126,1.678140,2.238890,4.504016
1000.312500,7.007154,5.152706,6.673309,5.810974
1000.316406,7.417468,10.345570,11.510440,6.900919
1000.320312,10.067950,5.665937,12.194105,13.910994
1000.324219,10.116069,10.007559,8.458254,13.425814
1000.328125,13.870305,14.246353,7.650311,3.095662
1000.332031,1.051209,10.355318,12.623559,-3.856946
1000.335938,5.149445,7.919100,15.233417,3.951122
1000.339844,-5.956706,4.425128,5.995208,5.096092
1000.343750,2.696975,3.964048,1.244745,1.980312
1000.347656,1.170809,6.896024,-0.788573,-3.772912
1000.351562,-3.337254,1.577875,-0.186961,-0.010192
1000.355469,-5.037208,4.664746,0.322555,-10.040091
1000.359375,-10.950198,-1.547478,-6.101586,-9.941922
1000.363281,-10.399899,-1.049755,-11.275561,-3.042821
1000.367188,-6.367426,-9.289619,-9.297051,-13.327053
1000.371094,-12.285499,-7.721100,-4.320065,-10.052507
1000.375000,-13.682674,-10.156400,-14.341003,-11.539593
1000.378906,-5.456403,-12.206494,-13.612334,-7.300457
1000.382812,-7.246153,-6.066908,-11.354347,-1.391212
1000.386719,-2.835919,-7.765687,-4.435603,-10.744737
1000.390625,-9.363570,-0.586853,-3.099649,-3.629009
1000.394531,-2.496832,-7.290480,-6.862120,7.491444
1000.398438,-0.871113,3.606209,-0.047405,-9.509400
1000.402344,0.064072,0.426051,5.457240,3.931103
1000.406250,3.210831,2.995192,0.198722,2.410435
1000.410156,6.567408,10.086241,7.662173,9.574882
1000.414062,15.747214,0.219293,5.647015,9.535436
1000.417969,6.210883,10.424770,13.836611,7.221112
1000.421875,8.875918,2.794512,3.121205,1.085971
1000.425781,4.393104,11.231788,8.431790,14.997732
1000.429688,5.769521,10.565235,4.516136,6.027159
1000.433594,18.589924,5.182881,9.044731,5.460059
1000.437500,9.171137,5.571704,5.148749,8.152183
1000.441406,2.013842,6.717749,5.088842,5.334689
1000.445312,7.608389,0.825321,8.739037,5.125404
1000.449219,6.248001,-0.265578,5.216447,0.575393
1000.453125,-7.028876,4.964820,-2.306451,-1.600525
1000.457031,-5.369600,2.238412,0.094560,2.389048
1000.460938,-8.477811,-9.752729,-2.768676,-11.857435
1000.464844,-10.629337,-11.809907,-8.600907,-8.447451
1000.468750,-10.545220,-11.290926,-7.516124,-4.273917
1000.472656,-7.278434,-7.539005,-9.347376,-11.538419
1000.476562,-6.128137,-7.887666,-6.833559,-10.860179
1000.480469,-7.364454,-10.541274,-7.607805,-7.640001
1000.484375,-10.909248,-9.060849,-7.728610,-3.805716
1000.488281,-1.725533,-5.327421,-7.119849,-8.018103
1000.492188,-5.718742,-4.360893,-5.803997,-6.752501
1000.496094,-1.676982,-5.254431,-6.927956,-0.047917
1000.500000,-4.438120,-3.092551,2.083803,-1.718944
1000.503906,2.750549,1.546742,6.836948,-1.138568
1000.507812,3.913611,2.715982,-0.951818,6.878610
1000.511719,17.305418,1.492506,4.369595,8.207580
1000.515625,6.318231,1.899698,7.993503,3.535466
1000.519531,9.885449,15.972235,11.768686,15.483697
1000.523438,10.210083,7.383417,10.902601,7.583708
1000.527344,4.189343,9.423612,12.725031,11.006149
1000.531250,13.457933,8.638709,9.256827,13.115426
1000.535156,5.509479,7.348887,9.557756,5.789117
1000.539062,7.674175,3.376808,5.858532,4.046204
1000.542969,5.365472,0.252857,-0.656715,14.354814
1000.546875,4.649344,7.179983,3.662092,-1.195211
1000.550781,1.707534,1.431655,1.641427,-0.197124
1000.554688,-7.277535,-1.726956,-5.474687,-0.095305
1000.558594,-7.271444,-11.015852,-7.220020,-12.708280
1000.562500,-7.332138,-4.888860,-10.160232,-11.477959
1000.566406,-7.629404,-12.502799,-2.429662,-9.781576
1000.570312,-13.084338,-6.448708,-12.367016,-2.835504
1000.574219,-9.547279,-6.525320,-8.390196,-11.951734
1000.578125,-12.234947,-12.684559,-10.774770,-12.079684
1000.582031,-13.438232,-10.911206,-11.302184,-10.051663
1000.585938,-10.989612,-15.215790,-4.497211,-1.736857
1000.589844,-7.329842,-7.131389,-3.062023,-2.094641
1000.593750,1.462179,-9.912563,3.358160,-5.832480
1000.597656,1.090856,2.180904,-2.944038,3.369980
1000.601562,0.203902,4.326791,3.428032,-0.750221
1000.605469,-4.146535,3.060875,0.905024,6.385195
1000.609375,2.364438,9.279205,3.591560,3.194330
1000.613281,5.282808,7.589797,7.924839,9.428187
1000.617188,9.184147,4.629748,8.193750,11.475725
1000.621094,15.180793,12.471635,7.864624,6.435849
1000.625000,6.045606,8.675829,9.676893,10.093578
1000.628906,7.222924,8.166761,13.904580,12.454394
1000.632812,11.422549,16.116275,14.525072,9.662462
1000.636719,6.043270,10.285902,6.340000,9.385438
1000.640625,2.354374,4.726146,2.977584,6.025342
1000.644531,-3.741516,-0.372630,8.099253,4.118818
1000.648438,2.734601,1.344109,4.646119,1.529148
1000.652344,-3.630342,-4.783993,-5.186332,-3.457346
1000.656250,-7.483121,-4.920578,-6.026841,0.610409
1000.660156,-5.568199,-8.431302,-4.538548,2.475266
1000.664062,-15.869175,-6.605055,-11.208545,-3.229674
1000.667969,-6.716888,-8.482779,-7.283389,-2.696504
1000.671875,-5.807375,-7.939606,-9.216929,-8.396495
1000.675781,-15.089799,-17.283327,-11.682791,-13.728795
1000.679688,-8.197307,-15.846256,-13.026413,-4.624860
1000.683594,-12.491789,-5.093845,-7.590726,-8.305216
1000.687500,-2.078393,-7.720413,-9.159366,-4.017667
1000.691406,-5.772455,-1.751075,-4.761665,-3.800600
1000.695312,-8.174506,-1.621501,6.146390,-5.003573
1000.699219,-1.800139,1.582193,-1.026692,-5.297145
1000.703125,5.430831,4.111132,-2.269405,-0.573750
1000.707031,7.425787,12.237981,8.253247,8.798781
1000.710938,5.308757,9.435092,1.625547,-0.196221
1000.714844,10.091417,14.985553,4.934887,4.160988
1000.718750,14.422039,9.576631,4.562320,12.639762
1000.722656,5.391735,4.173301,4.041202,5.472572
1000.726562,5.668589,11.145897,7.957920,9.047239
1000.730469,2.735595,3.693959,6.098824,12.943620
1000.734375,7.681576,5.576257,13.877699,7.517866
1000.738281,7.256768,7.190911,7.669607,8.120299
1000.742188,5.582182,5.637198,3.664918,6.463389
1000.746094,1.697946,-1.188633,-2.597151,2.285694
1000.750000,5.887910,7.621476,-0.204370,1.463808
1000.753906,-1.819809,-2.748159,-0.830873,-4.821795
1000.757812,-1.659742,-7.046818,-1.758684,-2.385564
1000.761719,-11.420192,-3.860998,-10.819591,-9.314287
1000.765625,-12.347488,-7.178296,-4.687542,-7.952215
1000.769531,-7.680297,-8.169437,-6.090510,-13.088364
1000.773438,-10.474882,-19.469872,-14.284439,-11.375415
1000.777344,-15.831661,-16.093048,-9.422615,-13.047578
1000.781250,-14.486280,-3.163895,-7.632778,-8.261455
1000.785156,-12.840946,-8.646827,-1.135137,-6.983474
1000.789062,-5.226892,-5.749965,-10.650957,2.175362
1000.792969,4.457460,-1.997060,-4.008715,0.622126
1000.796875,0.360758,-3.928095,-0.853527,-4.819806
1000.800781,5.272507,1.441225,-8.111665,0.506237
1000.804688,-0.973286,1.245706,4.725721,0.743385
1000.808594,6.560034,7.333895,-2.048226,6.085298
1000.812500,0.295513,6.755224,7.066693,4.630295
1000.816406,0.133130,8.542133,7.853417,12.458209
1000.820312,10.517777,9.288422,4.591740,2.132617
1000.824219,14.067914,10.603945,12.495038,9.100726
1000.828125,10.942876,7.969978,13.543713,5.820495
1000.832031,3.205257,8.067812,10.663244,14.944136
1000.835938,1.915830,5.035151,4.909739,1.390744
1000.839844,3.091908,-1.963807,5.276427,1.795144
1000.843750,6.834285,9.859469,3.991900,2.044592
1000.847656,2.280800,5.001832,-2.990229,2.281960
1000.851562,-7.448203,-2.566016,-0.715284,-4.225407
1000.855469,-5.041844,-4.203107,-2.447915,-8.873091
1000.859375,-12.230084,2.398699,-3.048285,-1.036947
1000.863281,-3.284259,-3.893452,-4.743724,-11.821435
1000.867188,-11.753149,-6.362590,-6.002917,-5.011132
1000.871094,-9.013103,-11.599866,-13.381331,-6.056038
1000.875000,-6.824276,-0.915833,-12.934647,-8.526314
1000.878906,-11.548460,-4.274723,-12.695581,-6.744351
1000.882812,-7.925451,-5.189720,-5.532374,-9.520390
1000.886719,-10.439617,-1.461841,-10.663954,-8.361665
1000.890625,-11.055465,-4.393413,0.261935,-5.995466
1000.894531,1.796306,1.416886,-3.864578,-4.382520
1000.898438,-11.053802,3.429432,2.508237,-11.173113
1000.902344,-2.303888,3.044909,3.501854,10.405785
1000.906250,8.270372,0.768975,5.427818,1.839757
1000.910156,3.381925,9.921693,10.408852,8.963672
1000.914062,4.388571,13.063717,4.099432,4.819376
1000.917969,8.838219,12.192420,3.626761,13.722858
1000.921875,11.423524,15.076948,8.830498,4.062562
1000.925781,7.408273,8.036763,7.989355,16.189540
1000.929688,6.724319,15.131522,12.140987,9.612006
1000.933594,4.962098,9.409719,6.041407,9.509590
1000.937500,8.610718,8.793947,11.012871,3.419703
1000.941406,1.252742,12.368665,8.174997,5.290888
1000.945312,-1.215618,6.267570,4.359075,1.002535
1000.949219,-3.158708,5.294200,5.383808,-4.000458
1000.953125,0.988162,4.126901,-6.559474,2.307767
1000.957031,0.569633,-1.535435,-4.477178,-6.660991
1000.960938,-4.826959,-1.115142,1.081780,-5.326841
1000.964844,-7.706690,-2.518040,-4.610396,-9.676939
1000.968750,-3.647783,-5.798588,-11.207432,-3.104069
1000.972656,-3.924875,-9.887477,-7.361810,-10.567974
1000.976562,-17.598568,-10.205464,-5.866868,-9.294917
1000.980469,-10.529946,-8.602689,-12.883205,-4.655668
1000.984375,-9.994100,-5.671818,-4.494496,-7.926997
1000.988281,-8.308805,-14.068217,-9.680228,-6.234597
1000.992188,-8.520783,-4.708340,-8.105387,-4.439225
1000.996094,-6.087673,-3.577451,-3.856896,-6.743400
1001.000000,-3.347126,1.649541,-6.636933,-2.800399
1001.003906,4.107821,3.047794,2.132211,-1.767492
1001.007812,-0.466210,-0.555723,6.101102,1.540083
1001.011719,10.131871,9.215431,2.581475,1.841000
1001.015625,2.648879,10.034991,13.355940,13.125000
1001.019531,11.391172,3.738947,9.521314,6.597230
1001.023438,11.488534,10.431063,6.225570,11.329612
1001.027344,8.008182,11.736912,4.822647,9.223111
1001.031250,1.791824,4.918392,5.721181,11.705428
1001.035156,8.976985,7.612373,8.643122,9.041656
1001.039062,3.405673,1.986278,-2.279901,6.398947
1001.042969,4.037099,7.942753,0.727888,-3.303569
1001.046875,-0.610015,2.752722,-0.387910,0.453917
1001.050781,0.880508,1.365164,-2.697056,2.904302
1001.054688,-3.562812,3.791285,-1.543408,-3.473572
1001.058594,-5.017046,-11.182706,0.103190,-2.777400
1001.062500,-6.623891,-12.172318,-2.741434,-5.683904
1001.066406,-11.202724,-9.147477,-3.993007,-15.532364
1001.070312,-5.842008,-6.099639,-14.732650,-8.824133
1001.074219,-10.164776,-6.904376,-6.385241,-3.218111
1001.078125,-13.392701,-6.307291,-7.088874,-9.507661
1001.082031,-8.442772,-9.452479,-5.303013,-8.575988
1001.085938,-11.782095,-10.501792,-1.545952,-12.986115
1001.089844,-10.089228,-4.806073,-8.235388,-0.371590
1001.093750,-1.945705,-4.189067,-9.821689,-6.416080
1001.097656,0.783677,1.255403,-1.348134,0.210180
1001.101562,2.491622,1.789110,8.262119,0.845958
1001.105469,3.280112,8.226373,8.307629,7.060266
1001.109375,5.655270,9.498780,1.379908,3.948758
1001.113281,4.760290,14.966929,3.167984,7.194540
1001.117188,7.691472,9.821504,11.139518,8.735211
1001.121094,11.470838,10.769298,7.853656,13.156699
1001.125000,22.306144,9.321609,9.634894,2.185362
1001.128906,9.579327,2.761624,6.625910,9.082344
1001.132812,3.352131,7.825702,7.851389,11.959312
1001.136719,7.609602,3.475904,9.007519,1.735121
1001.140625,1.300550,4.619780,7.442316,7.457445
1001.144531,3.449695,6.905544,9.910822,6.987040
1001.148438,-4.352925,0.371639,5.024473,8.293846
1001.152344,-0.270542,0.206102,-3.629374,4.705610
1001.156250,-3.271296,-7.156883,-11.385697,-1.583431
1001.160156,-4.158959,-8.990367,-11.029265,-1.189991
1001.164062,-7.679539,-3.164106,-2.399048,-10.136281
1001.167969,-5.163290,-16.783548,-14.278911,-14.082424
1001.171875,-6.849644,-8.324755,-9.689024,-1.987315
1001.175781,-10.943813,-12.045847,-6.137722,-10.441291
1001.179688,-19.661875,-8.851155,-11.247929,-10.945291
1001.183594,-12.571398,-12.254965,-4.254371,3.035863
1001.187500,-7.427304,-11.870259,-12.274824,-7.550558
1001.191406,-5.482493,-13.320839,-0.935206,5.201137
1001.195312,-7.812418,-4.138424,2.765281,-1.969859
1001.199219,-0.729571,2.711568,-2.045105,0.518887
1001.203125,2.145233,-5.236303,10.243640,0.309816
1001.207031,1.893503,0.928587,8.002832,1.884692
1001.210938,10.505324,2.257283,3.881403,9.390653
1001.214844,13.482498,9.166618,5.276263,6.196071
1001.218750,14.280602,11.923982,16.623998,11.451965
1001.222656,7.772099,13.924452,12.798074,3.337608
1001.226562,6.607810,11.555397,7.917424,5.176784
1001.230469,6.042668,5.514060,5.174443,16.065756
1001.234375,7.597164,8.952844,10.875501,9.265756
1001.238281,-0.089779,3.145636,4.414129,9.956794
1001.242188,-1.398367,3.917635,4.497145,10.756499
1001.246094,1.470123,9.274487,3.785201,0.595387
1001.250000,9.662794,-1.091441,-0.686513,1.450533
1001.253906,-1.867655,-5.978477,-3.273765,-4.514753
1001.257812,-5.351158,-6.949738,-5.899345,-0.647770
1001.261719,-10.860550,-7.482282,-5.336819,0.782832
1001.265625,-9.571952,-8.469693,-3.939874,-9.683097
1001.269531,-9.641949,-6.997590,-3.005156,-11.637699
1001.273438,-7.889504,-13.456765,-13.495156,-18.173408
1001.277344,-3.557241,-7.235148,-11.785620,-9.897937
1001.281250,-7.579956,-9.525084,-7.380041,-10.243928
1001.285156,-7.773662,-6.849956,-8.252055,-7.062867
1001.289062,-3.738278,-7.994999,-9.158432,-2.442543
1001.292969,-15.075917,-8.377123,-6.324592,-3.599844
1001.296875,-12.332597,-0.096584,2.733942,3.362012
1001.300781,-4.065413,-0.532777,1.764518,2.866267
1001.304688,6.882885,1.343037,6.359663,2.471975
1001.308594,0.665138,2.034134,7.966665,-0.056568
1001.312500,5.914642,6.976061,9.199836,12.471618
1001.316406,6.421903,2.127687,14.227632,9.324953
1001.320312,8.829121,14.041340,13.780514,10.813716
1001.324219,7.517120,7.488817,11.590228,13.998848
1001.328125,12.668441,7.078481,3.281682,10.945774
1001.332031,6.619555,5.997014,9.583517,11.892538
1001.335938,3.959640,9.424482,9.076868,12.131087
1001.339844,-0.712699,5.704030,8.712219,6.173374
1001.343750,2.710282,5.211980,8.752948,1.842202
1001.347656,-2.017389,6.073791,-3.912730,-2.724476
1001.351562,-2.458105,-1.534445,0.356215,-4.700863
1001.355469,3.867396,-5.535673,-1.515960,-0.423343
1001.359375,-5.065748,-1.711310,-8.509359,-0.606470
1001.363281,-5.418829,-3.406557,-2.996511,1.790146
1001.367188,-7.180378,-5.368476,-4.631939,-5.423003
1001.371094,-13.579565,-7.200838,-11.011878,-12.561295
1001.375000,-2.042840,-14.332533,-4.325897,-13.393230
1001.378906,-13.058809,-9.184188,-3.807263,-5.277620
1001.382812,-7.445426,-3.635785,-8.477077,-3.732966
1001.386719,-2.454167,-3.148700,-2.581842,-7.409220
1001.390625,-1.050147,-1.885482,-1.500653,-2.912956
1001.394531,-3.766813,-6.492111,0.210024,-6.187595
1001.398438,-1.645211,-0.540867,-0.068771,7.077517
1001.402344,7.124874,-0.385621,5.443742,4.470389
1001.406250,-5.970804,6.653530,8.027174,0.882906
1001.410156,7.788157,5.279751,9.888685,9.829420
1001.414062,2.954688,6.441358,13.135205,6.611338
1001.417969,6.661350,5.731977,5.626684,10.499602
1001.421875,13.028930,4.260517,6.794911,2.307728
1001.425781,3.991753,9.327827,8.035566,11.871403
1001.429688,15.029496,14.054713,5.656754,8.014548
1001.433594,11.175068,10.762466,17.586085,2.844452
1001.437500,5.865939,11.068509,7.728018,6.158355
1001.441406,1.882680,4.934710,1.132434,5.517207
1001.445312,-3.650253,4.455687,5.392879,8.386902
1001.449219,-2.030438,-0.441536,0.109661,1.035522
1001.453125,-0.978817,-5.012526,-1.647595,7.850017
1001.457031,-7.067187,-5.825341,-10.519866,-4.317214
1001.460938,-5.088607,-9.053634,-7.239412,-7.486266
1001.464844,-2.939615,-9.576363,-11.811778,-14.284846
1001.468750,-14.175420,-5.874179,-8.673640,-5.439530
1001.472656,-3.114824,-10.855760,-11.588775,-19.459495
1001.476562,-17.085163,-10.934139,-7.999833,-5.221802
1001.480469,-16.961066,-16.319086,-12.650508,-5.747223
1001.484375,-4.853251,-10.287985,-5.063143,-9.430392
1001.488281,-9.995630,-5.735693,-10.192964,-4.440632
1001.492188,-9.575139,-8.928046,-9.177831,-4.865336
1001.496094,0.281636,-5.287028,-5.544569,-1.286915
1001.500000,-0.047660,0.092129,-2.832017,-3.568933
1001.503906,-2.154685,-3.670459,5.700599,-1.753176
1001.507812,10.110259,5.663875,7.152877,6.562434
1001.511719,9.612898,9.454130,7.147990,8.755408
1001.515625,5.204133,10.520916,8.181882,13.346403
1001.519531,5.886097,11.696977,13.727176,3.146373
1001.523438,14.128309,10.118397,7.743362,10.070752
1001.527344,16.089597,13.868132,7.988767,1.859139
1001.531250,2.237081,12.442787,13.327513,14.996991
1001.535156,7.439448,7.213814,8.160412,6.146219
1001.539062,7.644860,7.879348,5.763282,2.620434
1001.542969,5.894707,15.214196,7.978439,3.734916
1001.546875,0.432338,-0.706686,0.317675,-2.983834
1001.550781,0.268346,-6.121708,-5.765536,-2.865995
1001.554688,-7.532779,-1.729863,-3.809412,-4.957360
1001.558594,-6.526232,0.410664,-2.900981,-5.464079
1001.562500,-8.065780,-7.863036,-10.321172,-7.668002
1001.566406,-7.197396,-5.179396,-8.196376,-13.670768
1001.570312,-10.191700,-4.389313,-11.790071,-16.585002
1001.574219,-10.405177,-5.889660,-7.952134,-5.947544
1001.578125,-5.207995,-7.611024,-10.569994,-4.635715
1001.582031,-3.436090,-14.362198,-6.227101,-12.859948
1001.585938,-5.171604,-10.404195,-8.776623,-9.711379
1001.589844,-9.731046,-6.490596,-5.328508,-1.664270
1001.593750,-2.890632,-6.030627,2.456708,1.649674
1001.597656,1.021610,1.421776,-4.552852,-0.901300
1001.601562,1.238564,-2.440312,0.678811,4.084625
1001.605469,6.725822,0.480805,-0.825545,-1.736401
1001.609375,0.193576,5.580257,6.067629,8.913124
1001.613281,3.220678,7.809880,7.594841,-0.422147
1001.617188,12.711127,9.655646,9.029035,3.106407
1001.621094,11.933397,13.403378,6.617747,3.325184
1001.625000,5.007325,7.162145,8.893660,14.990773
1001.628906,11.681579,6.333954,3.479395,13.869187
1001.632812,8.861129,7.159784,4.635329,12.182883
1001.636719,5.118999,5.538627,5.741764,4.448796
1001.640625,-0.879220,3.882184,1.628946,8.400210
1001.644531,5.855699,8.828962,6.188788,-0.172946
1001.648438,0.177397,-2.395460,-0.231683,0.772551
1001.652344,1.145672,0.310233,3.270222,2.338324
1001.656250,-0.265668,-8.665987,-1.057614,-4.376331
1001.660156,-5.834440,-8.172150,-13.121805,-7.558241
1001.664062,-14.098404,-6.912963,-6.070621,-3.634586
1001.667969,-14.429920,-19.711652,-16.088482,-10.975264
1001.671875,-13.943315,-8.425917,-12.300486,-10.285154
1001.675781,-5.600028,-12.542525,-9.128403,-13.334666
1001.679688,-9.943159,-2.792693,-7.334661,-12.931461
1001.683594,-15.724481,-7.081866,-6.718003,-9.731524
1001.687500,-9.877442,-7.440446,-3.540446,-8.858110
1001.691406,-2.138416,-5.084605,-4.270392,-11.179697
1001.695312,-4.156742,1.473518,1.191796,-4.727616
1001.699219,-2.509985,-8.869709,-0.934101,1.439254
1001.703125,4.760157,-0.441356,0.456205,-0.059751
1001.707031,8.323610,1.457335,7.461678,4.389394
1001.710938,2.183548,2.609690,2.545966,5.947520
1001.714844,8.710392,11.514681,9.327328,8.497752
1001.718750,9.659940,5.095435,6.758651,8.411068
1001.722656,9.397448,8.884571,16.484897,16.624381
1001.726562,11.678908,13.833783,14.077074,11.151057
1001.730469,5.370014,14.041928,8.338837,5.043709
1001.734375,8.266183,8.365773,9.409028,11.448387
1001.738281,12.424255,5.864443,12.154822,5.470381
1001.742188,9.080648,3.121282,5.940195,11.958308
1001.746094,1.501171,3.561009,1.250416,-1.408509
1001.750000,0.424496,-6.483310,-6.155518,2.024044
1001.753906,0.117271,3.430684,-4.818211,-0.855646
1001.757812,-2.450579,-3.672059,-4.467164,-3.522072
1001.761719,-14.604477,-3.824688,-10.411250,-3.528759
1001.765625,-5.041911,-12.693157,-2.880907,-6.957986
1001.769531,-10.538700,-19.948873,-5.987972,-13.071955
1001.773438,-9.279966,-7.945849,-11.063754,-9.530453
1001.777344,-8.675038,-8.282886,-9.358049,-11.245307
1001.781250,-14.627470,-8.497274,-8.455741,-9.898376
1001.785156,-7.145991,-9.512202,-6.842773,-7.635063
1001.789062,-2.506601,-10.308400,-8.365162,-12.912785
1001.792969,0.287913,-12.555468,3.116873,-1.994208
1001.796875,-5.834906,-10.019888,-1.875776,-1.051230
1001.800781,-2.460018,-3.185122,-5.742086,-4.350809
1001.804688,1.751283,6.203613,4.579751,0.061453
1001.808594,-2.818202,5.921213,6.616706,2.766249
1001.812500,12.397567,6.912870,1.647793,2.741101
1001.816406,9.584177,2.404055,8.988203,11.247109
1001.820312,0.838918,8.553594,13.762753,4.334887
1001.824219,5.869438,13.817308,4.398009,16.347923
1001.828125,9.076813,9.568564,7.387692,7.084804
1001.832031,12.351057,8.133916,13.222888,12.966495
1001.835938,11.186857,-1.201849,8.336574,12.430734
1001.839844,3.348799,14.528905,7.958569,8.209282
1001.843750,2.103178,8.614573,1.586134,0.309377
1001.847656,0.938559,0.234282,-1.911058,2.193833
1001.851562,0.401970,2.854755,5.268029,-4.370373
1001.855469,-6.808656,-3.085188,1.345910,-6.531724
1001.859375,-2.380954,-2.601293,-6.946469,-11.804293
1001.863281,-11.767878,-8.670577,-7.537550,-6.085415
1001.867188,-3.639196,-6.949515,-12.021580,-7.625092
1001.871094,-5.589216,-14.824165,-6.828027,-7.822069
1001.875000,-7.895557,-10.190848,-11.279895,-9.765620
1001.878906,-6.348167,-8.597790,-10.031994,-9.845349
1001.882812,-11.890696,-12.192737,-10.612944,-6.219535
1001.886719,-5.608719,-4.403098,-11.604943,-5.197605
1001.890625,-4.230132,-8.152168,-4.865631,-8.725814
1001.894531,-11.704578,-11.110563,-0.028784,2.069812
1001.898438,-3.945874,1.530095,-1.599293,0.570908
1001.902344,-2.576793,0.429572,5.641618,-2.010919
1001.906250,5.445529,-2.324831,7.017261,1.334213
1001.910156,7.002239,-2.204556,11.762581,7.407243
1001.914062,5.985952,14.083544,7.455939,8.722297
1001.917969,13.108236,6.129026,8.922341,6.406975
1001.921875,17.880271,3.059718,10.237818,12.364225
1001.925781,10.396703,6.523771,11.259443,6.900563
1001.929688,5.285603,14.549458,8.090941,14.528537
1001.933594,11.015309,5.802380,5.019364,11.825714
1001.937500,7.367310,9.607982,5.513750,5.723807
1001.941406,3.830687,4.915520,5.143141,-0.135471
1001.945312,2.050498,-0.483206,-0.730434,4.374603
1001.949219,0.852435,-1.020127,-0.640764,1.934845
1001.953125,-1.600268,-6.750602,3.424690,-1.925635
1001.957031,-1.243099,-7.940999,-9.547403,-8.075145
1001.960938,-3.026069,-2.306649,-10.070432,-6.023157
1001.964844,-6.021591,-10.019842,-8.764252,-6.495757
1001.968750,-5.065285,-8.659575,-15.901246,-6.475559
1001.972656,-11.656877,-2.510021,-15.881890,-9.007638
1001.976562,-5.627512,-16.616517,-5.712714,-14.801514
1001.980469,-10.861055,-9.500384,-10.269837,-12.661847
1001.984375,-9.040325,-3.199878,-5.420900,-3.807757
1001.988281,-10.073521,-5.080204,-7.643213,-8.397144
1001.992188,-1.805437,-7.662505,-4.216094,1.051757
1001.996094,-3.182506,-4.897543,-3.311733,1.358465
1002.000000,-0.648912,0.775261,1.428263,-2.811696
1002.003906,1.323322,1.922693,-2.795722,-3.087745
1002.007812,7.881258,2.301373,-2.875384,4.063620
1002.011719,3.143864,3.590572,2.930215,6.683749
1002.015625,13.632800,13.911860,0.643968,1.646472
1002.019531,14.829094,14.172617,4.811707,11.063681
1002.023438,6.979666,13.747614,7.384252,7.949810
1002.027344,12.616466,11.003126,8.676749,9.580762
1002.031250,14.294209,6.392565,5.877573,4.914050
1002.035156,1.956633,10.409504,10.356019,18.943611
1002.039062,5.288342,5.513407,8.238371,5.995815
1002.042969,6.519588,17.658904,-2.370810,1.445271
1002.046875,8.579816,-2.612568,3.185974,5.337681
1002.050781,-8.906989,-6.584266,2.157455,-7.029011
1002.054688,-12.005564,-1.692677,-2.878357,-9.327837
1002.058594,1.792671,-4.572894,-5.704176,-3.435216
1002.062500,-5.623012,2.188486,-1.207370,-10.067290
1002.066406,-12.186799,-9.130613,-2.971002,-9.549614
1002.070312,-6.199883,-4.899250,-7.896812,-8.119793
1002.074219,-9.748327,-9.712249,-14.679489,-7.655898
1002.078125,-17.264908,-7.610481,-9.240505,-8.215154
1002.082031,-11.870755,-3.625858,-5.470526,-3.977873
1002.085938,-0.077885,-5.514724,-6.355271,-8.919672
1002.089844,-6.340260,-2.210828,-8.510640,-6.197806
1002.093750,-17.099909,-4.698264,-5.651489,-6.575187
1002.097656,-1.179386,-3.163259,-3.846578,-6.019120
1002.101562,2.168694,-0.531670,-2.524256,2.154833
1002.105469,12.297456,3.249370,9.252679,8.116605
1002.109375,4.936934,7.677638,2.032095,15.799730
1002.113281,9.238615,1.801724,3.169602,9.275661
1002.117188,11.189984,1.717236,11.767176,9.891401
1002.121094,2.846510,13.387683,6.254051,3.498695
1002.125000,15.094714,9.939955,7.237841,14.113885
1002.128906,13.631322,9.141190,9.536270,1.594401
1002.132812,11.967653,11.784810,13.780898,11.317625
1002.136719,4.418962,10.186164,2.311650,12.694206
1002.140625,8.939684,9.035161,9.683739,2.099827
1002.144531,7.425497,3.503659,3.176622,-1.507301
1002.148438,-3.171740,-6.263687,-1.393319,2.330953
1002.152344,1.545821,-6.552943,-9.364710,-5.828780
1002.156250,5.624325,-2.387957,-8.547332,2.230040
1002.160156,-6.283249,-8.083013,-12.232340,-5.531840
1002.164062,-10.091331,-9.553844,-11.252017,-2.086055
1002.167969,-9.406428,-3.156030,-10.250092,-9.003267
1002.171875,-5.608656,-10.624721,-15.580380,-13.187331
1002.175781,-7.901890,-4.977708,-12.673849,-8.089875
1002.179688,-7.879703,-12.464278,-18.036886,-12.014440
1002.183594,-2.602234,-9.693635,-15.698510,-9.135089
1002.187500,-4.567658,-3.468532,-5.481445,0.604584
1002.191406,-0.781656,-0.213164,-2.916434,-0.494517
1002.195312,-1.023646,-0.071116,-2.273867,0.882853
1002.199219,-0.836970,-1.332501,0.678022,-2.694269
1002.203125,-0.831896,10.140301,-0.143722,1.765067
1002.207031,8.977262,4.866940,0.006535,1.551783
1002.210938,3.321853,11.910390,-3.223758,12.174759
1002.214844,10.928666,9.717689,10.185135,16.314539
1002.218750,11.307206,10.773694,5.869283,7.092563
1002.222656,9.557081,8.258593,10.311094,11.468524
1002.226562,11.183251,8.953132,17.463815,6.289355
1002.230469,9.458234,13.156611,8.074701,1.233903
1002.234375,12.998878,2.035220,10.138550,15.202105
1002.238281,16.310405,8.640800,2.156840,3.080153
1002.242188,-1.923875,8.870522,3.206785,-1.362312
1002.246094,1.181073,4.388458,-4.723099,11.322598
1002.250000,-0.563450,-0.291758,-1.638902,-0.293547
1002.253906,-4.856391,-7.284401,2.653732,-0.581900
1002.257812,-6.780468,-14.272426,-9.245329,-3.317086
1002.261719,-8.382169,-3.325799,-10.412884,-9.761857
1002.265625,-3.083611,-11.934763,-12.395837,-7.285403
1002.269531,-10.919041,-8.904666,-3.323748,-13.234084
1002.273438,-12.439559,-2.560990,-5.814070,-9.839903
1002.277344,-9.900408,-12.339546,-11.344907,-9.654657
1002.281250,-6.874927,-10.198487,-6.295452,-13.822539
1002.285156,-1.861975,-11.278320,-7.449639,-8.054310
1002.289062,0.388239,-0.875950,-9.818529,-6.360670
1002.292969,-5.466295,-3.535063,-6.699535,-9.637966
1002.296875,-1.879117,-1.272079,-1.989083,-0.910737
1002.300781,7.290302,-3.282957,-2.903125,4.722672
1002.304688,-2.221509,4.194582,13.511751,0.470764
1002.308594,9.225486,10.734253,7.841598,3.438294
1002.312500,11.572294,8.650869,1.417551,3.709726
1002.316406,5.520919,-6.637316,11.793471,7.620385
1002.320312,0.525729,4.456201,5.108095,1.178802
1002.324219,10.643305,10.685678,14.698864,19.478891
1002.328125,12.269617,8.391431,14.199311,10.231403
1002.332031,9.179270,1.374911,6.943179,14.466612
1002.335938,11.438707,12.476107,5.917274,12.086233
1002.339844,3.307982,5.734071,9.706376,12.986590
1002.343750,9.359351,4.405215,-0.117091,-5.026654
1002.347656,3.335660,-0.740694,-2.875237,0.676854
1002.351562,0.822691,1.689270,-1.047261,-3.187982
1002.355469,-4.726808,-1.194983,0.908366,-2.877182
1002.359375,-7.572064,-5.007671,-7.786882,-0.554163
1002.363281,-7.571461,-7.604355,-1.203608,-8.897203
1002.367188,-15.696490,-6.280620,-8.461153,-11.256288
1002.371094,-7.288584,-13.189923,-12.179393,-9.678390
1002.375000,-14.775371,-14.406528,-11.744798,-6.085733
1002.378906,-15.824275,-7.146936,-9.203897,-9.499588
1002.382812,-13.457326,-14.916800,-10.433829,-7.638581
1002.386719,-9.371076,-8.543211,-10.804907,-12.099351
1002.390625,-1.203328,-10.025812,-9.341235,-5.607038
1002.394531,3.492303,3.663139,-4.114368,-0.176408
1002.398438,4.180516,4.493972,0.596745,4.489991
1002.402344,2.562331,-2.906367,4.317322,4.642252
1002.406250,2.297983,10.633454,0.048214,8.118144
1002.410156,3.811315,3.229935,6.375191,11.779242
1002.414062,3.477710,10.286804,3.441265,7.596956
1002.417969,8.921913,12.234205,6.626194,9.079422
1002.421875,-3.326905,7.528003,4.921285,8.607358
1002.425781,5.621900,11.188621,7.999673,4.894211
1002.429688,12.371092,8.478979,10.593144,9.011339
1002.433594,5.236063,6.130442,4.332823,4.052668
1002.437500,4.206784,1.463897,0.728478,8.449007
1002.441406,1.671135,3.870616,8.161867,5.267494
1002.445312,2.205038,9.428860,0.772843,4.509844
1002.449219,-0.650437,2.447658,3.940489,-4.307348
1002.453125,-0.985751,0.066954,-7.731148,2.055172
1002.457031,-3.384796,-5.074259,1.081814,-3.775089
1002.460938,-11.454207,-8.758544,-7.820224,-6.880573
1002.464844,-7.557321,-9.100952,-4.143610,-10.523405
1002.468750,-13.719510,-9.434060,-17.858663,-8.761157
1002.472656,-12.419944,-12.281365,-13.170070,-13.079791
1002.476562,-2.897096,-5.334502,-11.066385,-3.588175
1002.480469,-6.276454,-10.002127,-10.610981,-3.284125
1002.484375,-8.431564,-7.383244,-4.486791,-13.051216
1002.488281,-2.731970,-9.755751,-7.073286,-1.445786
1002.492188,-8.264257,-2.409013,-8.421824,0.930929
1002.496094,-2.312491,-1.547653,0.358313,-4.639571
1002.500000,-4.145957,-2.448217,-0.908095,-0.224356
1002.503906,1.593549,-4.035816,3.530613,3.491301
1002.507812,8.121688,1.633685,7.344006,6.458124
1002.511719,1.915820,11.284349,0.273818,15.433062
1002.515625,10.694941,7.930653,2.201015,11.028312
1002.519531,15.770537,7.410731,12.500965,8.811276
1002.523438,14.408939,16.156970,13.296773,9.224659
1002.527344,10.328244,4.280100,6.517675,15.290043
1002.531250,9.549518,8.277144,4.625668,10.085623
1002.535156,6.229341,4.611241,8.757117,-2.433800
1002.539062,9.464972,10.443733,4.298941,8.222959
1002.542969,5.685580,1.937728,8.403336,11.541010
1002.546875,-3.997298,-5.353837,1.246779,-4.877193
1002.550781,-1.006225,-5.972325,-3.544487,-1.951978
1002.554688,-0.881042,-0.038548,-3.600486,-8.670599
1002.558594,-4.774434,-1.063159,-3.028244,-7.879190
1002.562500,-4.600853,-13.279710,-13.327950,-2.357481
1002.566406,-12.240104,-8.069904,-15.029360,-9.363818
1002.570312,-9.281377,-7.872391,-6.867147,-8.545145
1002.574219,-11.994148,-8.627819,-1.199291,-11.775612
1002.578125,-11.225620,-7.477153,-10.655707,-10.205809
1002.582031,-5.291811,-17.540798,-6.976337,-13.346647
1002.585938,-12.969127,-9.348742,-5.775251,-5.457927
1002.589844,-11.952124,-10.335565,-1.671773,-3.185787
1002.593750,-1.975939,-3.660175,0.188862,-3.062612
1002.597656,-3.639987,0.686114,1.987187,1.404154
1002.601562,-1.874422,1.953606,-0.785567,0.866329
1002.605469,0.154352,8.727221,6.367943,1.974044
1002.609375,1.445950,3.508846,1.470126,1.979578
1002.613281,11.716578,8.458884,6.955745,6.349469
1002.617188,1.138158,10.082486,9.939129,5.719671
1002.621094,11.004906,12.314043,10.883526,11.038894
1002.625000,11.195356,7.492864,9.947764,9.473112
1002.628906,11.468760,10.536464,7.746930,4.742105
1002.632812,10.134766,1.920683,17.140821,13.698673
1002.636719,0.159959,5.862351,4.017425,5.812318
1002.640625,3.185996,5.873039,1.018442,5.933440
1002.644531,1.806772,1.776584,2.455660,5.214583
1002.648438,1.218607,1.674823,2.994754,1.884995
1002.652344,2.633022,-3.107300,0.223485,-5.251241
1002.656250,-1.305769,5.668894,-1.252652,-5.787521
1002.660156,-3.676905,-5.766921,-0.457837,-8.133234
1002.664062,-13.088451,-16.827673,-5.387562,-6.129519
1002.667969,-9.185889,-10.402017,-11.070668,-5.262725
1002.671875,-3.294490,-6.827639,-5.861615,-9.054615
1002.675781,-7.968135,-8.782197,-10.165557,-16.972931
1002.679688,-15.379636,-11.089371,-13.662433,-10.810201
1002.683594,-9.266584,-2.548335,-10.650618,-6.871939
1002.687500,0.921234,-9.918286,-4.639353,-5.010395
1002.691406,-4.214920,-2.876454,-3.379734,-6.621043
1002.695312,-6.396754,-7.341043,-10.929538,-9.364970
1002.699219,6.004079,3.448788,-0.433349,-2.145197
1002.703125,-1.327551,6.550091,4.047195,-1.493249
1002.707031,7.862110,4.081492,0.727856,1.050309
1002.710938,4.970959,5.490650,5.393141,8.099521
1002.714844,12.699432,14.064430,4.794496,7.887716
1002.718750,9.379998,4.593866,13.504162,15.213407
1002.722656,14.052971,9.645964,8.100160,6.297181
1002.726562,9.314806,7.806272,12.076780,11.007366
1002.730469,14.612295,11.131206,6.311772,10.196232
1002.734375,8.144837,2.864043,6.623022,10.687780
1002.738281,5.113276,10.476042,2.819989,4.276998
1002.742188,5.662961,3.784480,10.634101,5.999550
1002.746094,-1.053378,1.025844,-8.853275,5.960702
1002.750000,-3.810240,-1.468100,1.131268,0.318665
1002.753906,-6.323780,-1.814126,-5.591704,-5.353466
1002.757812,-10.748820,-5.109213,-3.730752,0.868381
1002.761719,-12.361285,-5.717635,-7.136034,-8.169702
1002.765625,-7.554221,-10.579305,-2.970881,-11.271174
1002.769531,-5.907363,-8.404333,-18.204598,-6.914737
1002.773438,-4.109507,-11.569503,-16.232176,-7.454854
1002.777344,-13.823858,-13.067208,-16.964974,-16.440722
1002.781250,-5.948905,-5.123905,-5.684860,-3.486264
1002.785156,-6.042165,-2.270661,-5.127253,-4.523561
1002.789062,-2.302222,-8.844626,-15.248723,-3.264191
1002.792969,-5.348216,-8.907914,-11.809007,-5.647137
1002.796875,-1.428609,2.062001,0.808239,2.242142
1002.800781,2.823033,-0.571296,-5.632765,5.167364
1002.804688,3.789824,-0.782165,9.979956,5.558444
1002.808594,9.954619,-0.023641,0.985780,4.816603
1002.812500,0.278005,5.834279,10.098089,7.769192
1002.816406,7.455252,4.742859,7.486950,15.154491
1002.820312,7.073860,2.053188,13.397745,7.154161
1002.824219,12.167505,4.963864,10.257305,2.807848
1002.828125,8.674309,14.210568,4.413707,10.893142
1002.832031,8.427956,10.714854,9.003500,10.873764
1002.835938,10.552499,2.806648,3.140505,11.328576
1002.839844,4.979925,8.382937,7.009867,5.094203
1002.843750,2.625682,6.217801,0.313052,2.235778
1002.847656,9.353718,3.903944,-2.194241,6.702315
1002.851562,0.560382,-0.722005,1.684617,-2.544725
1002.855469,3.802065,-3.385061,-0.004569,-6.208299
1002.859375,-5.493106,-3.303632,-3.852384,-10.870737
1002.863281,-4.597744,-9.751919,-12.210881,-2.343304
1002.867188,-5.188804,-13.478515,-8.844400,-10.556040
1002.871094,-18.105104,-2.412970,-9.687693,-15.957474
1002.875000,-17.116268,-16.365734,-5.080539,-6.232970
1002.878906,-13.072632,-11.330645,-7.570492,-12.103759
1002.882812,-12.591837,-7.072147,-7.201581,-15.322136
1002.886719,-5.714541,-11.987563,-13.523065,-6.295841
1002.890625,-12.526611,-6.698190,-6.688929,-2.518370
1002.894531,-6.418978,1.785221,2.459223,-0.381682
1002.898438,-7.459416,-6.287107,-3.810939,-5.011396
1002.902344,5.194398,1.303383,2.879830,-2.051198
1002.906250,4.151614,6.302012,6.917543,4.809720
1002.910156,10.419159,12.252368,3.044507,14.783662
1002.914062,5.927003,2.402372,14.781521,9.390745
1002.917969,6.352169,7.653784,12.456200,6.087388
1002.921875,7.353445,9.523062,14.906331,8.791170
1002.925781,8.943051,4.236753,14.780061,15.051551
1002.929688,9.839007,4.725705,9.101803,10.292934
1002.933594,11.133554,7.425372,6.657782,14.502136
1002.937500,9.055508,11.759846,7.041598,5.346733
1002.941406,4.857464,9.428576,1.814006,11.263043
1002.945312,4.809460,1.332914,4.585607,2.424772
1002.949219,-3.284217,0.723538,9.386251,-4.437062
1002.953125,0.199147,-0.088072,-2.536053,-2.535072
1002.957031,-2.124422,-10.862663,2.154570,-1.129114
1002.960938,-3.952030,-10.576551,-4.063422,-6.729861
1002.964844,-17.850059,-4.402743,-7.686731,-9.832108
1002.968750,-11.758954,-13.172365,-8.317752,-1.504867
1002.972656,-11.998597,-10.214667,-3.280252,-2.415833
1002.976562,-11.137843,-9.666094,-5.320917,-9.633095
1002.980469,-7.264655,-14.579900,-4.522932,-11.861613
1002.984375,-4.365416,-6.430741,-0.674563,-4.003176
1002.988281,-2.761331,-7.504208,-6.978873,-3.535341
1002.992188,-4.896682,-6.792115,-5.879483,-7.464761
1002.996094,-1.232786,-0.185506,-2.119647,2.063051
1003.000000,1.035865,2.353627,-3.553425,7.283863
1003.003906,13.114099,-1.636684,-6.408501,4.325775
1003.007812,6.980337,5.278174,8.457820,0.844059
1003.011719,7.050194,-0.360082,5.197537,5.652820
1003.015625,6.554519,9.100075,5.095875,6.468769
1003.019531,8.704858,8.895788,14.766510,8.599899
1003.023438,13.877537,8.859817,13.563902,8.906034
1003.027344,9.137723,4.635519,10.452051,5.350210
1003.031250,8.523273,14.675987,12.099349,12.081648
1003.035156,18.512422,2.281793,8.032570,4.461845
1003.039062,9.399227,15.224694,9.986243,1.676375
1003.042969,9.961570,2.640935,8.474888,2.284225
1003.046875,-4.621107,0.771937,6.247645,2.721112
1003.050781,0.385200,-5.463736,-4.210641,0.393924
1003.054688,5.541282,-6.580864,0.180268,-4.467925
1003.058594,-6.783848,-7.773120,-1.061028,-1.264095
1003.062500,-9.337952,-7.731670,-9.616288,-5.579182
1003.066406,-9.292240,-4.566751,-7.270954,-6.945044
1003.070312,-8.041034,-9.999444,-9.294086,-2.909508
1003.074219,-13.560609,-7.840787,-12.211268,-14.153437
1003.078125,-3.590522,-4.933078,-1.816213,-14.395859
1003.082031,-9.005466,-11.598846,-0.645520,-2.622963
1003.085938,-9.233190,0.802203,-16.158977,-7.793266
1003.089844,-1.416492,-3.989367,-1.631930,-13.383380
1003.093750,2.227701,-8.798942,-5.266620,-8.411713
1003.097656,-7.152583,-1.735601,1.415169,0.798048
1003.101562,-5.346277,-1.958290,-2.989635,3.569029
1003.105469,7.308761,1.242325,1.482300,4.505209
1003.109375,9.600727,12.630713,5.930371,4.624822
1003.113281,8.198905,7.118950,12.026688,10.897897
1003.117188,13.351449,11.880634,9.169638,13.718952
1003.121094,8.311756,7.426524,14.884410,6.765531
1003.125000,5.673851,7.039155,3.347295,17.073258
1003.128906,5.019398,10.257792,6.206436,16.559933
1003.132812,8.433910,10.357146,8.931488,5.416564
1003.136719,12.513459,-0.139811,7.957573,6.755686
1003.140625,9.072319,3.843096,9.596555,7.655496
1003.144531,7.458316,2.925441,-2.711255,8.643075
1003.148438,6.219602,4.070729,8.819417,-1.439195
1003.152344,-5.336461,-12.886780,-1.344384,-4.313683
1003.156250,-4.143635,-10.391197,-5.580714,-7.960015
1003.160156,-15.388129,-5.912681,-2.607003,-7.836879
1003.164062,-9.709074,-6.248773,-3.705683,-14.241355
1003.167969,-11.797108,-11.443018,-15.309624,-1.170330
1003.171875,-5.989406,-9.232738,-6.361048,-15.758483
1003.175781,-12.489065,-13.496405,-18.884317,-14.706656
1003.179688,-3.573760,-15.762688,-1.580543,-14.137783
1003.183594,-2.027346,-6.507745,-10.749649,-6.975362
1003.187500,-5.013185,-11.075608,-3.698627,-2.809420
1003.191406,-2.610535,-6.491632,-1.229780,1.307494
1003.195312,-5.545795,0.467445,-11.769633,-1.214383
1003.199219,-6.090677,-1.640443,2.835400,-1.840427
1003.203125,0.344068,-3.245806,-0.570269,1.098986
1003.207031,5.576378,7.297604,8.042968,2.685609
1003.210938,9.441793,8.435277,1.258676,6.379056
1003.214844,14.379253,3.009298,6.221135,-1.563431
1003.218750,6.917356,9.272785,7.273563,7.072114
1003.222656,15.318230,8.761677,16.222594,8.277827
1003.226562,8.265171,8.527282,5.593063,16.268270
1003.230469,7.759022,5.784674,9.639091,20.393325
1003.234375,10.373377,11.228167,6.915298,2.266651
1003.238281,8.171501,6.681071,1.708011,8.583418
1003.242188,3.602224,13.007808,10.018207,2.419814
1003.246094,0.863026,-0.982740,2.652329,-1.132459
1003.250000,4.768623,-1.154183,-1.239427,5.935144
1003.253906,3.662025,-1.913427,7.190115,1.234819
1003.257812,-12.048402,-0.111434,-5.736832,-8.087883
1003.261719,-7.225265,-5.919250,-6.194744,-3.776363
1003.265625,-10.436488,-13.334185,-9.140637,-4.297473
1003.269531,-3.802178,-4.490810,-6.258088,-4.532603
1003.273438,-5.690383,-12.245040,-7.685515,-9.221040
1003.277344,-17.700972,-14.668589,-14.938592,-3.032190
1003.281250,-9.923397,-10.038371,-15.072203,-13.988007
1003.285156,-13.845602,-6.256351,-10.829512,-8.380429
1003.289062,-10.567119,-1.757585,-5.958151,-10.449474
1003.292969,-4.535499,-6.769824,-4.670337,-1.469882
1003.296875,-3.107763,-1.484695,-4.141833,-0.687327
1003.300781,3.476340,-3.404369,-2.363672,2.439659
1003.304688,6.299318,2.608614,0.689535,-1.733856
1003.308594,-2.387929,8.278848,6.278130,0.549439
1003.312500,8.401010,9.168895,7.050412,3.375258
1003.316406,9.756424,12.765920,12.452439,5.683335
1003.320312,5.700839,7.654120,5.151185,8.206473
1003.324219,7.753763,9.023745,15.109835,8.040109
1003.328125,7.957789,7.455859,9.740373,2.554536
1003.332031,13.314584,12.769107,6.996038,5.692610
1003.335938,2.722415,6.041979,9.068279,9.155311
1003.339844,4.668645,13.799186,5.903881,8.564780
1003.343750,1.237008,3.262108,3.343123,9.858292
1003.347656,-1.653755,-3.136014,4.139627,0.706137
1003.351562,-0.758119,-0.714576,-2.024354,6.873735
1003.355469,0.646383,-3.523501,1.676033,-7.472167
1003.359375,-8.271500,-0.214249,-6.656488,-9.746967
1003.363281,-7.177247,-7.734099,-17.328610,-9.641140
1003.367188,-7.577892,-10.134607,-8.064689,-8.779883
1003.371094,-12.927952,-11.458760,-13.117920,-13.093150
1003.375000,-14.907332,-7.483560,-8.905357,-11.592046
1003.378906,-13.157417,-11.521762,-19.967068,-17.182705
1003.382812,-9.557676,-2.881980,-4.778732,-12.259469
1003.386719,-7.332796,-12.713912,-2.800334,-14.735350
1003.390625,-5.466265,-7.109534,-16.024433,2.235897
1003.394531,-6.813161,-3.341483,2.050519,-0.419517
1003.398438,-8.831184,0.260937,1.114321,0.013522
1003.402344,-3.487930,5.161230,10.233062,4.291836
1003.406250,3.011993,4.492286,4.169646,3.948544
1003.410156,5.122384,8.267449,7.503761,6.896611
1003.414062,3.725692,9.713973,14.746182,5.352640
1003.417969,6.198835,4.271898,8.155352,12.926668
1003.421875,17.029936,9.110098,3.592623,10.584670
1003.425781,11.955029,7.234551,10.005522,12.062121
1003.429688,12.515640,5.841271,5.959347,16.824150
1003.433594,0.334786,5.325089,14.579123,14.135063
1003.437500,9.485164,10.585976,7.096809,3.850746
1003.441406,2.786596,0.707101,4.786334,7.297723
1003.445312,3.735983,7.633195,-3.313269,-0.426238
1003.449219,-0.868745,5.496909,-2.385010,4.538388
1003.453125,4.531763,-4.489012,-2.896988,1.256138
1003.457031,-7.021890,-5.850593,-1.945559,5.677592
1003.460938,-9.379636,-5.842249,-8.490403,-11.772806
1003.464844,-5.233424,-7.727231,-6.193635,-12.416973
1003.468750,-12.946810,-13.378165,-5.668748,-2.966078
1003.472656,-10.550143,-6.138053,-15.733907,-12.906975
1003.476562,-7.565187,-13.266937,-6.603674,-14.509603
1003.480469,-12.651595,-2.727544,-16.656255,-6.587653
1003.484375,-2.373524,-5.047778,-10.396170,-7.032243
1003.488281,-14.322382,-0.692725,-2.255617,-11.302954
1003.492188,-3.258821,-3.367493,-9.604806,-8.700223
1003.496094,0.685106,-1.698325,0.854169,-7.762817
1003.500000,1.899164,-0.842693,2.822815,2.835653
1003.503906,6.567486,9.701268,4.465736,0.950157
1003.507812,5.560189,4.422835,4.976349,3.215911
1003.511719,12.701959,11.556459,1.940856,-1.052259
1003.515625,8.396582,11.883736,13.718696,9.316623
1003.519531,2.589474,10.950071,15.702407,8.338100
1003.523438,11.434183,12.480248,9.084890,16.996187
1003.527344,9.041260,10.345548,4.273716,8.652886
1003.531250,15.291666,5.408460,9.646806,17.029218
1003.535156,6.450435,6.439373,3.429431,12.092259
1003.539062,10.891896,16.728643,4.828799,7.995271
1003.542969,9.836008,1.805691,-3.502251,5.402387
1003.546875,4.012773,5.244369,6.952071,3.329314
1003.550781,1.866256,-5.337297,3.752676,-0.428819
1003.554688,3.352635,-5.594206,1.038779,-0.447269
1003.558594,0.490303,-5.494671,-3.697047,-2.374764
1003.562500,-3.510777,-10.006824,-8.150581,-3.001891
1003.566406,-7.999718,-8.860374,-8.011294,-12.621573
1003.570312,-8.857640,-14.411492,-6.369363,-3.669228
1003.574219,-10.377644,-7.386801,-10.972303,-3.179909
1003.578125,-10.572115,-0.836177,-13.783185,-12.385314
1003.582031,-1.276420,-3.882895,-9.180980,-10.223134
1003.585938,-6.779672,-6.280690,-10.899317,-3.087685
1003.589844,-1.113846,-6.568433,-5.983764,-11.801380
1003.593750,-9.010430,-1.941656,8.680435,0.456926
1003.597656,-1.932669,1.060884,-2.450522,-2.909162
1003.601562,-4.473623,5.347141,-8.252512,0.789462
1003.605469,5.766358,1.770622,7.340953,1.486598
1003.609375,0.134424,10.046345,6.587862,0.380578
1003.613281,12.210865,9.116804,9.683033,4.330442
1003.617188,10.255666,5.591710,10.519957,2.753522
1003.621094,8.611211,10.533992,11.742862,6.306691
1003.625000,14.908869,7.923452,12.596269,8.951951
1003.628906,5.211998,11.930541,17.993323,13.229830
1003.632812,4.054734,12.939992,1.034491,11.557749
1003.636719,11.410974,6.096656,9.747168,7.754541
1003.640625,10.598093,8.960372,6.310588,6.359070
1003.644531,6.702637,2.390219,5.329895,3.140343
1003.648438,-6.349706,-0.539904,0.401466,-0.724127
1003.652344,-0.924287,-3.607681,-9.652013,-0.562899
1003.656250,-1.612743,-7.965939,-4.048696,2.684524
1003.660156,-2.433220,-8.224918,-7.804281,-6.190541
1003.664062,-7.031590,-13.852142,-7.850346,-13.972224
1003.667969,-12.350206,-14.486377,-6.733464,-6.572959
1003.671875,-10.315727,-6.177490,-14.241656,-10.453045
1003.675781,-0.838106,-11.409590,-7.465783,-8.741548
1003.679688,-5.785883,-6.650998,-8.478444,-11.145133
1003.683594,-7.669348,-4.829942,-5.080113,-4.324687
1003.687500,-5.824382,-12.041165,-12.946994,-11.680246
1003.691406,4.474462,-7.249549,-5.529189,0.389812
1003.695312,-7.577558,-5.770491,1.318159,-4.236412
1003.699219,2.595557,5.300172,0.482944,-1.691348
1003.703125,-0.027157,5.010830,8.281260,0.298211
1003.707031,1.904013,3.415260,3.339564,9.040659
1003.710938,5.135905,3.247785,3.378219,3.715607
1003.714844,9.631407,2.844846,8.969365,-0.892517
1003.718750,9.534048,7.596723,3.982376,6.680778
1003.722656,14.746881,13.288868,11.694539,17.139964
1003.726562,13.731964,6.870769,12.253307,13.686044
1003.730469,15.567623,10.970529,10.042954,9.546190
1003.734375,11.423459,8.930462,7.545358,6.038347
1003.738281,3.476564,3.587249,7.455153,7.149162
1003.742188,3.605407,8.529077,5.609900,2.870254
1003.746094,0.158819,-4.827036,2.957168,-2.070260
1003.750000,-4.315037,-1.007100,6.375834,8.297707
1003.753906,-0.379125,-5.785260,2.888181,0.059461
1003.757812,-7.984457,-0.524731,-5.010894,-7.120394
1003.761719,-5.451783,-10.986912,-6.849397,-9.485731
1003.765625,-5.972451,-13.354293,-5.776226,-9.540068
1003.769531,-10.427705,-11.016042,-10.470327,-13.831406
1003.773438,-8.743853,-10.740625,-6.669627,-11.601946
1003.777344,-12.094096,-11.499970,-15.749620,-15.299150
1003.781250,-9.475306,-9.743968,-8.343651,-14.115582
1003.785156,-4.785487,0.873648,-5.683559,-10.482325
1003.789062,-10.836129,-0.530439,-11.285559,2.562406
1003.792969,-2.675412,-2.245047,-3.958075,-2.985976
1003.796875,1.529947,-3.416777,0.517610,-0.205795
1003.800781,-9.082552,-1.265285,1.228165,-3.124570
1003.804688,0.561583,-1.778648,0.027992,-0.599071
1003.808594,16.188959,1.980623,3.907552,4.306425
1003.812500,11.886739,9.196667,11.027654,1.295562
1003.816406,12.984740,1.429708,12.168720,6.463112
1003.820312,12.370764,8.771935,13.224578,8.383856
1003.824219,12.107155,13.539103,2.465127,21.523851
1003.828125,13.330153,7.824919,11.345452,7.050010
1003.832031,7.958678,8.909228,11.009053,9.325143
1003.835938,2.443532,7.692296,12.266050,7.015740
1003.839844,4.015581,3.653890,7.446752,5.412498
1003.843750,2.519215,3.382331,12.768766,-1.289522
1003.847656,-0.894162,1.834208,-6.994076,0.238708
1003.851562,-4.991988,-0.275420,-7.979076,10.941780
1003.855469,-3.774689,-4.311755,-6.433469,-7.399352
1003.859375,-6.611872,-4.734923,-4.847433,-10.180230
1003.863281,-3.968763,-6.015994,-4.780704,-6.233650
1003.867188,-11.551695,-10.681396,-12.737136,-8.871960
1003.871094,-8.367960,-17.577551,-6.850103,-4.711693
1003.875000,-10.867602,-14.121228,-9.150907,-8.344822
1003.878906,-9.949803,-15.970496,-10.673274,-18.967292
1003.882812,-10.397841,-12.705275,-1.303026,-4.975513
1003.886719,-8.273451,-10.861297,-15.107783,-2.763759
1003.890625,-4.175576,-0.368038,-6.183646,-9.893953
1003.894531,-5.890499,-1.095085,-5.666758,-5.718037
1003.898438,0.064879,-4.585471,-0.106623,-0.951418
1003.902344,0.207568,7.456920,3.431135,7.671732
1003.906250,3.383350,2.415014,11.996495,2.750716
1003.910156,8.111761,2.123573,6.335366,8.178363
1003.914062,8.784209,10.193080,9.514243,-1.046809
1003.917969,12.713537,12.660370,8.812918,9.433108
1003.921875,9.359406,8.296632,8.892201,7.814497
1003.925781,12.518393,14.626486,-1.752000,13.317159
1003.929688,9.578607,8.119211,6.103830,7.070832
1003.933594,10.746184,4.932957,10.717700,13.951208
1003.937500,6.647780,4.033529,2.506626,10.264592
1003.941406,6.467165,-1.980630,11.472307,3.619897
1003.945312,7.729896,2.337561,1.998113,-0.065204
1003.949219,3.118846,-4.900923,-6.268249,-0.613885
1003.953125,-0.927591,-5.213264,-8.166061,0.917323
1003.957031,3.863173,0.357686,-9.158569,-0.222001
1003.960938,-12.512105,-3.034545,-9.224273,-2.928758
1003.964844,-6.973474,-7.659985,-8.137309,-7.743324
1003.968750,-7.331539,-9.293527,-6.365302,-15.852103
1003.972656,-9.731407,-13.879862,-14.644257,-7.467382
1003.976562,-4.603949,-11.208444,-9.415999,-11.706588
1003.980469,-6.805428,-12.137196,-6.906855,-8.197775
1003.984375,-3.786760,-1.654234,-11.721971,-14.163029
1003.988281,-6.508716,-6.297462,-7.477038,-4.335653
1003.992188,-0.485397,-3.925195,-1.120173,-8.446418
1003.996094,2.649540,-5.901523,-6.630143,-4.382516
1004.000000,6.697593,4.539651,0.527059,-4.168939
1004.003906,-4.216426,4.169122,4.021664,4.675611
1004.007812,5.425822,4.953922,2.467710,0.494178
1004.011719,11.034816,1.671912,7.586818,10.543713
1004.015625,13.042224,12.118856,5.820163,8.169016
1004.019531,-2.524149,15.503679,11.077885,7.374331
1004.023438,1.405983,20.244899,9.954313,16.000943
1004.027344,9.203529,8.382644,14.342112,12.302714
1004.031250,15.217021,12.318110,17.412076,9.383203
1004.035156,5.757366,8.067349,5.576294,14.905943
1004.039062,6.926444,4.275667,12.902247,12.100096
1004.042969,0.565792,-0.564295,9.692199,2.681039
1004.046875,6.473811,5.056554,2.669897,2.327983
1004.050781,0.377537,-3.812240,1.458011,0.586103
1004.054688,-3.394028,-7.444271,6.057602,2.954636
1004.058594,-11.531764,-2.850083,-5.558835,-8.400966
1004.062500,-9.067077,-0.945374,-1.727973,-4.989169
1004.066406,-14.063581,-7.046610,-6.861603,-12.108347
1004.070312,-10.425646,-11.548687,-6.331728,-9.141765
1004.074219,-13.659524,-9.269117,-11.660508,-13.784725
1004.078125,-6.664628,-12.920196,-7.933043,-12.458100
1004.082031,-13.401464,-15.393807,3.113826,-4.848894
1004.085938,-10.426091,-7.969247,-2.356804,-9.881260
1004.089844,-5.162486,-5.004063,-8.339355,-8.261668
1004.093750,-5.455614,-5.252730,-3.420940,2.743900
1004.097656,-9.127797,-0.584771,-6.452473,-2.772617
1004.101562,-3.427967,-1.461614,-3.605494,1.182352
1004.105469,6.416265,2.431207,-2.603719,4.492127
1004.109375,13.397341,10.123505,11.917588,8.425979
1004.113281,8.601525,-0.457164,11.468053,5.108649
1004.117188,8.122700,7.699600,12.095020,1.262417
1004.121094,15.974955,1.408862,9.894644,13.115057
1004.125000,11.140740,10.830132,9.593475,11.875590
1004.128906,4.537751,15.840381,7.969487,6.100675
1004.132812,5.286347,9.899855,10.307178,13.625534
1004.136719,4.758227,4.461660,13.980404,7.023934
1004.140625,6.822158,-2.255621,9.429103,9.264303
1004.144531,-2.737054,5.767905,1.791191,3.594663
1004.148438,3.262318,2.480381,5.311432,5.852380
1004.152344,-0.910167,-0.152613,-2.509655,-1.876836
1004.156250,2.493749,-3.812966,-1.734249,-9.273442
1004.160156,-5.784860,-7.714917,-1.616828,-12.487292
1004.164062,-13.732771,-9.095188,-8.286207,-3.712415
1004.167969,-1.640409,-9.989689,-6.869179,-11.668581
1004.171875,-11.301595,-11.424284,-14.590055,-11.939721
1004.175781,-17.731788,-8.706879,-8.604652,-15.024188
1004.179688,-13.282950,-8.724229,-2.467529,-2.777188
1004.183594,-10.912569,-5.401323,-3.212735,-10.126687
1004.187500,-3.930836,-0.297230,-5.216651,-9.436596
1004.191406,-5.279923,0.933348,-10.624802,-3.662598
1004.195312,-3.673478,-8.404033,2.983740,-8.799663
1004.199219,0.513882,2.848908,2.286959,-2.911039
1004.203125,0.838567,10.740443,8.904963,2.339753
1004.207031,4.173572,14.172110,0.122966,1.769292
1004.210938,6.329523,9.213408,2.891486,8.273246
1004.214844,3.215909,7.784057,3.341246,16.849813
1004.218750,0.470623,10.233351,10.347470,11.262122
1004.222656,4.735639,16.691155,14.128940,11.299145
1004.226562,10.804595,7.740079,2.797847,7.123173
1004.230469,11.166614,5.796764,3.483145,7.018683
1004.234375,12.404175,10.374731,5.315602,2.240433
1004.238281,4.424112,12.059668,12.811578,9.359152
1004.242188,13.679155,1.895761,5.608214,5.553575
1004.246094,7.136473,4.026066,3.013496,1.483717
1004.250000,-5.617709,2.125195,5.745427,1.729423
1004.253906,-3.769979,-7.435269,1.989841,2.572509
1004.257812,-12.591799,-0.963861,-2.967467,-6.755551
1004.261719,-7.847359,-5.461209,-0.320182,-4.540267
1004.265625,-1.449518,-10.911581,-4.321687,-8.811658
1004.269531,-5.093710,-10.558960,-14.023722,-6.120960
1004.273438,-10.873663,-4.921578,-10.978477,-9.243007
1004.277344,-13.880730,-8.722317,-13.278412,-3.803903
1004.281250,-11.616609,-4.283922,-10.963847,-6.025099
1004.285156,-6.908294,-9.326997,-10.484545,-8.341280
1004.289062,-8.127973,-5.912759,-10.584210,-2.899794
1004.292969,-3.918813,-7.319889,4.209422,-5.575541
1004.296875,-3.663463,0.378205,0.538267,-2.526034
1004.300781,-2.738606,-1.189567,4.745831,1.384301
1004.304688,4.785931,5.500017,9.858947,2.360817
1004.308594,3.786140,5.404189,5.637185,9.743157
1004.312500,8.053014,3.065260,5.334730,10.358156
1004.316406,11.408996,9.174106,4.737133,4.107832
1004.320312,9.016216,6.338237,10.953246,13.692399
1004.324219,5.838110,14.771594,7.257676,10.729422
1004.328125,10.052880,11.352746,3.700093,17.791777
1004.332031,12.073269,12.146239,8.025299,10.451470
1004.335938,3.176507,1.915471,8.102627,4.912752
1004.339844,2.926145,9.265251,5.955604,9.139437
1004.343750,-0.301693,1.212135,-5.008787,8.917172
1004.347656,-0.397038,3.151381,0.585926,2.099550
1004.351562,-1.856233,-8.148533,-0.072729,-5.273358
1004.355469,1.707701,-6.406185,-0.490993,-1.462714
1004.359375,-1.627883,-1.916615,-6.015576,-2.535756
1004.363281,-9.745280,-10.249426,-6.619178,-5.516645
1004.367188,-8.468854,-3.323118,-14.532812,-4.090452
1004.371094,-18.004736,-7.405404,-14.153757,-10.363965
1004.375000,-10.768990,-8.859603,-16.673352,-11.151844
1004.378906,-6.379543,-2.521757,-14.393230,-16.440812
1004.382812,-9.079605,-6.337303,-11.486046,-13.405795
1004.386719,-8.418581,-9.360012,-4.903112,-6.437078
1004.390625,-9.146569,-9.383801,-7.236997,-7.113177
1004.394531,-9.875776,-4.590546,-5.250143,3.135631
1004.398438,0.081698,1.104792,2.243014,3.425852
1004.402344,2.315270,-0.366695,-7.636639,-0.797954
1004.406250,7.078197,-5.594392,-2.788507,-2.498376
1004.410156,7.854135,7.719489,8.600061,6.021951
1004.414062,11.273684,5.205222,5.364913,5.397575
1004.417969,3.235835,12.034698,9.774805,12.517180
1004.421875,7.409668,9.683314,7.196506,10.589461
1004.425781,16.662843,6.660910,7.535316,6.323470
1004.429688,9.050833,13.310384,13.192916,8.892723
1004.433594,1.258650,8.517454,6.598152,5.207923
1004.437500,13.711329,2.917857,8.610643,14.393195
1004.441406,-1.096817,2.386460,8.638562,0.915460
1004.445312,6.469876,8.553429,5.870048,4.025400
1004.449219,-1.315011,-0.196290,5.435565,1.965141
1004.453125,-2.716362,-1.010700,-0.191136,-7.834699
1004.457031,-8.910763,-2.472462,-2.288430,-8.602514
1004.460938,-8.825121,-10.345310,-10.720176,-0.675289
1004.464844,-2.944310,-2.996554,-7.412062,-3.620132
1004.468750,-6.091214,-1.619486,-9.854006,-7.042123
1004.472656,-11.594803,-9.859146,-6.390446,-14.189155
1004.476562,-7.452372,-5.822485,-11.272548,-10.989123
1004.480469,-8.267580,-6.905173,-15.152561,-13.829257
1004.484375,-8.185800,-14.182444,-18.638107,-8.076635
1004.488281,0.150019,-4.930116,-12.241423,-6.087885
1004.492188,-6.598052,-6.447218,-8.736740,-1.711923
1004.496094,-0.660238,-3.269924,6.783737,-7.037245
1004.500000,5.013824,0.439340,-1.924276,-0.463213
1004.503906,-2.215446,4.725925,-3.621581,9.848829
1004.507812,3.926426,-2.468522,1.843787,7.604925
1004.511719,7.103320,6.877583,8.639320,7.784875
1004.515625,4.388130,11.596977,7.187151,11.202186
1004.519531,11.168511,8.939382,8.812572,12.395600
1004.523438,13.429757,9.326531,10.468476,6.769790
1004.527344,13.316710,17.356476,12.874470,6.380577
1004.531250,6.223116,11.811605,6.065947,10.258360
1004.535156,16.649522,12.257739,9.814377,15.184403
1004.539062,12.701543,11.422939,3.831534,4.262226
1004.542969,9.745431,3.323676,-0.835231,-1.773232
1004.546875,-2.550885,-3.641158,5.570747,2.872402
1004.550781,-1.608769,-2.198869,-3.458166,3.784551
1004.554688,-9.591207,-6.231250,-3.949670,1.539566
1004.558594,-3.438476,-6.709206,-8.821294,-10.911460
1004.562500,-2.088278,-7.829903,-7.210540,-4.510149
1004.566406,-14.744941,-11.423935,-7.913846,-6.519872
1004.570312,-5.906752,-9.286437,-16.300380,-6.943610
1004.574219,-11.158223,-9.443049,-10.435968,-15.625105
1004.578125,-8.742471,-9.145679,-7.955106,-4.628210
1004.582031,-5.038383,-3.744504,-10.329299,-13.215419
1004.585938,-3.005921,-8.011541,-9.250184,-10.320555
1004.589844,-3.667501,-7.895889,-0.750322,-1.066829
1004.593750,-7.119233,-8.742489,-4.718975,-8.621430
1004.597656,-5.299021,-1.168824,1.449117,-10.444485
1004.601562,5.133315,0.323437,2.475842,-3.048459
1004.605469,7.204158,6.136362,4.647017,2.054849
1004.609375,9.975606,2.213037,8.806888,8.144983
1004.613281,4.197153,14.954492,12.122046,2.942196
1004.617188,13.624581,6.643073,10.099173,8.528894
1004.621094,6.940790,15.864537,15.860832,15.666187
1004.625000,8.386450,10.807857,10.973706,5.983763
1004.628906,13.119180,5.588379,15.108699,17.918754
1004.632812,12.162203,5.487801,9.531642,5.292092
1004.636719,-3.482611,11.433336,5.983230,0.989474
1004.640625,6.610210,3.994596,-1.048198,-2.867951
1004.644531,8.906792,-2.730030,-0.371256,-3.216956
1004.648438,-1.013810,-3.428223,2.839507,1.376885
1004.652344,-2.360566,2.928066,-0.839625,0.504928
1004.656250,-12.472527,-4.286713,1.940000,-2.696567
1004.660156,-13.119496,-14.158614,-8.620955,-2.640166
1004.664062,-6.705243,-8.526458,2.139786,-7.798703
1004.667969,-10.708703,-11.949827,-11.306353,-16.033655
1004.671875,-4.910611,-11.926065,-5.742712,-12.148270
1004.675781,-12.136896,-15.143837,-14.348150,-11.943284
1004.679688,-1.059212,-9.447267,-5.604056,-17.647089
1004.683594,-9.327839,-6.641921,-9.229290,-5.508865
1004.687500,-12.030530,-2.667070,-3.706803,-9.411098
1004.691406,-7.536712,6.075839,-3.124536,-4.706665
1004.695312,-7.306147,-3.788048,-6.748675,-6.752358
1004.699219,-2.466832,-3.322426,-3.129708,3.274390
1004.703125,-2.557919,0.449657,-3.637781,-2.524029
1004.707031,3.276676,2.520507,6.139239,-0.824154
1004.710938,8.138052,-0.452026,14.126462,6.137848
1004.714844,10.255423,13.494204,23.306330,7.966494
1004.718750,-0.195775,9.362304,10.340738,8.823572
1004.722656,2.651269,9.475668,15.059704,8.070017
1004.726562,9.912046,6.861450,7.933414,13.817874
1004.730469,10.985987,10.987480,10.745710,6.274750
1004.734375,4.518599,11.732650,4.401951,11.147632
1004.738281,13.954694,-1.226977,0.136654,6.639913
1004.742188,12.046503,7.075604,3.035578,6.343410
1004.746094,6.218624,2.381547,-1.279552,2.465427
1004.750000,0.015175,1.511105,-0.205118,-1.569697
1004.753906,-8.245390,-12.824350,1.030955,-0.393144
1004.757812,-12.957765,-6.126525,-2.386634,-4.347100
1004.761719,-4.839638,-13.152850,-7.388035,-13.068257
1004.765625,-9.913630,-7.204652,-11.789676,-5.285632
1004.769531,-9.723785,-3.182574,-6.459556,-10.986177
1004.773438,-7.595179,-8.905840,-12.291050,-8.856587
1004.777344,-7.944318,-3.651439,-10.352642,-6.351713
1004.781250,-9.111962,-3.595027,-8.899895,-3.116282
1004.785156,-6.751852,-8.579665,-12.536899,-3.926467
1004.789062,-7.133474,-9.743266,-8.299605,-8.961062
1004.792969,-5.100903,-7.246573,-5.734776,-1.753795
1004.796875,-3.162810,0.686540,5.924915,3.163771
1004.800781,1.056113,-3.239596,-3.407228,-5.424441
1004.804688,6.314372,5.569542,-1.912240,10.216556
1004.808594,1.428613,10.705539,5.033395,4.597159
1004.812500,0.411060,3.159072,4.362844,9.749070
1004.816406,5.547594,12.010798,9.957941,2.337028
1004.820312,10.895910,10.207558,7.942052,13.663858
1004.824219,14.663413,6.095889,6.423496,10.762690
1004.828125,12.726985,12.014527,8.867274,11.224111
1004.832031,16.208063,7.350035,7.819450,9.397427
1004.835938,4.385782,3.621710,5.964091,2.467931
1004.839844,5.905411,6.741617,-1.385545,5.246657
1004.843750,5.920910,4.035172,-1.359910,9.088949
1004.847656,-6.096267,-3.239455,7.197326,4.281615
1004.851562,-0.670053,-0.895297,-4.524903,-0.511349
1004.855469,-2.133545,-0.551719,0.086458,0.996657
1004.859375,-8.822678,-9.133287,-5.174709,-6.993490
1004.863281,-9.510201,-1.582094,-4.765565,-10.680895
1004.867188,-13.770333,-8.951632,-2.546653,-10.713638
1004.871094,-9.917058,0.593648,-6.247043,-5.030247
1004.875000,-7.199499,-13.220315,-5.416473,-6.271387
1004.878906,-12.881501,-20.156989,-9.927002,-10.651759
1004.882812,-7.888993,-4.792071,-6.842398,-9.947130
1004.886719,-12.319824,-13.396932,-8.158601,-5.088833
1004.890625,-5.305238,-2.895235,-8.632765,-9.050029
1004.894531,-3.187839,-5.670315,-5.697397,-2.446255
1004.898438,-5.410182,-7.113412,-2.597898,2.446364
1004.902344,4.807965,5.727862,-3.121941,-1.512818
1004.906250,-4.047735,5.391980,3.189403,1.379719
1004.910156,6.776136,4.234769,8.163630,4.919245
1004.914062,8.149835,3.685870,6.460647,13.835846
1004.917969,7.749478,8.128934,5.226941,8.072657
1004.921875,9.609231,9.889830,11.152073,8.119137
1004.925781,4.574366,11.904467,15.400800,5.266221
1004.929688,9.101567,13.213268,10.592330,7.859150
1004.933594,3.495077,10.038939,12.107558,12.400070
1004.937500,5.894000,1.021228,9.952740,8.945462
1004.941406,4.532882,4.649938,-0.401593,10.343833
1004.945312,-1.775520,-3.634814,12.747890,2.702605
1004.949219,2.958788,0.988305,-4.290636,4.133428
1004.953125,0.893323,-5.611857,-7.431661,3.636475
1004.957031,-4.575554,-7.455765,-9.375449,-3.518209
1004.960938,-6.913467,-5.311475,-12.130862,-7.630062
1004.964844,-4.581982,-5.579377,-13.590102,-13.875780
1004.968750,-7.962510,-9.802309,-8.605167,-8.878796
1004.972656,-7.059160,-9.072223,-15.265536,-8.465753
1004.976562,-8.987218,-10.095084,-12.520021,-8.059315
1004.980469,-14.978872,-10.211902,-8.940690,-17.981472
1004.984375,-5.719804,-2.316929,-5.446346,-10.482473
1004.988281,-5.699522,-4.749427,-10.495666,-7.602340
1004.992188,-6.417282,-9.395822,-9.537367,1.298662
1004.996094,-1.940443,-4.696381,1.122817,-3.728606
1005.000000,-0.453778,-1.854750,0.843482,-7.162379
1005.003906,10.756903,-3.480207,4.311576,0.529792
1005.007812,10.505223,8.568002,0.292180,8.475923
1005.011719,4.133286,12.259189,1.161022,4.989361
1005.015625,11.512885,1.649121,14.048561,6.191994
1005.019531,15.216221,9.844541,10.279800,14.929118
1005.023438,4.527844,5.336658,7.369006,6.794429
1005.027344,11.895253,10.092417,13.227262,12.382658
1005.031250,5.880889,12.301323,14.585976,5.646281
1005.035156,1.764305,11.644103,7.474055,10.632758
1005.039062,10.198704,2.710085,2.593349,11.447179
1005.042969,9.376616,10.130687,-1.507583,7.047780
1005.046875,2.082373,3.967297,0.162242,-1.723030
1005.050781,-0.254595,-0.375132,-4.940357,0.106827
1005.054688,-3.306598,-8.634934,-6.544099,-2.350737
1005.058594,-11.819965,-5.833014,-9.101687,-6.281928
1005.062500,-11.945701,-6.558745,-7.988724,-1.205940
1005.066406,-8.369231,-7.063360,-7.564556,-7.014005
1005.070312,-12.392454,-12.444254,-11.824262,-12.184399
1005.074219,-10.911253,-7.626677,-1.101466,-9.078240
1005.078125,-12.646433,-12.198815,-11.559475,-14.609389
1005.082031,-3.127144,-12.579929,-5.179804,-18.587007
1005.085938,-5.307829,-12.743987,-6.768157,-8.838786
1005.089844,-6.154183,-10.566374,-9.992411,-5.243398
1005.093750,0.410860,-0.774877,-3.253326,-9.314468
1005.097656,-8.637023,-3.685552,3.212778,0.721252
1005.101562,3.779537,3.063690,-1.821347,3.911379
1005.105469,-1.901844,6.074093,1.962358,4.420721
1005.109375,-0.981271,1.786480,9.198013,4.654210
1005.113281,13.022033,5.665986,13.803256,4.510930
1005.117188,6.176121,16.586561,7.989385,11.048814
1005.121094,13.477516,12.026989,10.788425,15.410627
1005.125000,10.129849,15.788622,9.784094,9.719139
1005.128906,6.079642,12.166427,12.417212,9.537910
1005.132812,13.644087,12.422228,12.618860,16.801468
1005.136719,4.082950,6.538583,11.756453,4.449875
1005.140625,5.984945,2.473456,10.042275,6.235439
1005.144531,2.004247,5.533568,4.739418,2.916873
1005.148438,1.086027,5.759636,0.107020,-1.351145
1005.152344,2.939763,5.568397,-2.614999,-5.371206
1005.156250,1.065526,-7.113075,4.597874,-2.079678
1005.160156,-1.357996,-6.553071,-9.319996,-4.935388
1005.164062,-12.916429,-5.549760,-11.915694,-6.916583
1005.167969,-6.093045,-12.176799,-6.345441,-8.225949
1005.171875,-8.727535,-6.586737,-10.236887,-3.007768
1005.175781,-16.231660,-7.500305,-13.054791,-12.174140
1005.179688,-6.160421,-4.534096,-6.631233,-2.378916
1005.183594,-15.052970,-7.262259,-13.454747,-7.148383
1005.187500,-9.459494,-14.839947,-9.964830,-13.922795
1005.191406,-2.167422,-2.442863,-4.722753,-8.586806
1005.195312,4.642989,-3.728675,-0.132329,3.668520
1005.199219,-0.792832,-2.642016,-4.175884,3.650464
1005.203125,3.146566,6.078445,-1.590086,-3.235043
1005.207031,6.960809,5.922983,2.204294,3.528268
1005.210938,1.558460,6.507827,3.050708,6.091133
1005.214844,10.357537,10.710278,14.563871,12.053940
1005.218750,12.854724,10.609018,10.288826,4.931586
1005.222656,7.684042,10.549468,5.417025,8.314928
1005.226562,10.221162,7.589567,14.094819,6.638148
1005.230469,9.579558,11.658537,10.270282,18.847871
1005.234375,12.024290,7.297700,0.078358,13.879350
1005.238281,9.797073,5.893267,8.384687,7.418272
1005.242188,5.991435,0.866693,2.536681,5.675485
1005.246094,-5.528917,9.083562,2.554697,3.150409
1005.250000,-5.765491,-0.729975,-0.670927,-2.266295
1005.253906,-5.825943,-4.255420,-0.262924,-1.455227
1005.257812,-9.971759,7.509065,-2.946714,-2.002783
1005.261719,-5.409216,-2.540115,-9.515502,-7.769513
1005.265625,-5.810138,-4.792087,-10.601150,-4.767643
1005.269531,-4.013478,-12.724898,-13.125989,-14.009486
1005.273438,-21.478245,-13.367183,-5.665426,-9.938955
1005.277344,-16.346108,-12.954031,-9.566005,-9.013875
1005.281250,-13.757475,-4.083426,-10.152036,-10.321525
1005.285156,-12.932852,-15.504562,-0.205311,-11.970224
1005.289062,-9.135795,-2.563600,-3.813991,-5.495173
1005.292969,-6.605079,2.452541,-8.845118,1.016956
1005.296875,-2.192623,-5.273248,-3.001278,-7.230692
1005.300781,-4.449023,3.415747,6.578782,0.738607
1005.304688,6.611130,4.703045,8.752352,2.564990
1005.308594,9.551901,9.804367,6.660218,7.751671
1005.312500,8.825682,6.257799,6.272750,8.493488
1005.316406,5.871551,6.407472,7.042848,4.640905
1005.320312,5.735663,6.130105,11.597418,6.580500
1005.324219,10.455312,16.156203,13.962594,9.530372
1005.328125,11.643486,4.815539,12.257023,13.220031
1005.332031,9.191756,1.057223,14.999543,10.725311
1005.335938,2.429382,0.992921,6.345257,10.181690
1005.339844,8.541618,0.006770,5.931183,6.876707
1005.343750,7.101992,1.252032,2.768819,4.976749
1005.347656,4.953864,-0.998380,5.349566,3.199339
1005.351562,4.704291,-9.078478,2.601127,-5.771414
1005.355469,1.278344,-1.027732,-6.323881,-6.635998
1005.359375,-7.674413,2.314943,-1.620033,-6.889915
1005.363281,-6.537308,-13.665727,-17.695631,0.586699
1005.367188,-4.893184,-7.714584,-13.259406,-13.051723
1005.371094,-14.039449,-6.463470,-7.823179,-6.753224
1005.375000,-10.218265,-6.127162,-11.368588,-10.142531
1005.378906,-10.322568,-5.982976,-6.307184,-4.990741
1005.382812,-4.696533,-17.456767,-2.077232,-8.103801
1005.386719,-2.447478,-4.251075,-6.111704,-8.356710
1005.390625,1.142624,-3.676233,-8.089802,-1.661012
1005.394531,0.500907,-5.976551,-1.714065,1.860731
1005.398438,-0.520632,-5.982314,4.171060,-3.256055
1005.402344,1.078178,-2.052256,3.313286,2.223448
1005.406250,9.648950,-2.617002,1.277162,5.230935
1005.410156,4.438787,0.130907,13.801164,8.385606
1005.414062,7.468876,8.164809,12.532863,6.643281
1005.417969,6.881491,2.395535,11.236264,9.145036
1005.421875,6.407785,9.051253,9.386615,11.377842
1005.425781,10.435592,10.158293,5.667508,9.048071
1005.429688,8.221708,8.108480,8.227059,11.696752
1005.433594,6.372261,7.788617,10.331353,6.554758
1005.437500,12.087861,0.771431,10.237582,5.511555
1005.441406,2.918845,9.096089,0.717638,9.778981
1005.445312,0.054917,10.005030,9.664217,4.789999
1005.449219,3.318107,-7.195593,1.968963,-1.572333
1005.453125,-1.628993,-0.979658,-6.932294,-6.849712
1005.457031,-9.903595,-2.737101,-9.236118,-6.590177
1005.460938,-4.226784,-4.189848,-7.808022,-6.147261
1005.464844,-10.620733,-9.195307,-8.329587,-6.562309
1005.468750,-4.061164,-14.372037,-8.879971,-12.415888
1005.472656,-4.368915,-6.741193,-5.183298,-7.185318
1005.476562,-12.002794,-5.984155,-12.496736,-14.345621
1005.480469,-13.119224,-10.656221,-3.882931,-12.309584
1005.484375,-4.313002,-4.460555,-6.719385,-7.949959
1005.488281,5.583682,0.025233,-5.532632,-11.693445
1005.492188,-5.461737,-2.122985,-0.929740,-5.407371
1005.496094,-3.766720,-6.215943,-3.859226,-5.966498
1005.500000,1.234528,0.423155,-11.411428,5.165857
1005.503906,2.904541,-2.148741,3.125962,3.935446
1005.507812,2.145514,3.695578,1.000796,3.793133
1005.511719,11.185318,-1.287414,6.512895,16.741618
1005.515625,7.545730,6.116401,9.948718,1.980407
1005.519531,7.642590,8.489836,9.457239,11.531183
1005.523438,11.773154,15.061911,2.889270,5.648280
1005.527344,5.966740,14.558638,8.783842,11.451881
1005.531250,14.714069,4.341117,8.378324,5.707895
1005.535156,11.212541,7.213254,5.557905,1.940817
1005.539062,7.500193,4.242420,9.507366,2.559177
1005.542969,1.643383,3.924390,8.753894,10.783809
1005.546875,4.946096,-1.799672,5.018664,4.578927
1005.550781,-0.063893,-6.191959,3.779834,-4.701770
1005.554688,0.914116,-3.328790,2.256854,-1.870915
1005.558594,-0.233475,-4.641487,0.534488,-6.288031
1005.562500,-9.209255,-6.524449,-9.860720,1.468785
1005.566406,-7.202918,-9.809266,-3.361219,-9.950233
1005.570312,-7.091434,-5.470743,-15.987098,-10.840879
1005.574219,-12.240328,-10.289349,-9.183899,-7.597921
1005.578125,-9.695646,-7.779460,-12.434368,-18.702599
1005.582031,-9.064268,-15.756760,-5.387219,-2.145707
1005.585938,-8.508531,-6.571392,-5.372234,-6.664498
1005.589844,-5.186596,-4.126484,-6.568408,-8.837134
1005.593750,-3.434128,-6.831235,-4.049733,0.762478
1005.597656,-3.470651,2.948424,2.664216,0.469023
1005.601562,-4.662688,4.668745,0.029140,11.272173
1005.605469,2.756518,7.186439,-0.366254,-3.249397
1005.609375,-2.364846,7.521639,1.898642,8.736863
1005.613281,6.623407,9.110185,-1.167161,9.344951
1005.617188,7.327508,6.943588,11.695012,3.033465
1005.621094,10.896762,13.703548,6.898250,8.487973
1005.625000,12.075286,14.330958,17.900700,3.319628
1005.628906,5.435985,14.764457,8.935269,11.388298
1005.632812,13.716297,6.836524,5.849462,4.731554
1005.636719,10.638546,13.488569,7.227699,8.607159
1005.640625,5.981780,0.841776,10.782816,5.460828
1005.644531,3.545455,6.557076,6.142227,5.564147
1005.648438,-0.441661,-1.180962,0.286041,5.243378
1005.652344,-7.411442,-1.911668,-4.874229,1.931341
1005.656250,-3.762399,-2.728231,2.920448,6.679475
1005.660156,-1.431131,-6.440137,-5.607678,-11.001279
1005.664062,-3.467607,-7.268991,-10.821856,-6.335711
1005.667969,-11.543845,-13.749007,-11.912051,-12.207874
1005.671875,-1.484922,-17.765612,-11.417019,-12.346317
1005.675781,-17.431658,-6.239966,-12.138601,-6.861340
1005.679688,-15.686625,-9.255767,-8.645969,-1.989786
1005.683594,-4.338449,-14.037253,-0.872639,-8.638560
1005.687500,-8.694220,-9.245989,-1.222524,-6.006751
1005.691406,-4.782141,-6.884672,-7.852852,-10.579354
1005.695312,-1.382070,-1.413960,0.077697,-3.757743
1005.699219,6.046901,-3.529044,3.093986,1.942478
1005.703125,11.416253,-4.943442,5.851952,6.343771
1005.707031,3.426053,6.766835,-0.328896,1.974458
1005.710938,6.254177,6.657670,12.045253,5.744815
1005.714844,9.424387,13.244725,3.362885,7.213445
1005.718750,14.807470,7.140034,11.572794,10.324440
1005.722656,14.238029,11.776328,14.971876,11.244916
1005.726562,1.648770,11.873827,8.841867,10.879897
1005.730469,7.180255,8.820027,12.770836,12.086027
1005.734375,3.349525,7.798300,5.993449,5.981914
1005.738281,10.099089,11.679267,2.000522,9.445346
1005.742188,2.410437,0.971491,10.411797,1.469152
1005.746094,3.426262,0.207838,4.426057,4.352939
1005.750000,-0.721066,-1.286418,2.184396,-8.532108
1005.753906,-3.648264,2.045447,1.190260,0.010455
1005.757812,-5.097506,-1.472214,-8.770258,3.780041
1005.761719,-7.502534,-10.402585,-2.924608,-11.387458
1005.765625,-0.610299,-6.881283,-8.971088,-6.027012
1005.769531,-8.889565,-7.689963,-19.545849,-11.314512
1005.773438,-8.090952,-12.059838,-12.287872,-12.161113
1005.777344,-12.326414,-11.951202,-3.958763,-3.605082
1005.781250,-5.707002,-9.413226,-11.425562,-3.009435
1005.785156,-8.940454,-4.135105,-6.796974,-7.526581
1005.789062,-13.472716,-5.907880,-9.349852,-4.962770
1005.792969,-3.952817,-0.126812,-10.063512,-4.929872
1005.796875,-4.601085,-6.491587,-0.380652,12.249602
1005.800781,-1.393539,-2.026141,-0.849400,-4.156081
1005.804688,-1.035118,3.788848,4.423340,3.036702
1005.808594,-1.066595,1.810467,5.939879,1.690320
1005.812500,7.683228,16.362404,1.254704,8.029426
1005.816406,2.235966,8.414710,8.224532,12.612203
1005.820312,6.301203,3.014298,1.342092,15.110687
1005.824219,11.613512,8.319160,1.144910,3.446865
1005.828125,5.907895,8.942009,7.017043,5.391885
1005.832031,15.126154,18.611222,9.023464,9.059972
1005.835938,5.391225,5.769375,12.811379,8.925315
1005.839844,2.863122,7.190836,15.441190,12.530972
1005.843750,3.352351,6.895962,0.186055,1.576528
1005.847656,-0.870264,2.516622,1.614612,-2.283036
1005.851562,-8.348676,3.385828,1.969807,1.175076
1005.855469,-7.950170,-10.837262,-4.443507,-1.552367
1005.859375,-17.610961,-6.810962,-1.655621,-11.409060
1005.863281,-10.598258,-6.314593,-0.806032,-5.575997
1005.867188,-6.183954,-3.869673,1.974589,-10.304688
1005.871094,-13.355647,-10.192984,-7.782406,-16.175313
1005.875000,-12.383560,-13.477436,-3.972109,-15.026331
1005.878906,-4.366867,-11.805260,-14.404091,-5.545145
1005.882812,-6.838099,-6.912363,-5.525840,-11.040702
1005.886719,-8.817565,-5.823175,-10.294735,-10.164015
1005.890625,-8.448339,-5.007512,-8.158718,-7.308845
1005.894531,0.873178,2.933830,-9.520918,-4.010409
1005.898438,0.589310,0.128255,0.726493,2.026774
1005.902344,2.373274,2.107221,-4.514145,-6.138515
1005.906250,3.900428,2.293438,-0.608154,2.045734
1005.910156,4.375044,8.714981,5.038276,6.986312
1005.914062,8.215025,7.791611,5.821254,6.721324
1005.917969,11.328431,12.919128,10.657327,11.081483
1005.921875,5.415813,15.462848,12.894188,10.901897
1005.925781,9.696736,10.879522,12.069527,13.079466
1005.929688,13.234335,12.222737,9.802371,-2.211844
1005.933594,10.440510,12.134440,5.967404,4.315952
1005.937500,7.286477,13.093627,10.459388,8.904858
1005.941406,5.768985,6.849435,-0.170044,3.388479
1005.945312,6.137198,-2.394348,8.145808,-0.033304
1005.949219,2.207920,-7.011535,0.050485,0.302460
1005.953125,-2.763664,-2.123500,3.430286,-6.957172
1005.957031,-11.772045,-2.393726,-2.236713,-3.384113
1005.960938,-8.641050,-4.525893,1.804816,-4.820001
1005.964844,-7.492235,-9.045025,-9.397823,-11.661922
1005.968750,-14.380740,-10.000058,-9.204340,-15.608741
1005.972656,-5.737868,-10.579263,-9.322325,-13.065320
1005.976562,-10.444221,-9.589114,-12.064023,-7.413172
1005.980469,-10.740219,-13.069464,-15.778134,-4.005703
1005.984375,-8.535348,-8.235796,-9.107690,-7.402496
1005.988281,-5.495147,-7.588818,-11.358923,-8.278692
1005.992188,-3.595021,-7.001060,-6.592735,6.529162
1005.996094,-1.197151,-2.690549,-7.475172,-6.746937
1006.000000,-2.738260,-2.597579,2.731313,-5.092095
1006.003906,3.956269,-2.867032,-6.369627,4.498353
1006.007812,5.754533,5.057230,-1.776230,10.673014
1006.011719,6.900471,6.214258,5.762059,9.369937
1006.015625,4.983056,8.069593,8.620708,7.020138
1006.019531,12.454173,13.904104,16.015639,3.527212
1006.023438,8.103201,8.954212,7.799475,7.884801
1006.027344,9.193290,18.243360,6.539658,10.539543
1006.031250,5.349763,8.176608,-0.146081,5.887893
1006.035156,14.629235,8.540830,9.434822,-1.448566
1006.039062,8.545542,9.996052,7.162298,9.566621
1006.042969,2.967767,2.096436,2.801729,5.580211
1006.046875,3.982912,2.145817,11.924361,2.252025
1006.050781,1.811227,2.062011,-1.836122,6.525487
1006.054688,-6.251318,2.741130,-7.274963,-7.557439
1006.058594,-3.886074,-4.645966,-5.905670,-9.465261
1006.062500,-10.790652,-8.390920,-14.707141,-4.043188
1006.066406,-7.940783,-4.402667,-6.990667,-5.551910
1006.070312,-8.548728,-14.308223,-6.602852,-14.971269
1006.074219,-17.741222,-11.736018,-11.949557,-6.006264
1006.078125,-7.210547,-7.868014,-15.025273,-10.891131
1006.082031,-4.237660,-11.569473,-14.304365,-4.705022
1006.085938,-10.822484,-8.889837,-3.258988,-5.680490
1006.089844,-6.798779,-5.377750,-8.913500,3.461418
1006.093750,-6.834830,-2.102171,-0.959624,-9.940841
1006.097656,0.441771,2.849328,-0.909444,3.427410
1006.101562,1.703552,4.118085,-3.551147,-2.149849
1006.105469,6.067522,4.397333,5.208467,11.060468
1006.109375,2.226565,2.380968,5.664314,10.114065
1006.113281,9.318903,9.037107,6.326425,11.412510
1006.117188,6.557638,8.754343,8.509767,11.387909
1006.121094,8.661503,6.845396,4.437112,15.918542
1006.125000,9.351018,13.582644,10.787402,10.529968
1006.128906,12.091967,6.818298,6.718007,17.326209
1006.132812,13.569220,3.249617,7.226639,7.204270
1006.136719,-1.066607,6.737752,16.759636,2.053595
1006.140625,6.073167,2.231899,4.969271,12.538601
1006.144531,-2.920107,7.539506,7.735293,-0.418929
1006.148438,4.734172,0.850359,3.399667,6.643181
1006.152344,-4.763591,-5.148406,-4.197633,-7.808329
1006.156250,-2.339587,-7.338416,-4.899683,-2.970228
1006.160156,-10.820143,-7.210679,-6.328894,-4.609070
1006.164062,-8.705564,-5.165636,-6.269303,-10.708677
1006.167969,-10.518108,-5.743878,-6.157274,-11.505194
1006.171875,-13.715041,-15.129632,-3.553579,-8.444572
1006.175781,-5.850555,-12.130277,-9.753082,-10.597437
1006.179688,-4.270873,-15.524420,-6.617667,-10.149825
1006.183594,-5.350990,-8.725666,-11.028038,-9.858535
1006.187500,-7.163453,-9.024022,-10.450024,-4.291053
1006.191406,-8.109961,-7.262994,1.560051,-6.295149
1006.195312,0.253035,-1.171970,-5.256761,-3.373037
1006.199219,-2.349067,7.418384,2.924655,0.020786
1006.203125,-6.221256,-2.043082,-4.747029,-0.263072
1006.207031,9.358279,4.460479,3.050111,7.171181
1006.210938,19.497403,2.834609,6.885590,8.383906
1006.214844,6.461732,12.852648,3.208805,7.806015
1006.218750,8.899242,6.274482,11.641337,5.665211
1006.222656,9.434179,11.369943,8.280613,9.483682
1006.226562,12.726701,1.108204,17.692829,6.502674
1006.230469,21.708631,15.144944,7.621394,4.568764
1006.234375,6.612561,9.233452,7.930966,10.706633
1006.238281,-1.381946,9.676106,6.450691,1.552358
1006.242188,-0.595250,10.388971,12.979477,6.199008
1006.246094,-3.829630,3.495170,2.749559,2.528719
1006.250000,-6.232637,8.025677,0.995381,-5.550701
1006.253906,-0.058870,-1.086914,-3.643583,-4.648878
1006.257812,-10.478709,-2.562959,-0.570001,-5.381439
1006.261719,-4.819857,-5.523403,-0.699285,-12.350070
1006.265625,-10.776396,-4.451516,-2.605942,0.780334
1006.269531,-7.978676,-10.585543,-9.828569,-11.578357
1006.273438,-13.806643,-11.014984,-10.272841,-3.292610
1006.277344,-12.036324,-3.528126,-11.183340,-10.503468
1006.281250,-6.932747,-16.948501,-4.004878,-10.861396
1006.285156,-10.029363,-6.081210,-4.359379,-5.914717
1006.289062,-9.896794,-5.405737,-13.015440,-2.974973
1006.292969,-9.558918,-12.663497,-5.503091,-4.546456
1006.296875,2.118011,-5.066936,-1.812489,-1.795160
1006.300781,-7.106298,-1.863307,-2.687179,-4.089540
1006.304688,6.987071,4.403363,6.233620,11.489646
1006.308594,7.944112,1.469280,7.957601,-3.368996
1006.312500,10.025219,8.252902,4.461334,7.012851
1006.316406,8.734555,7.188545,4.529594,7.088397
1006.320312,1.453877,9.753985,5.503280,4.369709
1006.324219,9.540697,12.324581,11.637313,11.886582
1006.328125,9.793501,17.933349,11.145201,14.363699
1006.332031,11.735022,3.129382,7.385130,9.364181
1006.335938,7.522548,1.999662,10.505394,10.585348
1006.339844,4.293846,2.833750,11.566805,1.217048
1006.343750,0.125325,6.939431,5.774814,6.713040
1006.347656,3.242531,-1.426925,6.206969,5.670733
1006.351562,0.398964,-7.472867,-5.965804,-0.089841
1006.355469,-0.670963,2.836562,-6.709720,-8.302413
1006.359375,-10.067326,-6.141401,-2.877651,-4.926062
1006.363281,-11.103132,-8.914447,-8.488920,-3.122980
1006.367188,-5.523138,-5.795566,-13.447064,-4.948433
1006.371094,-11.916662,-12.155894,-12.438942,-4.837105
1006.375000,-6.814753,-8.936116,-6.901421,-12.968843
1006.378906,-8.920866,-4.452548,-13.475443,-12.553775
1006.382812,-16.032646,-6.819370,-6.471789,-6.645279
1006.386719,-8.520623,-2.135883,-3.240151,-11.155700
1006.390625,-7.957671,-9.151549,-10.069609,0.594680
1006.394531,-1.650819,2.576896,-3.102397,-7.908135
1006.398438,2.543958,-6.616095,-2.352984,3.457557
1006.402344,-1.242013,8.745039,8.880663,-3.510756
1006.406250,-8.497558,5.872082,4.677306,8.954980
1006.410156,5.288652,2.192557,6.940495,3.426935
1006.414062,11.145844,6.321664,2.938204,10.786864
1006.417969,11.619671,12.197739,7.141907,8.550261
1006.421875,16.904159,9.045222,9.089314,10.994909
1006.425781,3.215595,11.179296,7.684470,9.171429
1006.429688,13.796613,11.696056,3.347276,3.204092
1006.433594,2.857831,3.780359,7.869456,13.165338
1006.437500,15.327748,10.032897,4.445649,18.916140
1006.441406,4.608674,13.663325,1.455800,2.471656
1006.445312,3.317945,8.863288,2.274897,2.772866
1006.449219,-4.566872,0.856851,3.479337,-2.460732
1006.453125,2.418284,-8.907537,-8.762519,-6.876287
1006.457031,-1.314497,-5.388102,-3.974251,-12.088800
1006.460938,-10.189395,-6.013116,-7.895564,-1.750808
1006.464844,-2.739022,-2.712399,-7.631630,-8.296370
1006.468750,-12.779321,-8.502800,-9.723514,-3.879007
1006.472656,-9.154405,-12.395912,-16.131078,-8.441178
1006.476562,-4.739000,-6.134935,-8.172864,-6.963130
1006.480469,-9.245561,-10.456439,-10.868574,-4.846827
1006.484375,-1.231282,-14.204652,-2.220192,-10.229960
1006.488281,-8.517887,-9.585865,-16.265264,-7.873775
1006.492188,-8.998119,0.680897,-2.276044,-3.512924
1006.496094,-10.046314,4.840553,-7.219595,1.359050
1006.500000,6.842751,8.661961,-3.255802,-8.626325
1006.503906,1.470531,1.607105,3.395062,-3.058889
1006.507812,6.554904,2.990451,11.744368,10.270684
1006.511719,7.713667,12.936618,5.950607,15.513393
1006.515625,12.459969,8.314271,7.718173,5.352945
1006.519531,4.475076,9.573930,15.702390,17.726313
1006.523438,8.924654,11.682663,6.712338,11.466711
1006.527344,8.984371,7.636138,13.125808,7.743096
1006.531250,9.167977,9.096062,13.195187,3.793562
1006.535156,10.422170,8.254982,7.957995,1.908724
1006.539062,0.365470,1.326373,12.189305,6.102434
1006.542969,4.087055,7.358664,10.693759,6.276118
1006.546875,2.233343,-0.733356,-5.421014,-2.706189
1006.550781,-0.737357,-3.967224,1.242503,-1.942932
1006.554688,-1.066416,-4.883967,-9.820313,-5.983151
1006.558594,-4.541140,-7.420323,-4.889785,-6.787248
1006.562500,-8.554840,-6.970188,-2.398715,-4.493933
1006.566406,-11.445934,-3.912826,-11.570795,-2.116648
1006.570312,-3.701939,-8.831830,-7.511061,-10.903627
1006.574219,-8.098198,-11.602415,-13.160591,-11.930758
1006.578125,-12.093471,-14.757718,-7.337191,-12.121283
1006.582031,-7.923889,-4.992292,-10.525328,-2.100248
1006.585938,-4.513149,-7.940636,-3.921130,-4.899579
1006.589844,-1.968439,-3.334392,-5.631135,-14.739114
1006.593750,2.844969,-1.312308,1.025740,-1.465191
1006.597656,-6.052865,-1.761993,3.624571,0.723189
1006.601562,-2.670598,-1.751980,0.654822,7.086462
1006.605469,10.064793,8.389619,2.915277,-1.875239
1006.609375,7.827845,8.790394,9.917122,10.026123
1006.613281,7.994484,9.237005,1.043765,10.330306
1006.617188,9.655532,4.721670,10.770759,8.587563
1006.621094,16.161300,15.245950,11.094101,13.401554
1006.625000,6.721101,3.177729,9.489695,17.782616
1006.628906,11.497783,10.021214,7.194459,3.414303
1006.632812,7.037315,8.488352,11.799995,9.374029
1006.636719,10.049674,3.825253,10.106885,8.581136
1006.640625,4.048645,7.699641,1.596639,8.159223
1006.644531,1.744749,2.480672,9.825283,5.312373
1006.648438,-0.970387,-0.176262,3.884290,-1.693152
1006.652344,-4.586916,-1.001620,2.194400,-1.932020
1006.656250,-1.988074,-6.913141,-1.739580,-2.002616
1006.660156,-5.029911,-6.059650,-9.450500,-9.463311
1006.664062,-13.659441,-5.421494,-4.034949,-3.068159
1006.667969,-16.847874,-4.520943,-4.709541,-13.744781
1006.671875,-11.892890,-9.923623,-11.044774,-4.469057
1006.675781,-8.956328,-8.652108,-4.589334,-12.851920
1006.679688,0.749652,-5.685178,-5.502324,-11.427357
1006.683594,0.140372,-6.421445,-9.108807,-10.590943
1006.687500,-6.375904,-8.693543,-7.605828,-2.920944
1006.691406,-3.197829,-6.252697,-5.583591,0.815737
1006.695312,1.009097,2.504935,-5.773628,-6.657911
1006.699219,0.767030,-3.861432,-0.192529,-1.059870
1006.703125,2.858106,6.553255,6.032337,1.635369
1006.707031,7.917848,3.379959,3.467137,-1.389782
1006.710938,-1.220913,5.499849,8.568793,2.272921
1006.714844,7.615697,5.161624,1.353793,6.785917
1006.718750,5.609932,10.050528,12.145497,15.039920
1006.722656,2.036266,5.969964,7.299497,6.304326
1006.726562,8.270704,6.365074,13.601017,13.336424
1006.730469,5.051606,0.739553,8.940606,13.731408
1006.734375,13.224220,15.592648,0.445022,8.904584
1006.738281,9.574228,3.591666,5.585309,7.653269
1006.742188,7.835230,-1.110183,2.619821,6.788620
1006.746094,-2.587668,0.434880,1.735588,3.320368
1006.750000,5.579055,-3.111723,-2.021741,-5.357630
1006.753906,-0.679122,-3.421089,-6.798721,-0.585035
1006.757812,-1.538049,-3.428021,2.110603,-6.325990
1006.761719,-5.559070,-2.086376,-9.162691,-20.418427
1006.765625,-7.457991,-6.126536,-17.979761,-13.414778
1006.769531,-6.145839,-15.876897,-12.494482,-9.625289
1006.773438,-6.801421,-1.554474,-9.148093,-7.264638
1006.777344,-13.498386,-8.486129,-13.881126,-5.245849
1006.781250,-13.754367,-2.939322,-11.923402,-6.443942
1006.785156,-4.980673,-4.982517,-10.356526,-9.113886
1006.789062,-3.489253,-0.120637,-7.596489,-4.993571
1006.792969,-8.481569,-2.616290,-11.566344,-5.276743
1006.796875,-5.980572,-3.361536,4.150159,3.244784
1006.800781,-2.908390,-3.440609,5.052229,0.368672
1006.804688,1.756236,3.707610,4.546339,5.688556
1006.808594,-4.300123,4.100122,4.432159,2.929142
1006.812500,13.953127,1.407445,11.760364,9.866528
1006.816406,7.524453,5.822237,5.608876,2.459801
1006.820312,11.435841,2.899636,5.816512,10.368999
1006.824219,9.668774,7.487852,7.837325,13.188895
1006.828125,12.300325,7.103743,7.727343,11.466116
1006.832031,10.544571,9.109839,11.078494,8.293597
1006.835938,13.612071,4.431446,9.006873,14.632198
1006.839844,-2.339361,2.454102,7.892025,8.819084
1006.843750,6.080294,1.468625,8.026950,-2.263785
1006.847656,3.434680,-5.808023,4.906108,9.388952
1006.851562,-2.728979,1.281062,-0.471167,-2.468319
1006.855469,-3.870535,0.599320,1.354636,-4.543580
1006.859375,-3.855467,0.471322,-0.318326,-6.762797
1006.863281,-8.608458,-6.583063,-6.934098,-6.856965
1006.867188,-6.907017,-10.751084,-13.100925,-3.244351
1006.871094,-15.370440,-11.853245,-4.609001,-7.483669
1006.875000,-17.028325,-6.519222,-4.103820,-6.189476
1006.878906,-8.865391,-14.127150,-6.941334,-9.944331
1006.882812,-5.297799,-5.023416,-8.113159,-7.692529
1006.886719,-7.124418,-9.977868,-11.012404,-10.015998
1006.890625,-8.500408,-3.529010,3.629311,-5.394891
1006.894531,-1.183922,-1.811995,-0.953218,-2.383887
1006.898438,1.597947,2.595979,0.434188,2.135879
1006.902344,4.725299,-3.846599,-0.560265,-4.080864
1006.906250,10.566581,8.869245,4.496314,9.562607
1006.910156,2.433578,12.491527,1.321203,3.748743
1006.914062,9.127648,8.634405,9.251210,6.138788
1006.917969,1.681078,11.815729,7.305258,3.070034
1006.921875,8.912263,5.266432,3.278850,14.180079
1006.925781,15.351179,18.254540,7.504535,-0.188640
1006.929688,10.962269,6.413220,10.630499,4.577036
1006.933594,11.891400,8.121934,3.226606,8.240043
1006.937500,8.685684,-0.872276,4.007714,5.373204
1006.941406,3.930226,6.498356,5.369860,7.532542
1006.945312,-1.925823,12.886992,4.750777,0.287726
1006.949219,-0.856423,5.394919,-7.280566,4.939293
1006.953125,-3.477954,-3.407023,-10.279257,2.467249
1006.957031,-5.757551,-6.549106,-5.751315,-0.086395
1006.960938,-5.072729,-4.186471,-8.616912,-2.553355
1006.964844,-9.337534,-4.756738,-10.492728,-3.904338
1006.968750,-7.968674,-7.266770,-16.129444,-12.134711
1006.972656,-8.695284,-11.494403,-11.796550,-12.365930
1006.976562,-12.534688,-15.573020,-9.147689,2.481116
1006.980469,-10.207469,-4.877095,-1.562939,-3.039394
1006.984375,-6.188063,-7.148340,-1.229153,-10.341373
1006.988281,-1.190917,-4.139384,-6.045662,-9.009901
1006.992188,-7.984606,-4.720305,-8.688751,-1.312208
1006.996094,8.762792,-6.135074,2.928118,-4.896423
1007.000000,5.917378,0.434706,1.788298,-3.556931
1007.003906,-2.216158,5.326732,3.878593,-2.164498
1007.007812,3.005202,-0.334152,5.278011,9.659415
1007.011719,9.772769,7.327742,4.062666,2.974061
1007.015625,12.368303,5.088945,14.153835,7.893195
1007.019531,8.588439,7.108041,6.065860,12.534034
1007.023438,9.368418,12.085580,17.745786,14.985109
1007.027344,13.421465,9.083390,8.380710,10.083351
1007.031250,9.657960,7.983342,15.056728,8.360758
1007.035156,6.052358,3.862663,9.766820,4.433434
1007.039062,4.512784,-0.027461,-0.570449,11.965366
1007.042969,3.203638,6.682959,8.831912,3.438285
1007.046875,-3.944645,-5.541282,-0.522307,0.815602
1007.050781,0.152664,-3.046746,-6.009465,-0.876929
1007.054688,0.552160,0.475734,-4.234544,-7.312324
1007.058594,-3.335257,-3.931058,-2.904288,-8.330287
1007.062500,-3.840598,-6.451892,-2.527573,-11.695554
1007.066406,-6.716880,-4.378562,-13.577871,-5.233689
1007.070312,-10.230408,-8.220975,-7.674113,-11.375425
1007.074219,-10.354526,-10.570314,-9.818887,-7.129469
1007.078125,-15.114548,-9.420772,-6.253866,-10.440908
1007.082031,-19.763367,-11.618417,-9.316341,-5.928113
1007.085938,-8.831480,-9.765712,-4.060940,-8.212666
1007.089844,-4.959812,1.050568,-5.364635,-12.528748
1007.093750,-3.767053,-8.380517,-0.929319,-6.830419
1007.097656,4.279356,-1.105268,1.502539,-5.180865
1007.101562,4.521081,2.976178,2.072090,1.622793
1007.105469,4.416076,3.145156,1.737064,3.347309
1007.109375,7.386116,6.656593,5.889653,5.940080
1007.113281,12.564084,6.930474,6.392136,1.074746
1007.117188,6.310919,13.120686,13.187491,5.672195
1007.121094,16.971079,9.742023,12.336330,4.997150
1007.125000,6.362290,15.341164,13.865646,8.627614
1007.128906,10.338308,2.152987,14.655375,11.713892
1007.132812,9.251846,9.292030,5.721058,9.743796
1007.136719,1.689533,7.523222,14.288127,9.057653
1007.140625,3.851895,3.588324,6.526794,5.851537
1007.144531,5.032361,1.141227,-1.334810,0.440014
1007.148438,-3.016571,0.149445,6.474832,0.233686
1007.152344,0.261701,-0.637884,-2.697123,-0.717900
1007.156250,-3.724279,-7.139748,-0.626880,-5.760480
1007.160156,-9.454153,-3.621130,-1.426271,-1.865958
1007.164062,-0.367301,-6.817276,-5.011571,0.532950
1007.167969,-9.829480,-4.039461,-13.022768,-4.243726
1007.171875,-7.121896,-4.745057,-3.783834,-11.808707
1007.175781,-5.666724,-9.138271,-13.940170,-11.205281
1007.179688,-7.707331,-8.695855,-4.531146,-2.740284
1007.183594,-6.669334,-15.758640,-5.861378,-9.121001
1007.187500,-10.744425,-8.622791,-1.771852,-13.053939
1007.191406,-9.330733,-7.917761,-4.498839,-6.373640
1007.195312,-2.623414,0.017348,2.592511,1.126824
1007.199219,-5.139279,0.197525,-1.693686,7.982015
1007.203125,3.261729,2.793652,-1.286381,6.530711
1007.207031,4.923218,5.920046,3.806038,4.637677
1007.210938,4.990908,0.973830,7.210667,3.183077
1007.214844,4.574152,10.156634,3.256186,7.111308
1007.218750,6.174503,14.242966,-0.162432,10.424683
1007.222656,12.561384,1.037184,7.193729,21.993561
1007.226562,11.446378,3.162774,-0.774161,9.060161
1007.230469,6.750341,3.696966,9.930445,16.716355
1007.234375,1.439528,13.798739,10.982049,7.577962
1007.238281,2.747222,8.691694,10.842601,-3.419834
1007.242188,7.410495,7.825685,3.681096,3.670082
1007.246094,5.559912,4.857971,2.248776,3.209065
1007.250000,1.890747,1.681469,0.284723,5.321451
1007.253906,-1.025628,-2.846365,-2.972940,-2.727508
1007.257812,-4.078557,-0.577258,-0.573111,0.293479
1007.261719,-0.893175,-5.273185,-1.591629,-4.229834
1007.265625,-11.762979,-9.036355,-9.228740,-4.620002
1007.269531,-12.652620,-8.818147,-0.821280,-10.991571
1007.273438,-11.073331,-16.992943,-12.215172,-10.845006
1007.277344,-11.060268,-8.941387,-10.490366,-3.367448
1007.281250,-6.614356,-7.592837,-5.995497,-7.112717
1007.285156,-9.765350,-7.384594,-9.630343,-2.161032
1007.289062,-5.059719,-2.461331,-5.529987,-6.694994
1007.292969,-8.560860,-5.883772,2.003998,-9.478369
1007.296875,-4.206043,-4.687100,0.006381,-1.361587
1007.300781,-0.005042,-6.698154,10.237842,9.396186
1007.304688,9.240250,2.913952,7.137836,-0.128903
1007.308594,9.935973,5.196991,-0.186768,4.687471
1007.312500,7.948634,1.620026,11.605850,9.231808
1007.316406,8.445442,9.753012,7.837008,5.557507
1007.320312,9.698445,10.719030,8.493162,3.408803
1007.324219,5.228416,10.532857,7.139225,7.842770
1007.328125,8.805587,6.679508,9.521478,4.989899
1007.332031,3.393125,10.661778,6.335995,13.668951
1007.335938,11.236427,9.069845,16.397276,6.429558
1007.339844,7.318112,15.061171,-6.807721,9.513564
1007.343750,7.393362,9.645867,4.055178,-0.931592
1007.347656,5.460812,1.867950,-1.314251,4.451255
1007.351562,-4.758079,-3.789278,-3.036013,-0.326367
1007.355469,-0.868218,1.405937,-5.392930,-3.363435
1007.359375,-11.563047,-3.532939,-1.580302,-4.562525
1007.363281,-6.640747,-10.362859,-9.811153,-9.119864
1007.367188,-7.296523,-12.564489,-10.714797,-3.952996
1007.371094,-13.581643,-8.195756,-12.652042,-8.428200
1007.375000,-5.754770,-7.433646,-8.201297,-10.693349
1007.378906,-19.063603,-9.715678,-12.157495,-8.225079
1007.382812,-13.894654,-6.648282,-15.140935,-4.204008
1007.386719,-2.117719,-2.471279,-5.522626,-8.005113
1007.390625,-2.865094,-8.474367,-7.966142,-4.763041
1007.394531,-0.224285,-9.985404,-13.773446,-4.204056
1007.398438,2.469477,3.455481,1.253378,-2.562349
1007.402344,1.984139,-1.124238,-4.655050,0.057653
1007.406250,-1.424348,2.438425,-5.973430,-1.434797
1007.410156,7.879562,4.854962,8.135609,9.212235
1007.414062,4.209048,5.341838,6.630596,5.874582
1007.417969,7.317583,5.051596,6.355617,12.282654
1007.421875,12.592047,7.218403,10.507122,8.585524
1007.425781,12.167737,1.670857,12.185718,9.961086
1007.429688,6.847427,14.103436,2.824191,11.908227
1007.433594,6.555593,7.186318,3.939634,4.649915
1007.437500,8.821664,7.472473,6.980947,4.898806
1007.441406,-1.829556,8.060427,3.496468,6.814428
1007.445312,3.376557,1.702501,0.461953,6.455568
1007.449219,-6.404471,2.971302,3.800941,-5.493712
1007.453125,-2.765930,0.031520,-5.724969,-3.938925
1007.457031,-3.690256,-5.421404,-0.236270,-1.203264
1007.460938,-5.277653,-8.288528,-0.973295,-11.163209
1007.464844,-5.216549,-11.161523,-2.988174,-8.176237
1007.468750,-6.636705,-12.625508,-7.269683,-14.071532
1007.472656,-17.092475,-8.248762,-9.043979,-7.992703
1007.476562,-15.086082,-11.201471,-9.870835,-10.041796
1007.480469,-7.878718,-10.932265,0.154456,-8.075359
1007.484375,-7.849588,-5.249243,-11.913729,-14.381621
1007.488281,-5.972933,-10.861603,-8.533790,-11.678396
1007.492188,-2.703596,-10.309414,-12.533329,-2.529357
1007.496094,-5.505477,-2.071003,-4.726458,-2.640676
1007.500000,1.507315,0.357803,1.756931,-4.486237
1007.503906,-1.653632,11.170723,-4.924556,3.838777
1007.507812,-0.219678,5.858979,5.469196,8.383907
1007.511719,6.667379,-2.134075,9.070954,2.419707
1007.515625,1.630578,9.756538,3.814151,15.397087
1007.519531,12.913139,12.394714,17.567248,16.475207
1007.523438,10.695192,6.272856,9.625554,5.532280
1007.527344,8.347169,12.518604,14.580263,5.541328
1007.531250,12.630331,-0.666543,12.480462,4.959004
1007.535156,11.313395,3.370481,8.653325,8.899520
1007.539062,6.751534,3.374304,3.171876,4.637864
1007.542969,5.364025,6.606275,-1.473707,8.439637
1007.546875,-0.788025,4.975679,6.468204,-3.686682
1007.550781,-0.819649,-0.866739,-1.287495,-1.133871
1007.554688,-1.822830,5.932024,-4.391651,-10.261686
1007.558594,-3.296481,-1.579651,-0.003458,3.297680
1007.562500,-9.262932,-10.715648,-11.816744,-13.889245
1007.566406,-11.381018,-15.188291,-8.056729,-6.743306
1007.570312,-6.373771,-5.073413,-7.841452,-4.289972
1007.574219,-9.826226,-7.871527,-9.903888,-4.706085
1007.578125,-14.586005,-12.173792,-4.680935,-12.152110
1007.582031,-6.759027,-2.923867,-10.675015,-8.850086
1007.585938,-18.083956,-8.297398,-1.796082,-3.478531
1007.589844,-3.228293,-6.323395,-4.364211,-1.617575
1007.593750,-2.154054,-5.973262,-4.974841,-4.953081
1007.597656,-6.752793,-5.924635,0.255319,-2.856212
1007.601562,-0.447529,-1.663674,1.962791,5.518150
1007.605469,-0.727089,5.241028,12.816076,-1.761207
1007.609375,3.402909,8.033926,8.476705,1.413506
1007.613281,5.205099,3.296685,15.002707,4.050133
1007.617188,7.173375,0.867798,8.804929,11.451499
1007.621094,11.508696,10.708156,11.543745,15.003672
1007.625000,9.575895,9.615103,12.738298,9.520174
1007.628906,12.580502,8.136374,11.195975,9.228120
1007.632812,7.907822,7.985898,10.603613,13.391971
1007.636719,4.811140,8.419870,8.409942,11.690484
1007.640625,9.500753,8.041178,5.433257,6.148305
1007.644531,8.496985,5.756164,-0.142814,1.627978
1007.648438,-3.500667,3.941858,-0.662521,3.426874
1007.652344,-0.218352,-5.020569,-5.025075,2.071728
1007.656250,-0.008665,-10.240089,-0.278889,0.313068
1007.660156,-8.741658,-8.872847,-11.203986,-7.943886
1007.664062,-8.760589,-9.728829,-6.798302,-11.306530
1007.667969,-9.944339,-9.100400,-13.332821,-0.097724
1007.671875,-12.251309,-2.496241,-15.240291,-18.529329
1007.675781,-15.433516,-3.299769,-4.435051,-15.749281
1007.679688,-9.427305,-7.639272,-6.028472,-6.740590
1007.683594,-12.323514,-7.881862,-7.185007,-7.453036
1007.687500,-6.932188,0.343895,-6.185687,-7.927193
1007.691406,-2.255024,1.867696,-3.247861,-2.911145
1007.695312,-4.898491,-2.007525,2.767557,3.418296
1007.699219,-1.159875,0.573015,-1.424306,-3.078782
1007.703125,2.017924,-0.751715,4.057419,1.901658
1007.707031,5.509872,3.581402,9.122819,2.301423
1007.710938,9.070617,0.228474,8.215404,7.520438
1007.714844,6.229615,3.892596,9.159333,3.146431
1007.718750,7.803150,11.403363,8.054218,12.330699
1007.722656,7.929722,15.109533,9.942749,13.021077
1007.726562,11.657218,4.831059,9.755902,18.372236
1007.730469,5.628476,10.414409,8.674213,13.554750
1007.734375,4.195196,6.177385,11.274840,13.492457
1007.738281,-0.896655,3.480684,5.135952,-1.698780
1007.742188,1.600294,9.843103,6.805699,7.690541
1007.746094,5.587017,2.470015,2.833683,1.736895
1007.750000,3.742264,-6.841584,-4.326589,-4.141983
1007.753906,1.631324,-1.626874,0.346054,-5.666492
1007.757812,-10.316023,-7.572029,-12.244564,-3.254779
1007.761719,-4.394471,-8.999555,-11.229825,-4.361678
1007.765625,-9.598368,-3.884471,-10.593380,-2.755990
1007.769531,-3.593407,-9.759872,-14.184352,-11.150365
1007.773438,-3.051660,-11.182265,-12.572826,-5.698868
1007.777344,-9.890081,-8.790894,-12.861626,-10.754809
1007.781250,-11.253608,-10.861928,-8.986411,-17.765161
1007.785156,-3.663342,-11.396692,-2.228703,-7.295355
1007.789062,-7.394369,-3.771082,-7.827299,-11.557652
1007.792969,0.929344,-5.644478,-7.549920,-0.971742
1007.796875,-4.562540,4.088178,-2.362939,-6.792286
1007.800781,-3.197919,3.637635,-0.604187,1.677561
1007.804688,1.141801,-0.334920,7.642817,3.009956
1007.808594,6.509623,4.596115,1.166087,7.719431
1007.812500,3.793658,8.732348,3.094857,11.811584
1007.816406,6.919265,4.723369,12.811693,7.337664
1007.820312,13.719162,9.541536,7.125216,13.382563
1007.824219,14.448755,18.331406,11.789418,8.276945
1007.828125,17.160945,11.253592,3.029468,9.120554
1007.832031,0.976764,7.295903,6.227335,17.168983
1007.835938,6.940330,2.070059,9.482718,15.090109
1007.839844,5.900345,0.355498,0.494951,3.847162
1007.843750,2.452694,3.041199,0.394532,3.671202
1007.847656,1.915678,1.425423,7.816651,7.238059
1007.851562,-6.664109,-3.731490,-1.681776,-0.662295
1007.855469,-6.515232,-2.520220,2.699466,-3.211392
1007.859375,-1.846577,0.217383,-8.039438,-1.130936
1007.863281,-1.429032,-7.184661,-15.130880,-5.559398
1007.867188,-15.162900,-8.176618,-10.645066,-9.952514
1007.871094,-8.333802,-4.581458,-7.365315,-15.565940
1007.875000,-6.087284,-10.476765,-10.490298,-7.749594
1007.878906,-9.673339,-8.668098,-11.151152,-12.571743
1007.882812,-6.089872,-4.198550,-10.842920,-16.304553
1007.886719,-9.679750,-13.155454,-11.980859,-0.759106
1007.890625,-9.605432,-6.841165,-5.609310,-9.457089
1007.894531,-5.989721,-5.038814,-0.076231,-3.719071
1007.898438,-4.308999,-2.295328,-3.073768,-8.336859
1007.902344,5.924595,0.802286,-3.637404,6.694607
1007.906250,5.943977,8.256648,0.707011,5.478860
1007.910156,2.371154,10.010323,8.108469,1.894102
1007.914062,3.560886,6.107698,0.276272,10.237151
1007.917969,10.907684,10.590032,10.734041,8.413201
1007.921875,10.948480,13.659394,4.364410,12.850373
1007.925781,10.729993,-0.368450,13.768762,1.543103
1007.929688,10.607456,8.895082,10.434199,8.855742
1007.933594,9.502098,5.123104,9.628975,14.523980
1007.937500,11.664828,3.192706,8.951408,13.546619
1007.941406,7.070314,8.187931,3.418680,5.471811
1007.945312,-1.327976,1.094340,6.507838,2.730417
1007.949219,-3.169506,4.422406,0.492105,-5.792007
1007.953125,-1.038207,0.699679,2.542681,-10.883637
1007.957031,2.090327,-2.414728,-18.807017,-8.095766
1007.960938,-4.871732,-7.566357,-4.001980,-7.636368
1007.964844,-13.991600,-3.487805,-7.459011,-7.581419
1007.968750,-18.844886,-7.363602,-17.568540,-17.544159
1007.972656,-14.616756,-6.896923,-8.881973,-11.753780
1007.976562,-13.957972,-9.925527,-15.611212,0.472194
1007.980469,-5.124299,-9.562670,-11.666994,-11.843025
1007.984375,-6.940844,-15.758323,-4.588329,-12.954859
1007.988281,-6.406869,-5.365251,-8.408391,-7.255907
1007.992188,1.237952,-10.564015,-4.229569,5.165234
1007.996094,0.104622,0.610500,-5.689067,-7.999031
1008.000000,1.645188,0.835991,-2.744283,-2.910811
1008.003906,3.633076,4.079724,4.042787,-0.546483
1008.007812,9.712512,2.490881,4.797560,11.094378
1008.011719,14.753530,11.898258,8.462723,-1.569486
1008.015625,7.137488,4.590941,5.048437,13.506418
1008.019531,15.181459,13.923094,1.449527,6.102560
1008.023438,7.292911,14.914832,4.867158,11.720589
1008.027344,12.461733,8.714210,7.278447,8.650187
1008.031250,5.858116,12.336887,9.494467,16.922383
1008.035156,4.319018,4.167780,2.481597,8.465949
1008.039062,1.119928,6.515516,8.611087,5.504460
1008.042969,14.110487,10.228869,5.992545,13.992577
1008.046875,10.012782,0.754259,4.021654,0.621590
1008.050781,3.892500,1.268073,-1.481903,-0.259971
1008.054688,0.545242,1.314976,3.054205,-3.823557
1008.058594,-11.278875,-3.713893,-7.071672,-7.487813
1008.062500,-8.729923,-7.916220,-12.236586,-13.398515
1008.066406,-7.991588,-5.437818,-6.937664,-8.520582
1008.070312,-7.390873,-15.231887,-14.949985,-6.759948
1008.074219,-4.961593,-9.270450,-10.813500,-14.532434
1008.078125,-10.628604,-5.623646,-4.844383,-6.058277
1008.082031,-3.466538,-7.433329,-11.151906,-11.733080
1008.085938,-3.378932,-6.536738,-8.765150,-3.814865
1008.089844,-7.286922,-8.022254,-11.104277,-3.308993
1008.093750,-9.522726,-2.501057,0.028227,2.494143
1008.097656,-2.731013,-9.138704,0.730921,-2.936835
1008.101562,-2.861366,4.748172,0.177720,-0.085743
1008.105469,-0.861818,7.980181,16.434506,6.587522
1008.109375,8.748182,6.747017,0.640954,0.048535
1008.113281,8.738191,6.201518,12.626231,4.325676
1008.117188,12.785527,6.259619,6.417641,7.060764
1008.121094,4.816375,10.228909,14.988865,18.417950
1008.125000,4.673374,5.832074,18.790268,11.870565
1008.128906,5.699189,9.487831,10.185862,5.219616
1008.132812,15.853904,7.020560,9.270036,15.466670
1008.136719,15.233089,9.590635,5.958053,7.870253
1008.140625,4.439825,1.016156,-2.015457,10.042696
1008.144531,1.344907,2.279503,4.060469,-0.335170
1008.148438,-3.656677,-2.666631,-4.523265,5.157693
1008.152344,-5.172065,-4.814302,-4.839407,2.334127
1008.156250,2.647587,-0.714764,-13.669626,6.394918
1008.160156,-6.460109,-3.055779,-6.097437,-7.407437
1008.164062,-4.384369,1.553314,-10.526478,-8.232959
1008.167969,0.532145,-12.833275,-10.299979,-11.520688
1008.171875,-13.241583,-13.058085,-11.427395,-1.609645
1008.175781,-9.587145,-10.269100,-19.486834,-6.219863
1008.179688,-5.634601,-14.085036,-9.362964,-10.168066
1008.183594,-9.547707,-13.307852,-4.204534,-10.210727
1008.187500,-5.108244,-8.603024,-6.526273,3.230058
1008.191406,-2.567431,-6.083920,-1.458397,-3.323405
1008.195312,3.913726,-11.417969,-2.771758,-6.803453
1008.199219,-1.449070,-1.256042,-2.365702,7.169731
1008.203125,3.644241,4.834444,1.685808,-2.469340
1008.207031,0.685718,10.002867,3.426322,3.286028
1008.210938,7.724882,0.735681,-3.538081,6.504872
1008.214844,5.343283,8.451466,10.630205,14.841423
1008.218750,7.004788,6.195221,8.870834,0.756307
1008.222656,14.007400,7.140043,14.308529,7.509335
1008.226562,8.153118,14.487224,11.537269,5.750421
1008.230469,4.029145,12.086250,10.732867,12.309287
1008.234375,3.281175,11.431959,4.225072,11.220890
1008.238281,2.832372,2.098737,5.112527,1.681831
1008.242188,9.390049,9.027862,1.218398,4.155842
1008.246094,7.486886,11.747241,-3.316800,6.912342
1008.250000,0.377922,-1.256733,2.278907,3.701516
1008.253906,-4.659883,3.059056,-2.664659,-3.478919
1008.257812,0.649217,0.385450,-7.825484,-4.276228
1008.261719,-7.554112,-2.934950,-0.163002,2.718879
1008.265625,-2.532352,-7.238590,-12.932227,-20.395930
1008.269531,-8.700382,-5.785775,-4.753690,-9.431329
1008.273438,-8.208811,-13.408148,-8.007728,-9.041683
1008.277344,-16.778028,-9.438632,-5.052276,-9.452703
1008.281250,-16.400055,-7.689497,-8.947580,-13.211882
1008.285156,-2.979553,-6.600593,-13.448582,-14.720172
1008.289062,-1.131852,-7.769157,-5.659243,-7.739167
1008.292969,-4.414377,-3.434526,-5.329894,1.398689
1008.296875,-2.466121,-5.251075,-0.358063,-5.938531
1008.300781,-1.193984,-3.848681,4.667840,-1.288858
1008.304688,-5.088382,-2.737777,12.427537,1.526846
1008.308594,11.113096,5.601222,5.072739,3.265070
1008.312500,5.203427,10.678987,8.906658,8.535319
1008.316406,9.365187,11.369644,8.947326,10.673066
1008.320312,3.025374,3.876789,9.572459,13.290017
1008.324219,5.012444,2.666208,7.445913,5.170519
1008.328125,11.815208,9.969972,4.442170,11.505566
1008.332031,13.345937,14.555899,5.095510,10.786437
1008.335938,1.429392,8.702579,3.195229,17.901228
1008.339844,14.463509,6.729539,8.413767,1.631843
1008.343750,3.977733,7.082540,0.101485,3.638767
1008.347656,5.871661,0.627809,-6.484081,-5.848305
1008.351562,-0.210326,-7.036272,6.714147,-0.936878
1008.355469,-6.454002,-1.461455,-0.824444,3.439129
1008.359375,-12.801953,-1.134653,0.113141,-7.455869
1008.363281,-2.999504,-7.206158,-4.427379,-11.773215
1008.367188,-12.465698,-3.065206,-16.463361,-15.476617
1008.371094,-6.103931,-9.675541,-6.801796,-11.454800
1008.375000,-16.668590,-0.711427,-9.904681,-9.820809
1008.378906,-6.326686,-9.235868,-7.864429,-9.744514
1008.382812,-12.842846,-7.407090,-5.255383,-12.679530
1008.386719,-9.357029,-0.498419,-1.196507,-10.103014
1008.390625,-11.829835,-8.757926,0.150647,-17.278793
1008.394531,-2.339854,-9.123067,-7.394612,-6.458148
1008.398438,-1.259204,-4.118550,-5.417776,-5.137390
1008.402344,-3.916976,2.646156,-3.415313,-4.603857
1008.406250,6.481883,8.643158,1.733054,6.664123
1008.410156,3.374026,0.512811,3.651613,8.957791
1008.414062,5.739011,8.655275,9.816467,5.274569
1008.417969,12.550339,12.001536,8.496009,2.693373
1008.421875,6.444714,14.008012,8.524689,1.964535
1008.425781,7.222820,11.759253,14.922163,-0.135255
1008.429688,8.690574,11.614760,5.841381,8.598170
1008.433594,4.252964,14.387343,5.915593,8.309764
1008.437500,12.118161,6.726814,13.396964,8.959035
1008.441406,15.111825,-0.804725,7.721114,5.631740
1008.445312,0.560052,7.300798,1.128787,8.716852
1008.449219,-0.806840,-2.683232,0.040072,-1.299100
1008.453125,-5.770227,-7.165011,6.543959,4.905659
1008.457031,-10.097113,-8.127543,3.810151,-6.001290
1008.460938,-10.889959,-3.941057,-4.007249,-8.903783
1008.464844,-9.891095,-11.938738,-5.855350,-3.398340
1008.468750,-3.309619,-9.898974,-6.610877,-9.955756
1008.472656,-18.167911,-14.157499,-7.143746,-9.795397
1008.476562,-7.526917,-8.773962,-7.679612,-8.336928
1008.480469,-13.426780,-8.430151,-9.231522,-13.895628
1008.484375,-11.370576,-8.284767,-11.193097,-6.397331
1008.488281,-1.061451,-3.443612,-9.179885,-7.319793
1008.492188,-3.063002,0.403137,-13.257099,-1.189107
1008.496094,-1.019549,-4.521919,-6.907857,-6.799581
1008.500000,0.008892,1.426487,7.693857,1.244302
1008.503906,8.465694,2.809276,-0.359207,4.331980
1008.507812,5.874399,-7.962347,1.926736,-0.878123
1008.511719,3.069713,3.528358,10.647532,1.454511
1008.515625,3.619392,7.737507,11.360418,5.391429
1008.519531,7.398630,16.655061,8.641438,13.086414
1008.523438,8.406025,16.064980,5.937019,10.253936
1008.527344,4.242624,7.972570,12.555907,7.924929
1008.531250,5.388753,10.503795,13.999068,7.024740
1008.535156,15.567033,12.117190,7.577486,12.342842
1008.539062,1.596769,8.201059,9.842482,3.142247
1008.542969,2.161911,5.217855,3.526699,-4.619965
1008.546875,-5.166086,-0.883277,1.913568,0.262027
1008.550781,2.300123,-3.000719,0.661869,-0.742706
1008.554688,-1.964951,1.091069,0.373890,-6.170999
1008.558594,-7.281055,0.476957,-7.743589,-6.863378
1008.562500,1.706875,-9.994334,-12.474224,-7.184516
1008.566406,-2.728243,-15.468927,-7.708536,-4.322600
1008.570312,-15.420226,-4.312482,-15.251185,-12.463084
1008.574219,-8.035016,-13.703562,-8.584280,-13.507419
1008.578125,-10.899979,-10.959319,-12.789506,-6.874162
1008.582031,-13.925824,-11.768095,-3.269463,-12.321659
1008.585938,-7.868321,-1.890247,-10.250794,-5.689504
1008.589844,-6.979576,-13.266623,-11.601684,-3.130955
1008.593750,0.761358,-5.145990,-10.526610,-3.447350
1008.597656,-3.295035,-0.770724,-0.474829,0.912723
1008.601562,-4.092224,3.605480,0.894223,-2.691905
1008.605469,5.840642,-2.459078,1.008792,2.286212
1008.609375,1.752717,-3.273268,10.181715,6.338819
1008.613281,5.664260,6.949649,6.799251,-1.542978
1008.617188,9.375134,6.349952,7.602820,7.570296
1008.621094,11.057896,12.470847,4.227496,12.825948
1008.625000,6.278605,17.148957,11.539219,9.945615
1008.628906,8.055188,10.915961,6.434192,12.061885
1008.632812,15.229158,12.212700,9.603661,13.974211
1008.636719,7.551104,4.673757,6.822823,11.226460
1008.640625,9.264077,8.662676,6.058846,7.290687
1008.644531,11.610038,7.762967,3.805889,-3.466818
1008.648438,1.852882,3.353548,-0.673494,0.413956
1008.652344,4.052541,5.763690,-1.119880,-3.543090
1008.656250,-7.732180,-6.116467,0.767782,-4.463731
1008.660156,-10.312486,-2.815178,-5.939700,-2.675482
1008.664062,-7.249588,-10.650246,-5.972951,-3.468608
1008.667969,-5.268823,-9.237452,-6.315606,-9.631951
1008.671875,-8.947731,-9.101976,-5.673550,-4.480617
1008.675781,-6.173884,-11.336521,-4.628883,-8.999375
1008.679688,-4.419779,-13.339065,-5.302600,-7.841858
1008.683594,-6.040967,-2.336559,-4.187844,-12.997477
1008.687500,-9.588239,-3.578746,-3.049183,-10.044862
1008.691406,-8.319103,-4.773418,-4.874090,-12.024944
1008.695312,3.515023,-6.775472,-6.179599,-3.720741
1008.699219,-4.677614,-3.720858,-2.435533,-1.382222
1008.703125,-3.141282,-7.028924,8.738202,-1.473941
1008.707031,10.070486,5.518202,2.945818,1.524300
1008.710938,9.245017,6.950361,8.642945,4.732004
1008.714844,9.944977,5.681960,3.858445,7.898301
1008.718750,14.368206,15.681812,1.985990,14.030188
1008.722656,11.675082,24.780508,12.426650,13.975104
1008.726562,10.851436,9.302406,16.709288,11.958992
1008.730469,10.946315,15.410934,10.988938,11.096009
1008.734375,8.489771,5.060990,-0.677288,4.113350
1008.738281,9.503001,3.169585,1.057664,12.439664
1008.742188,1.567758,2.516954,4.916259,4.321239
1008.746094,4.092664,0.456222,2.351459,0.464660
1008.750000,-2.041232,-2.279367,-7.605946,-1.108666
1008.753906,-5.744483,-3.045901,2.144669,-2.317781
1008.757812,-10.737612,-13.508098,-2.681678,-16.448830
1008.761719,-0.595805,-1.642979,-4.273882,-3.613002
1008.765625,-8.549565,-9.937552,-10.376360,-10.512249
1008.769531,-10.947716,-2.645745,-6.212829,-10.177141
1008.773438,-14.243741,-6.582309,-8.524749,-9.141601
1008.777344,-6.171740,-10.384680,-2.895746,-11.754595
1008.781250,-6.358151,-10.893650,-10.332419,-5.598499
1008.785156,-3.807103,-17.104617,-13.784349,-10.055434
1008.789062,-9.848879,-4.901758,-11.473565,2.411083
1008.792969,-3.293995,-1.975212,-11.295104,-9.091019
1008.796875,-8.880038,-1.540836,3.391678,-5.754254
1008.800781,-0.596439,-5.473061,-3.762468,0.209113
1008.804688,-0.534110,1.989374,4.472401,2.645169
1008.808594,6.143537,4.337558,11.209336,6.991302
1008.812500,7.749933,6.133007,5.105989,12.897655
1008.816406,4.626298,6.924595,11.790088,17.345198
1008.820312,9.223887,6.027634,9.712457,10.221481
1008.824219,7.267745,13.799363,11.218000,10.171892
1008.828125,10.115387,6.064195,-4.148268,7.915992
1008.832031,12.718425,4.670121,14.318419,4.527217
1008.835938,4.094017,3.105692,6.166567,6.853795
1008.839844,3.267014,5.000725,11.781424,1.228683
1008.843750,4.635439,4.319526,1.805014,1.926431
1008.847656,8.372327,1.818564,-0.184803,2.011253
1008.851562,-5.547024,-1.450300,-2.922931,-4.405215
1008.855469,0.073846,-2.643699,-0.038657,-3.087742
1008.859375,-10.382317,-7.859025,-5.705230,-4.799829
1008.863281,-11.629457,-7.099507,-6.341564,-12.486906
1008.867188,-10.776631,-15.753360,-14.148931,-10.216110
1008.871094,-10.637065,-9.438898,-10.423825,-7.757222
1008.875000,-3.691384,-10.069230,-5.764340,-11.073160
1008.878906,-12.837257,-11.010981,-13.442904,-9.916175
1008.882812,-10.913848,-5.348222,-1.113754,-10.165612
1008.886719,-7.330002,-12.782098,-6.019532,-10.857396
1008.890625,-4.177578,-4.357381,-1.736985,-6.146595
1008.894531,-10.413692,-6.205608,0.182488,-2.419567
1008.898438,2.249655,-2.714262,5.386275,1.693499
1008.902344,-3.482464,4.112899,-4.328046,4.230061
1008.906250,4.960880,11.752265,-3.358524,1.415826
1008.910156,8.108601,5.530504,2.506692,2.244620
1008.914062,3.781879,6.155307,15.402949,5.024903
1008.917969,18.633166,15.405979,7.606518,3.191848
1008.921875,13.449981,18.309083,5.704814,11.342305
1008.925781,13.523232,10.757308,10.969881,13.629187
1008.929688,15.551469,10.226570,6.764779,12.910489
1008.933594,12.353618,7.891495,13.654217,7.552082
1008.937500,7.558372,8.373017,16.052140,16.510514
1008.941406,8.411930,5.722429,3.034188,6.899590
1008.945312,5.384521,4.952145,8.533077,3.181226
1008.949219,-1.662359,7.850165,-0.898598,-4.873925
1008.953125,-1.366095,-2.540843,2.147882,-3.619425
1008.957031,-0.823757,0.761226,-5.676458,-4.970130
1008.960938,-2.513419,-7.964188,-5.494445,-8.714070
1008.964844,-4.753522,-8.996527,-10.703821,-12.240094
1008.968750,-6.351796,-8.952204,-14.593107,-22.145496
1008.972656,-8.982678,-3.982515,-13.322979,-15.136706
1008.976562,-14.835756,-3.816994,-15.074007,-10.317079
1008.980469,-15.904483,-10.916047,-5.455927,-9.440355
1008.984375,-9.569538,-5.595184,-0.414843,-9.998648
1008.988281,-8.943066,-0.831635,-12.042890,-6.615678
1008.992188,-8.216998,-5.204685,-7.651972,0.370642
1008.996094,-0.548858,-4.093703,1.574521,0.158892
1009.000000,-3.021107,4.250175,2.851556,-0.943597
1009.003906,6.803863,-3.182098,1.268312,0.750435
1009.007812,6.322525,2.846383,4.504637,1.144662
1009.011719,6.125502,8.782266,13.078600,2.492900
1009.015625,10.687394,5.949068,7.721139,9.518015
1009.019531,15.268225,10.650861,12.376466,6.044208
1009.023438,7.206225,14.106534,7.975597,7.635220
1009.027344,14.955789,13.962465,5.428816,8.730296
1009.031250,15.234839,6.262933,10.835276,8.381256
1009.035156,8.250074,8.936164,7.005833,8.405713
1009.039062,11.572289,1.116924,-0.336327,4.182793
1009.042969,8.177285,-0.672361,4.573250,-0.136438
1009.046875,7.194316,-1.638019,-4.011413,4.479757
1009.050781,-2.165182,3.187890,6.101376,-8.604932
1009.054688,-8.304979,-4.339867,-6.098897,-7.440562
1009.058594,-4.243203,-8.288531,-8.302938,-3.336949
1009.062500,-6.166102,-18.380612,-7.474666,-3.607430
1009.066406,-11.590468,-11.162420,-8.547222,-9.322130
1009.070312,-14.309813,-6.233095,-11.309596,-9.004987
1009.074219,-16.143957,-4.242107,-7.612422,-13.890678
1009.078125,-14.374554,-10.875189,-6.546122,-13.135547
1009.082031,-8.689918,-8.712726,-4.308528,-9.556327
1009.085938,-7.620425,-7.639324,-13.510709,-8.932908
1009.089844,-10.149311,-3.687460,-11.961825,-8.933133
1009.093750,-7.137846,-1.191860,-5.351935,-1.176186
1009.097656,-3.676966,-0.302728,5.053520,-6.561521
1009.101562,2.278117,3.216806,5.500183,6.610934
1009.105469,5.414144,7.681607,5.524797,6.175527
1009.109375,3.800750,6.665047,9.973124,8.158082
1009.113281,5.734006,6.766994,8.565833,14.428427
1009.117188,9.079845,7.253353,9.155892,6.566199
1009.121094,9.269282,10.959343,12.207254,8.413114
1009.125000,13.914334,8.350881,17.696881,7.801084
1009.128906,10.216442,15.639830,3.417236,11.019970
1009.132812,3.943831,4.770242,9.630545,9.755502
1009.136719,14.068649,5.622857,0.096515,13.935123
1009.140625,5.466332,3.971137,16.551000,4.384852
1009.144531,3.306557,5.495386,0.646903,4.911478
1009.148438,-2.014356,-4.234259,3.038398,-1.000400
1009.152344,-5.402198,-1.473650,3.807095,-3.665700
1009.156250,0.193979,-5.033023,-1.431147,-6.609171
1009.160156,-6.665579,-11.891782,-3.566836,-3.728769
1009.164062,-10.057296,-16.832068,-7.797424,-10.954913
1009.167969,-7.249761,-2.872633,-11.962019,-5.663915
1009.171875,-7.884702,-7.474468,-13.869141,-10.213900
1009.175781,-4.177842,-5.224630,-9.123851,-10.334016
1009.179688,-7.563696,-4.451020,-13.727548,-8.651447
1009.183594,-7.172044,-7.313552,-12.033694,-3.810516
1009.187500,-11.038124,2.375212,-13.377345,-8.037380
1009.191406,-12.817671,-7.723529,-8.547365,-1.898214
