timestamp,TP9,AF7,AF8,TP10
1000.000000,-10.425247,-0.158843,-10.395488,-2.933539
1000.003906,2.549154,17.058725,4.324336,0.046253
1000.007812,5.250042,4.946528,5.745256,6.346809
1000.011719,1.867843,8.132402,10.348152,3.181615
1000.015625,5.803596,15.019982,4.687162,11.360178
1000.019531,12.641307,1.984697,10.576951,12.922575
1000.023438,11.269761,10.602215,6.728999,14.708296
1000.027344,16.304447,10.033673,5.785866,11.289711
1000.031250,5.168020,15.289252,6.488019,14.793402
1000.035156,2.596412,4.276556,11.856310,5.637619
1000.039062,12.776994,6.045561,1.363073,2.662955
1000.042969,7.314341,7.940218,-2.689737,5.508162
1000.046875,-1.711039,4.358450,2.957674,3.682860
1000.050781,5.026091,0.508270,-4.660576,0.213686
1000.054688,-6.189460,-5.227916,-9.144926,-5.985228
1000.058594,-5.714046,-7.165278,-7.065363,-4.812922
1000.062500,-7.740313,-1.957354,-4.517053,1.841098
1000.066406,-2.206275,-13.023855,-12.866938,-8.504863
1000.070312,-16.823115,-2.111685,-5.731365,-10.604566
1000.074219,-12.714753,-12.759953,-14.290893,-6.638632
1000.078125,-12.376046,-8.098151,-14.185246,-13.544865
1000.082031,-14.562731,-9.475356,-12.467447,-9.925125
1000.085938,-5.514743,-5.004948,-10.227232,-3.719496
1000.089844,-5.670873,-4.375221,-6.012868,-5.064912
1000.093750,-3.946258,-4.078108,-4.172653,-4.400215
1000.097656,-3.257952,1.530588,-1.111262,0.895079
1000.101562,-3.468140,0.747442,11.416970,4.512344
1000.105469,2.939383,2.224908,4.510825,6.804146
1000.109375,12.835771,4.231136,4.955374,9.029518
1000.113281,3.074589,6.438206,10.267576,9.984810
1000.117188,13.358549,3.428024,8.017747,13.686855
1000.121094,4.192534,9.743268,7.039919,11.575545
1000.125000,9.234152,11.185652,3.430299,11.674708
1000.128906,10.933866,11.753601,6.590208,5.159023
1000.132812,3.453651,8.958357,9.281558,10.044213
1000.136719,15.417051,7.022075,8.566273,8.814526
1000.140625,8.290170,5.617726,6.134933,4.400407
1000.144531,3.017019,-1.889008,2.700015,1.710897
1000.148438,2.992583,2.184121,7.469088,3.119429
1000.152344,-1.204694,1.921045,-10.886558,1.582697
1000.156250,-5.266881,-8.499710,-4.012299,-4.016288
1000.160156,-9.238321,-16.858636,-2.790647,-4.981882
1000.164062,-6.294503,-4.743518,-4.865791,-15.535511
1000.167969,-8.175648,-15.990125,-3.865498,-3.862829
1000.171875,-12.323485,-14.475248,-15.268349,-10.504003
1000.175781,-9.708425,-4.718493,-18.150268,-9.606019
1000.179688,-4.585510,-10.761057,-8.148281,-11.382974
1000.183594,-15.605463,-14.502126,-5.438386,-14.964800
1000.187500,-6.605695,-8.885207,-10.931423,-6.632337
1000.191406,-4.673138,-5.000441,-4.610934,-5.628786
1000.195312,-2.557784,3.853255,-1.021286,-2.129319
1000.199219,5.221115,4.485764,-6.410043,5.752918
1000.203125,-2.130989,0.452123,-0.119579,-0.881128
1000.207031,8.839209,3.593129,8.286021,-7.296505
1000.210938,7.295783,4.601992,9.499563,10.859515
1000.214844,8.259676,9.473862,1.817375,5.138253
1000.218750,9.760254,10.271922,5.453559,1.017861
1000.222656,3.360627,3.739179,16.275609,16.317190
1000.226562,2.349055,11.815987,15.487431,12.692552
1000.230469,7.455993,7.465095,8.639250,11.082736
1000.234375,10.677351,-1.272023,3.336471,12.948262
1000.238281,10.655546,9.153892,2.131139,5.116450
1000.242188,4.476197,5.760830,1.435076,9.395441
1000.246094,3.087816,3.746609,0.825595,-1.472395
1000.250000,-4.695972,-3.161495,1.198159,-2.228864
1000.253906,-0.435087,-12.342327,2.114931,-1.940111
1000.257812,-9.224384,-2.293830,-6.741302,-0.708388
1000.261719,-5.903731,-12.687581,-6.606377,-9.576781
1000.265625,-9.914499,-12.784134,1.043509,-8.660626
1000.269531,-11.599331,-6.920500,-18.695185,-10.576004
1000.273438,-6.136249,-4.946459,-3.854510,-11.158921
1000.277344,-5.637137,-5.961806,-14.322638,-13.773220
1000.281250,-11.249328,-7.663004,-17.560880,-14.356399
1000.285156,-7.017484,-14.557050,-9.221485,-5.931044
1000.289062,-2.949253,-1.132509,-4.847574,-5.183005
1000.292969,-2.951900,-11.616507,-13.913059,4.036619
1000.296875,-2.027190,-7.556146,-4.180565,-2.452051
1000.300781,-2.370294,-1.239771,-1.476938,-3.842673
1000.304688,2.507091,0.383613,9.735019,3.654604
1000.308594,2.229112,2.174692,5.097216,-1.789224
1000.312500,3.001684,14.575813,6.540713,5.137754
1000.316406,8.735860,-0.231936,19.344925,9.704753
1000.320312,13.149906,6.062083,7.493566,11.643613
1000.324219,7.582413,16.711594,5.716133,15.543302
1000.328125,13.825825,10.871161,8.544327,13.654385
1000.332031,10.285865,8.667744,6.546473,12.711028
1000.335938,7.684072,4.699603,3.668301,2.771370
1000.339844,-1.449696,0.879203,9.219277,10.077633
1000.343750,4.450351,7.534677,3.390178,-1.400391
1000.347656,2.356061,1.932989,10.683113,2.489888
1000.351562,-3.496614,-1.890842,-0.419905,2.464876
1000.355469,3.433598,0.070036,-0.099638,0.951266
1000.359375,-6.602883,-9.036270,-0.659973,-14.202287
1000.363281,-6.586219,-9.679782,-7.461285,-4.672274
1000.367188,-3.685482,-7.713071,-5.716020,-10.333200
1000.371094,-13.295088,-13.737501,-7.145588,-2.853808
1000.375000,-13.406088,-11.574351,-10.568997,-5.019773
1000.378906,-6.964574,-14.547075,-5.630834,-10.875192
1000.382812,-3.915950,-9.353778,-6.980547,-0.815305
1000.386719,-2.864172,-4.519496,-11.804380,-6.253338
1000.390625,-10.959266,-9.003206,-6.701918,-5.943959
1000.394531,-6.446328,-6.233088,0.768005,-3.629637
1000.398438,1.926235,2.741104,-1.664603,4.527365
1000.402344,7.081598,-6.129193,-4.192695,-0.810282
1000.406250,-1.263311,3.035747,3.685091,7.509610
1000.410156,8.089067,1.989170,5.690876,15.707214
1000.414062,6.922010,12.827836,12.407759,5.265388
1000.417969,7.293161,6.880286,6.577713,4.197079
1000.421875,7.292933,16.585042,14.612251,9.371439
1000.425781,8.783277,4.450300,15.273938,11.780520
1000.429688,11.472292,11.819247,13.938223,7.641532
1000.433594,14.787980,3.981650,6.891559,5.051804
1000.437500,9.926032,7.475706,12.314300,10.324446
1000.441406,-4.221156,9.308631,0.978551,7.920946
1000.445312,2.207159,6.220175,3.251033,0.022572
1000.449219,0.193636,-4.110372,0.518951,1.843417
1000.453125,-3.708312,0.520293,-9.756528,-14.243926
1000.457031,-4.146832,-5.569706,-14.362623,-11.917369
1000.460938,-11.084951,-7.261979,-11.074662,0.768089
1000.464844,-8.525867,-6.125326,-10.569055,-11.797226
1000.468750,-9.269157,-9.847738,-11.696173,-9.879407
1000.472656,-5.949826,-5.022403,-8.820618,-16.109062
1000.476562,-9.985467,-12.012866,-9.901434,-15.025969
1000.480469,-6.489355,-9.820579,-9.939803,-3.109564
1000.484375,-9.737083,-8.309233,-8.569254,-4.598516
1000.488281,-3.995508,-13.460705,-15.452930,-9.833183
1000.492188,-2.674146,-5.452312,1.459975,-1.399828
1000.496094,-6.557750,-2.534481,3.670384,-2.502876
1000.500000,12.002612,-3.965716,4.867339,-3.980716
1000.503906,2.344112,1.702499,2.048248,3.939902
1000.507812,3.563334,7.285071,3.441943,6.231013
1000.511719,3.042290,6.575876,10.906594,9.434372
1000.515625,8.996697,5.225956,13.026186,8.764590
1000.519531,5.688687,11.047837,0.848786,8.102248
1000.523438,10.084542,1.504182,5.760324,1.802456
1000.527344,8.113358,11.782670,13.222644,8.883269
1000.531250,7.181404,11.663338,11.619009,9.062958
1000.535156,3.758706,7.364193,13.005968,11.896272
1000.539062,7.424638,14.861408,5.928645,8.921837
1000.542969,4.514406,-5.005071,1.853058,-7.300175
1000.546875,6.604361,4.470327,1.133364,3.595895
1000.550781,-3.142834,-0.133770,-0.948966,1.645009
1000.554688,4.398400,-13.461830,-4.727195,-2.387220
1000.558594,-7.694265,-9.152480,-0.853264,-6.647006
1000.562500,-3.994977,-4.610140,-4.768155,-8.921428
1000.566406,-19.246841,-11.244506,-9.943064,-10.283587
1000.570312,-6.256049,-9.900032,-10.317903,-8.797953
1000.574219,-14.305634,-9.789928,-9.711340,-10.470984
1000.578125,-13.844552,-9.164742,-13.266486,-9.858283
1000.582031,-8.094612,-9.388895,-16.168251,-10.369471
1000.585938,-2.898528,-7.604752,-1.382388,-5.140946
1000.589844,-4.211871,-4.107266,-5.088376,-9.144816
1000.593750,-1.282195,0.591384,1.225738,-6.651688
1000.597656,0.220835,1.324134,-3.150900,3.405277
1000.601562,3.794786,-2.632165,-4.916777,-3.989897
1000.605469,-1.310034,11.971992,4.676746,10.171765
1000.609375,1.935172,9.379777,9.917834,8.222714
1000.613281,5.424470,13.806649,6.690642,7.106446
1000.617188,9.525379,8.079744,1.475081,2.330709
1000.621094,14.413541,5.033437,10.428337,15.906643
1000.625000,7.542598,9.526750,7.174228,9.884609
1000.628906,4.444617,14.750730,5.902012,6.750514
1000.632812,11.003129,8.040066,4.330717,5.669070
1000.636719,7.506449,9.208151,6.820636,7.404707
1000.640625,10.544597,0.775826,0.702607,3.300318
1000.644531,11.024857,4.019987,0.696216,-3.736665
1000.648438,0.544944,1.171428,-5.832708,-7.430399
1000.652344,-2.361971,-3.747971,1.603056,-3.535123
1000.656250,-4.903038,-7.997230,-2.791834,-1.480884
1000.660156,-3.332835,-7.338710,-5.780535,-5.203385
1000.664062,-10.245001,-1.571147,-12.611903,-5.363906
1000.667969,-4.109041,-14.998547,-11.942185,-5.730127
1000.671875,-19.420580,-13.315597,-12.422080,-12.359133
1000.675781,-11.119540,-15.686905,-5.664340,-15.436731
1000.679688,-4.741268,-8.474040,-11.836299,-15.060806
1000.683594,-5.636017,-8.869622,-2.610029,-10.112373
1000.687500,-7.258114,-11.004719,-2.145642,-4.162911
1000.691406,-0.549113,-11.565999,-1.068003,-4.695968
1000.695312,-4.605413,-7.256376,-3.644400,-10.049788
1000.699219,-9.429078,-3.285002,4.333148,-1.688062
1000.703125,-0.146086,-0.006725,2.098117,-4.227095
1000.707031,0.841326,-0.465027,2.209590,-2.731239
1000.710938,5.001587,1.324089,11.047661,1.525901
1000.714844,2.623777,9.632251,9.132564,8.396605
1000.718750,10.095325,8.918360,10.635434,11.452604
1000.722656,8.211880,9.089525,10.202329,16.709767
1000.726562,10.740901,13.468837,3.998127,18.950670
1000.730469,10.546029,8.417590,9.159530,8.230668
1000.734375,6.119635,12.365268,4.104150,15.718575
1000.738281,-1.777139,9.222875,8.789438,13.150687
1000.742188,4.991455,4.352745,12.251249,6.640785
1000.746094,7.925387,4.401294,2.749165,8.141885
1000.750000,-0.984620,1.278756,-1.892017,-4.510126
1000.753906,-1.608827,-10.891103,1.187350,-1.587116
1000.757812,-6.532352,-11.617172,-6.336995,-1.089597
1000.761719,3.877316,-15.384932,-8.121938,-8.342587
1000.765625,-12.964414,-8.698595,-7.843224,-11.518613
1000.769531,-16.156040,-11.041209,-6.068962,-13.959894
1000.773438,-17.419430,-13.414129,-6.533919,-9.221392
1000.777344,-4.895214,-3.378530,-6.908700,-7.351941
1000.781250,-8.453106,-10.744887,-14.362979,-4.276963
1000.785156,-12.908390,-5.787580,-9.749008,-9.265835
1000.789062,-1.504095,-2.660810,2.772320,-3.152836
1000.792969,0.073701,-0.635128,-4.737435,-2.238875
1000.796875,4.861180,2.666365,-5.130840,3.063786
1000.800781,-8.065248,-1.765223,-0.995627,-2.750136
1000.804688,-0.484567,-0.407387,5.555405,2.082917
1000.808594,11.682250,4.184960,-0.617463,14.428901
1000.812500,6.042293,8.491960,8.092714,9.561397
1000.816406,4.569454,9.526395,9.433858,14.366191
1000.820312,9.873662,7.213912,6.298719,12.697981
1000.824219,11.119344,2.543971,12.932298,15.107167
1000.828125,13.943920,10.260364,12.730373,11.093460
1000.832031,4.645015,12.042544,9.195660,11.123672
1000.835938,2.737720,8.826302,8.560885,8.509889
1000.839844,7.659855,2.404493,7.042519,5.515263
1000.843750,4.792470,6.508010,6.590450,4.389446
1000.847656,8.156782,6.014648,-3.175170,-1.836206
1000.851562,1.774076,-0.098415,-4.345444,5.483645
1000.855469,-0.878086,-0.283015,-2.329434,-5.739245
1000.859375,-6.615931,1.724042,-9.026327,-11.074490
1000.863281,-10.317720,-8.782474,-11.399436,-11.192060
1000.867188,-7.593013,-5.856588,-8.145850,-8.698107
1000.871094,-12.642622,-7.951890,-11.034961,-9.493836
1000.875000,-15.486635,-13.213237,-12.891520,-8.522110
1000.878906,-7.946198,-12.867536,-7.431804,-5.239182
1000.882812,-5.824327,-11.720446,-10.163754,-13.425661
1000.886719,-6.247123,1.133698,-12.334739,-8.682121
1000.890625,-4.955763,0.937666,3.583922,-5.636653
1000.894531,-1.635590,-4.336614,-10.086020,-3.902638
1000.898438,1.048677,-1.620239,0.729712,0.370318
1000.902344,4.684875,1.235901,3.577211,2.214657
1000.906250,10.722472,3.737724,4.596044,2.314146
1000.910156,13.565727,1.656761,6.721036,6.274653
1000.914062,13.584950,6.779097,11.773831,4.969394
1000.917969,7.883286,14.613776,7.771059,11.046782
1000.921875,4.463853,17.968417,11.139840,10.671135
1000.925781,7.827144,5.947307,12.550783,9.250048
1000.929688,9.285758,2.219342,10.991868,7.784781
1000.933594,7.614157,7.028740,13.475981,13.486486
1000.937500,8.380046,10.762381,10.093110,-0.294149
1000.941406,0.683122,7.003080,12.441118,2.204450
1000.945312,-1.053203,10.296420,9.801358,8.088375
1000.949219,6.014668,2.507128,-2.904557,-1.654370
1000.953125,4.497832,-2.535206,-9.759533,-0.731691
1000.957031,-4.076126,0.933625,-12.045436,-10.331792
1000.960938,-3.663960,-3.629483,-7.793041,1.566103
1000.964844,-11.727989,-8.285473,-8.938579,0.650994
1000.968750,-11.643559,-5.996042,-14.629170,-6.517714
1000.972656,-3.442391,-3.821034,-8.640064,-7.040013
1000.976562,-5.051607,-8.054717,-8.205281,-16.638288
1000.980469,-2.238392,-16.556728,-11.553524,-5.714359
1000.984375,-14.019073,-5.298853,-18.628766,-7.843246
1000.988281,-9.448290,-15.100070,-8.713717,-9.425519
1000.992188,-6.679023,4.174823,-8.493170,-3.175617
1000.996094,-2.592777,-12.127167,-0.719722,-2.900674
1001.000000,0.523781,0.832737,-2.578081,-1.610965
1001.003906,-0.392128,2.977626,2.737375,2.507710
1001.007812,0.714876,2.114904,7.465632,5.404810
1001.011719,13.089601,8.881067,10.670233,11.908729
1001.015625,7.241838,6.627315,10.563343,7.359817
1001.019531,13.447067,10.455197,12.946370,11.674485
1001.023438,10.633908,10.798966,9.002860,15.580305
1001.027344,10.573851,10.839995,13.804083,6.820400
1001.031250,14.384050,5.370999,8.090319,14.033421
1001.035156,4.312907,8.761600,13.001246,15.580267
1001.039062,11.137533,9.416428,4.693332,5.839265
1001.042969,9.786582,-1.778454,-1.626854,8.513890
1001.046875,0.609079,2.622235,4.278660,3.436967
1001.050781,0.102820,2.701724,-2.880942,-0.732622
1001.054688,-11.336218,-8.995449,-12.598866,0.911483
1001.058594,-5.468166,-3.253022,-12.187643,-4.731894
1001.062500,-3.486630,-3.503372,-7.534640,-13.603855
1001.066406,-8.619898,-4.718100,-4.839340,-15.840553
1001.070312,-10.709622,-14.139151,-11.428152,-10.067177
1001.074219,-14.836724,-10.797971,-13.705812,-11.340712
1001.078125,-7.275668,-13.363280,-11.567637,-12.620988
1001.082031,-4.620592,-12.708474,-1.839434,-5.101428
1001.085938,-9.288868,-5.819432,-5.968431,-5.441190
1001.089844,-7.924846,-3.267288,-6.103599,-2.864073
1001.093750,-10.406338,-3.376966,-7.641929,-7.933678
1001.097656,-10.502761,2.788979,2.452999,0.772758
1001.101562,7.588170,-1.694209,2.395090,-3.959444
1001.105469,2.219565,8.909077,3.756346,1.143914
1001.109375,2.562531,9.695328,-2.002019,10.652797
1001.113281,8.855652,2.694139,1.329424,12.728161
1001.117188,10.654894,0.759124,6.295124,13.711974
1001.121094,18.102758,7.467403,16.132695,5.235074
1001.125000,5.434986,13.238201,13.389875,11.158400
1001.128906,6.298863,10.986731,16.789954,16.056507
1001.132812,8.479713,11.892613,9.900689,3.946113
1001.136719,3.242276,5.799206,2.360592,9.365716
1001.140625,11.839715,2.289855,3.123625,7.506744
1001.144531,-1.317600,6.438049,-2.979473,2.494011
1001.148438,-2.964851,-1.810506,-1.084019,-3.094982
1001.152344,-2.555210,5.181403,-3.012507,2.156608
1001.156250,-5.806164,-10.332796,0.956516,-6.463094
1001.160156,-4.017325,-3.730253,-4.748076,-3.367320
1001.164062,-6.681350,-12.828071,-8.083001,-13.054643
1001.167969,-7.275787,-7.364637,-10.380941,-7.450288
1001.171875,-8.092177,-12.487695,-17.636890,-5.134533
1001.175781,-12.187557,-13.992681,-8.744844,-17.508685
1001.179688,-16.243837,-10.342864,-9.763534,-14.255809
1001.183594,-14.325495,-7.178969,-15.481363,-17.258697
1001.187500,-6.208384,-0.636850,-8.552124,-5.770186
1001.191406,-6.777803,-6.472680,-7.922639,-2.700230
1001.195312,-3.122388,-8.781186,-12.767682,1.118244
1001.199219,3.531279,-0.556242,0.632346,-2.476611
1001.203125,0.797835,4.052317,-0.179144,3.110761
1001.207031,13.091401,-3.058489,7.300992,3.583472
1001.210938,9.508888,8.444119,6.792294,6.901454
1001.214844,6.005612,7.848666,9.647695,11.450830
1001.218750,12.780418,12.795302,13.123016,10.088724
1001.222656,9.915238,13.011398,11.495963,13.966420
1001.226562,10.717133,13.654315,6.950901,16.685440
1001.230469,9.660464,5.287030,4.845378,9.074486
1001.234375,11.647427,4.155870,7.029753,6.489432
1001.238281,14.457884,6.427154,5.936235,12.615504
1001.242188,9.925842,10.941774,1.976414,4.290872
1001.246094,4.125978,0.935673,13.815698,7.402417
1001.250000,1.773562,-3.032338,3.983963,3.009032
1001.253906,3.677366,0.513487,-3.788560,-7.245010
1001.257812,-5.357139,-4.851502,-6.686960,2.351925
1001.261719,-10.474604,-1.881377,-14.741703,-9.746393
1001.265625,-4.678374,-10.094348,-13.589654,-8.584099
1001.269531,-12.170107,-14.806205,-11.126939,-17.039604
1001.273438,-7.231033,-13.036550,-9.186973,-9.287891
1001.277344,-11.083359,-6.199165,-8.879828,-5.954980
1001.281250,-11.874160,-13.605056,-7.102719,-11.349598
1001.285156,-9.624182,-8.184909,-10.127427,-13.689209
1001.289062,-13.456196,-1.457694,-8.271934,-3.143084
1001.292969,-4.530204,0.963298,-2.075663,-6.939076
1001.296875,-6.166569,-2.032703,-1.384665,-7.971758
1001.300781,-0.252763,-7.634991,-2.413049,7.432209
1001.304688,-3.296025,3.985520,7.090481,2.107801
1001.308594,6.358435,4.559046,2.892305,3.011644
1001.312500,4.928955,2.097154,10.681466,5.274393
1001.316406,4.853068,19.847180,4.970411,18.372085
1001.320312,8.405141,9.185151,15.546235,8.674294
1001.324219,1.862262,5.457988,9.742004,2.935219
1001.328125,6.715304,14.968510,11.921266,9.787967
1001.332031,8.454100,11.778347,9.471134,10.055429
1001.335938,4.841916,9.051601,13.354303,5.881453
1001.339844,7.331885,6.479321,11.367459,12.647547
1001.343750,7.397788,-0.690557,-2.880898,6.818488
1001.347656,-3.065123,-11.556547,-5.320842,-0.196906
1001.351562,-0.096467,-3.111042,-3.427435,-3.027045
1001.355469,-4.768549,-3.438775,-9.192888,-5.459026
1001.359375,-3.440919,-6.871802,-1.474032,3.336122
1001.363281,-5.237346,-14.329843,-2.109306,-8.424370
1001.367188,-8.759004,-7.055869,-5.483643,-9.210478
1001.371094,-2.178338,-16.851160,-15.424606,-17.943046
1001.375000,-9.725262,-9.524318,-10.200604,-5.154455
1001.378906,-4.436748,-12.861338,-14.408818,-8.670422
1001.382812,-12.605929,-10.152548,-9.194122,-11.888665
1001.386719,-8.074643,-5.492081,3.618846,-2.470803
1001.390625,-3.015784,-0.059161,-4.473476,-7.484755
1001.394531,-0.215419,-5.951254,-1.322364,-7.638362
1001.398438,-2.160741,4.523446,0.905609,0.073107
1001.402344,-0.203127,3.760673,3.498157,-2.324150
1001.406250,10.132494,4.459522,4.311381,7.388496
1001.410156,0.734642,-4.995357,12.458458,3.489067
1001.414062,7.475161,10.573239,2.772210,13.628609
1001.417969,8.015601,4.194558,6.851648,7.535721
1001.421875,9.916459,4.686675,13.293527,3.218553
1001.425781,3.528198,5.401492,10.056316,5.489960
1001.429688,12.393737,11.002972,5.939584,13.649018
1001.433594,4.943132,2.717186,7.823574,8.325590
1001.437500,1.913575,11.523062,3.187049,7.770727
1001.441406,8.470710,8.886862,9.232560,4.514271
1001.445312,3.255681,6.682149,6.862344,6.897072
1001.449219,3.395547,5.021313,-2.892783,-0.129970
1001.453125,-3.172653,-6.240316,-2.329657,-3.239457
1001.457031,-7.687501,-6.041936,-3.855555,-4.157266
1001.460938,-6.424591,-4.383919,-6.950208,-4.094645
1001.464844,-5.724819,-11.093577,-8.550295,-6.258046
1001.468750,-10.233176,-15.923426,-0.369826,-7.003749
1001.472656,-8.962981,-17.985933,-11.825251,-14.487969
1001.476562,-4.772476,-16.753143,-8.512457,-12.243003
1001.480469,-10.757834,-8.969230,-7.733969,-12.490281
1001.484375,-19.007923,-6.886341,-8.168525,-6.723104
1001.488281,-5.632632,-8.773460,-5.698882,-9.033750
1001.492188,-6.677160,-6.857210,-9.823819,-7.751007
1001.496094,-1.171100,-2.912712,-3.769574,1.861253
1001.500000,-3.538872,-0.037842,0.631324,-7.062159
1001.503906,10.003251,2.415444,4.742394,0.924519
1001.507812,5.867711,3.101052,9.715520,4.513382
1001.511719,4.810489,5.231357,2.644956,1.009295
1001.515625,12.435385,0.623244,6.881956,1.739279
1001.519531,9.526017,1.475967,8.560556,8.457954
1001.523438,10.776063,10.221757,9.972375,14.126055
1001.527344,12.329367,5.997812,17.440454,4.436547
1001.531250,12.869280,5.988685,4.655384,8.927386
1001.535156,3.811183,11.584951,6.396373,5.972292
1001.539062,9.073971,8.405360,9.505011,7.320152
1001.542969,-0.482382,6.264202,1.911401,-0.407986
1001.546875,5.336823,6.251548,5.242445,-1.401450
1001.550781,1.894802,-5.054132,5.840537,1.161128
1001.554688,-3.722451,-4.234545,-0.317124,-2.130115
1001.558594,-3.704593,-1.534505,2.233653,-0.030367
1001.562500,-15.127093,-10.025701,-6.690861,-3.565181
1001.566406,-2.441049,-5.696729,-7.005116,-15.553040
1001.570312,-14.996736,-9.515340,-9.062349,-6.034456
1001.574219,-14.448534,-10.535944,-2.948677,-5.463006
1001.578125,-10.352059,-7.643385,-11.031378,-5.017845
1001.582031,-12.187897,-11.860151,-11.564851,-9.089817
1001.585938,-7.486830,-10.818606,-5.063156,-3.158361
1001.589844,-5.591835,-3.792376,-6.558272,-11.227210
1001.593750,2.258404,-0.929715,1.258161,-4.222372
1001.597656,-8.131225,-3.630639,7.259872,-3.372339
1001.601562,6.665806,5.619347,-3.541303,8.859939
1001.605469,10.297376,2.756823,3.361748,5.527622
1001.609375,1.952933,4.201127,2.558202,5.566615
1001.613281,12.104828,12.706074,1.240531,5.604858
1001.617188,10.030426,6.299595,0.865759,13.165677
1001.621094,11.125130,12.682387,2.016655,11.543405
1001.625000,9.503964,13.913956,2.716535,13.739203
1001.628906,8.302531,9.941170,14.028228,5.021741
1001.632812,5.098065,10.980489,0.996045,13.562725
1001.636719,14.207956,10.544187,7.482212,7.750359
1001.640625,6.218069,-1.313789,10.721221,6.357902
1001.644531,1.648288,1.879250,7.859021,2.207842
1001.648438,6.794322,-1.703332,1.179534,-1.547394
1001.652344,-0.170109,-0.805382,1.687009,-7.844229
1001.656250,-1.604924,2.142088,-5.375579,-4.728860
1001.660156,-1.359636,-9.373886,3.960800,-5.873451
1001.664062,-7.478478,-4.653456,-4.192736,-8.693382
1001.667969,-10.324884,-9.308728,-7.734807,-10.743848
1001.671875,-13.848318,-1.963734,-17.338497,-3.363874
1001.675781,-7.569713,-9.776338,-14.627917,-13.860634
1001.679688,-14.687469,-10.096863,-12.253629,-14.398292
1001.683594,-8.300589,-8.532126,-1.108207,-6.532543
1001.687500,-8.250675,-7.210407,-12.949809,-9.178145
1001.691406,-9.595040,-8.046737,-7.931316,4.302556
1001.695312,0.167821,0.539845,-5.225108,-2.687572
1001.699219,-7.790180,-0.260681,-4.659037,-5.197249
1001.703125,0.208370,-5.197535,-2.249208,2.943782
1001.707031,0.714889,5.097103,1.600187,-1.685238
1001.710938,7.801228,6.537724,-2.634384,1.738027
1001.714844,11.698913,4.812172,11.153374,13.780286
1001.718750,18.150428,8.120960,11.071129,9.404699
1001.722656,14.930036,8.489094,7.446840,4.172969
1001.726562,9.810136,7.431980,11.530540,11.608447
1001.730469,5.187076,11.303175,7.381524,13.959571
1001.734375,10.595889,8.022509,7.439702,3.219205
1001.738281,-1.788536,-5.242919,5.774226,14.096162
1001.742188,1.726488,-1.626160,1.020247,7.135874
1001.746094,2.103800,3.350133,2.139408,-5.419526
1001.750000,1.901577,-0.923318,0.243967,-3.552075
1001.753906,1.005278,9.386277,-3.875274,4.162573
1001.757812,-1.744357,-8.314848,-10.813721,-4.729676
1001.761719,-13.281742,-3.260652,-4.229412,-7.062705
1001.765625,-14.733845,-9.931493,-7.652864,-2.555749
1001.769531,-9.372748,-9.082232,-8.847855,-9.595994
1001.773438,-6.409159,-14.807363,-10.754142,-9.003698
1001.777344,-14.704027,-9.663275,-9.423614,-13.172657
1001.781250,-10.647185,-6.066462,-11.286851,-3.896787
1001.785156,-8.529740,-6.623050,-10.159676,-7.847494
1001.789062,-3.041392,0.758064,-7.039346,-10.792532
1001.792969,-1.702411,-3.115646,-10.529561,-9.518570
1001.796875,0.725153,2.204351,-0.732506,0.749875
1001.800781,-5.320730,4.753890,-6.008317,4.613778
1001.804688,4.307819,1.820741,-4.462685,8.577321
1001.808594,8.889844,6.862828,2.890367,5.219570
1001.812500,7.181236,13.509172,6.421399,16.074563
1001.816406,9.016861,6.815815,11.120134,6.944346
1001.820312,8.043256,4.594095,8.261380,5.303587
1001.824219,11.158834,4.754447,18.403949,7.188965
1001.828125,14.376056,6.428789,7.119119,7.127010
1001.832031,14.839649,3.120585,8.072348,7.740425
1001.835938,2.462600,10.790101,3.929195,2.940809
1001.839844,3.934324,11.113201,8.190613,2.915043
1001.843750,8.099067,10.117419,-2.536393,-1.469489
1001.847656,4.593147,2.221896,-0.746159,-3.562451
1001.851562,-0.878211,-2.249794,-4.141039,-2.220968
1001.855469,-5.629077,-7.996052,-8.355239,-3.416512
1001.859375,-5.290382,0.642172,-1.065340,-2.602695
1001.863281,-5.909832,-5.694587,-10.497429,-5.890184
1001.867188,-4.541546,-13.718834,-10.013564,-6.598541
1001.871094,-5.800756,-11.551167,-10.647232,0.274477
1001.875000,-11.826874,-8.333342,-16.647404,-8.618272
1001.878906,-16.034985,-16.864512,-17.213203,-12.018898
1001.882812,-4.872162,-13.387812,-6.615697,-4.387696
1001.886719,-4.255881,-13.725176,-14.383411,-2.482742
1001.890625,-5.598703,-6.870221,3.954686,-1.079683
1001.894531,-1.088839,-5.595025,-0.576779,-5.360986
1001.898438,-7.614487,4.495091,-0.400729,-6.044395
1001.902344,3.380336,3.119655,5.065116,-1.065496
1001.906250,2.415238,1.986995,4.414084,5.269462
1001.910156,7.905994,7.890071,1.607480,4.791592
1001.914062,13.230517,9.825250,10.400945,8.149176
1001.917969,12.091997,7.626970,8.894587,8.489081
1001.921875,8.790619,10.162214,13.914261,6.940436
1001.925781,4.085147,11.406318,17.200194,3.535219
1001.929688,16.850119,11.589991,6.875858,18.139794
1001.933594,6.852206,5.931307,9.020337,13.209184
1001.937500,7.677569,8.495641,9.387856,14.978443
1001.941406,11.319708,4.120405,6.509787,8.431234
1001.945312,2.670884,5.219976,-1.606718,10.316522
1001.949219,-6.159146,-3.283165,1.548152,4.999319
1001.953125,-0.835789,1.699694,1.489043,-9.612606
1001.957031,-2.629641,-8.267359,-6.357498,-6.699948
1001.960938,-10.779031,-4.516876,-2.285322,-2.636866
1001.964844,-2.916801,-5.665025,-5.236967,-11.418268
1001.968750,-11.744634,-10.664550,-5.032799,-6.802140
1001.972656,-7.321364,-7.529464,-11.534054,-14.966008
1001.976562,-15.190712,-10.671362,-13.443077,-16.800702
1001.980469,-8.536206,-11.879349,-8.412467,-10.981931
1001.984375,-13.803369,-9.616297,-15.536177,-2.630350
1001.988281,-1.538426,-5.863630,-4.960235,-9.804857
1001.992188,-1.293933,-5.336983,-7.200803,2.140062
1001.996094,-2.501504,-9.829829,-8.221998,-1.817489
1002.000000,1.313891,1.838403,3.035297,2.186152
1002.003906,6.746847,1.971920,-2.121873,5.988554
1002.007812,5.684483,9.203741,7.543952,-1.223910
1002.011719,9.588504,6.292524,3.565437,5.992745
1002.015625,12.812294,3.434335,6.760760,8.092941
1002.019531,8.646614,13.314409,13.963194,7.928131
1002.023438,12.739477,11.251430,7.481279,6.322912
1002.027344,4.473462,16.159525,9.702959,3.709364
1002.031250,5.744830,12.225211,7.659137,14.628652
1002.035156,5.793074,8.625555,6.803771,7.579250
1002.039062,8.873759,7.188387,2.966036,6.240593
1002.042969,12.018349,11.158064,5.271350,3.372279
1002.046875,5.951172,6.157750,5.505303,3.335761
1002.050781,0.348323,-0.197198,4.253692,-0.289212
1002.054688,-3.461087,-3.918395,-0.003117,-0.502936
1002.058594,-1.495471,-2.828970,-5.959621,-10.093284
1002.062500,-8.925693,-5.420807,-5.932848,-2.787366
1002.066406,-2.140146,-15.810966,-13.398044,-7.804209
1002.070312,-0.268677,-2.296370,-17.898182,-3.763733
1002.074219,-5.030147,-12.848330,-11.297479,-9.886697
1002.078125,-10.178730,-7.337350,-9.256749,-8.490094
1002.082031,-12.509460,-9.134303,-8.625591,-3.724090
1002.085938,-4.453405,-4.779806,-14.661301,-10.974226
1002.089844,-4.178886,-6.897711,-6.153169,-9.733661
1002.093750,-3.498154,-3.180177,-4.988705,-2.239595
1002.097656,2.239695,7.162091,-1.385936,0.443780
1002.101562,-0.436191,0.748643,1.097523,-8.209339
1002.105469,5.484114,1.829086,7.002991,0.916245
1002.109375,4.765314,2.862554,5.493410,6.144625
1002.113281,11.724471,6.672415,8.586337,8.055463
1002.117188,6.565176,10.113344,6.622246,8.121885
1002.121094,18.148041,11.495476,11.870019,7.809145
1002.125000,3.115521,6.348035,11.450109,21.788905
1002.128906,2.367295,2.332189,7.922174,12.386951
1002.132812,14.467995,8.179124,9.823320,8.154999
1002.136719,5.131431,12.850220,6.153500,9.925340
1002.140625,2.095954,2.448120,5.856268,3.969900
1002.144531,-2.896498,3.858375,-0.004556,2.121007
1002.148438,1.184969,-1.485945,2.548760,-0.501730
1002.152344,-1.846228,-6.784335,4.204860,-3.510626
1002.156250,-5.575682,-11.916511,-11.262775,-10.086881
1002.160156,-4.735461,-2.732714,-3.180728,-5.040751
1002.164062,-3.737892,-16.770544,-9.327975,-9.528824
1002.167969,-9.857934,-14.053050,-8.475981,-12.125647
1002.171875,-7.084896,-7.553726,-14.160430,-1.197478
1002.175781,-10.360519,-15.340218,-8.219306,-6.369963
1002.179688,-14.582577,-8.285619,-10.826795,-12.854679
1002.183594,0.196329,-13.323461,-8.962272,-11.149904
1002.187500,0.935919,-5.935294,2.442256,-1.489195
1002.191406,-3.679110,1.574993,-15.221195,-4.873683
1002.195312,-3.368812,-1.185916,-4.990297,2.322915
1002.199219,-1.409380,1.840403,-3.139201,3.237053
1002.203125,-1.690941,-2.689286,-2.908935,-3.547715
1002.207031,4.437185,6.019870,11.615541,3.484675
1002.210938,3.796761,8.902509,7.625944,7.292076
1002.214844,6.060064,13.784901,9.064697,7.543441
1002.218750,18.035762,13.912878,15.406197,10.936713
1002.222656,11.225184,16.908208,7.652633,11.022593
1002.226562,11.926716,11.887566,14.235199,14.702493
1002.230469,6.173238,4.154868,10.170237,6.403195
1002.234375,-4.790222,8.357265,11.976361,12.201481
1002.238281,8.083447,6.954679,8.540596,13.741072
1002.242188,5.696606,0.267289,4.279752,4.491767
1002.246094,3.446362,9.538061,1.907672,-2.448353
1002.250000,-1.221478,4.720805,0.993211,-1.264862
1002.253906,3.775270,-2.786109,-5.542170,-1.340663
1002.257812,-4.800328,4.670307,-7.672977,1.267792
1002.261719,-2.720668,-7.749815,-5.864538,-6.086216
1002.265625,-9.951628,-16.567269,-6.230567,-3.204487
1002.269531,-4.194015,-10.615741,-4.838239,-0.626032
1002.273438,-10.851368,-8.959758,-12.605490,-5.890268
1002.277344,-7.234163,-12.858655,-10.206868,-14.027543
1002.281250,-9.384581,-5.777082,0.252466,-9.882526
1002.285156,-6.735911,-5.390169,-3.860570,-4.924381
1002.289062,-4.619567,-8.387498,-5.878576,-4.850545
1002.292969,-1.295194,5.938426,-7.892707,-1.065833
1002.296875,-2.716442,-9.712178,0.943411,0.884567
1002.300781,-4.426094,0.096678,0.574221,2.386459
1002.304688,5.983398,2.974221,9.215926,-8.315981
1002.308594,12.120042,3.767225,8.614743,7.330243
1002.312500,6.713817,11.600408,6.689072,8.964957
1002.316406,11.415832,5.380475,13.261837,5.503488
1002.320312,5.820239,14.835054,16.172660,16.114133
1002.324219,12.601782,11.555340,5.266180,8.663583
1002.328125,0.641999,11.837585,6.019759,14.905879
1002.332031,12.421362,10.792041,8.959935,9.101699
1002.335938,6.180997,11.724043,12.239797,11.445111
1002.339844,8.861159,6.846557,6.026993,-0.856530
1002.343750,4.263614,6.201267,1.045611,-0.600127
1002.347656,2.706994,-7.005223,0.247105,-4.816328
1002.351562,-0.648677,-9.957817,-0.002508,6.806675
1002.355469,-1.471882,-5.672051,-4.411280,-0.938849
1002.359375,-5.421942,-1.421451,-6.523170,-3.316999
1002.363281,-2.144050,-12.449228,-8.341114,-6.307336
1002.367188,-10.454744,-6.897979,-8.149633,-9.224828
1002.371094,-8.358953,-6.799577,-11.116783,-14.353688
1002.375000,-13.792450,-15.713802,-6.555691,-11.252365
1002.378906,-12.985606,-10.717633,-12.889429,-10.066958
1002.382812,-9.122688,-7.900793,-3.819778,-6.289722
1002.386719,-8.556520,-14.915230,-10.442550,-6.741670
1002.390625,-9.704759,1.349482,-9.250061,-8.809665
1002.394531,1.608734,-3.529065,-4.126262,2.786765
1002.398438,-5.039675,-4.600180,1.948415,3.146293
1002.402344,2.330299,-1.108472,9.265534,0.904842
1002.406250,7.219991,0.593181,2.993864,-4.700603
1002.410156,5.521348,5.923330,3.160966,8.867464
1002.414062,8.839172,7.530004,5.955424,5.306275
1002.417969,6.933630,10.140740,14.463116,11.591745
1002.421875,9.727191,7.754352,7.313297,9.222642
1002.425781,9.405831,4.780939,6.822636,12.606658
1002.429688,13.390319,8.255752,8.003677,9.236315
1002.433594,2.558607,4.429797,0.437562,7.558176
1002.437500,8.543913,1.535642,4.259535,13.842845
1002.441406,9.828426,9.180051,12.643847,9.705557
1002.445312,2.761611,3.468479,3.770294,5.422056
1002.449219,1.831449,2.178973,-5.932926,-1.762560
1002.453125,3.524402,-1.238383,-3.219875,-8.967588
1002.457031,-1.238641,1.997961,-0.722345,-6.509433
1002.460938,-15.693916,-2.476977,-1.345398,-6.556380
1002.464844,-16.330761,-12.671156,-11.146822,-6.446974
1002.468750,-13.685668,-11.446514,-1.813050,-13.593774
1002.472656,-9.280769,-14.833698,-14.543449,-17.756750
1002.476562,-15.641992,-6.193870,-16.272978,-15.522141
1002.480469,-8.254778,-8.848490,-13.680538,-14.751980
1002.484375,-9.240505,-8.962414,-11.849121,-14.141972
1002.488281,-6.540089,-13.782941,-2.008298,-1.955696
1002.492188,-3.157047,-2.238609,-7.292291,-1.179551
1002.496094,-6.365814,-3.904638,-5.665106,-8.350792
1002.500000,-5.562633,-5.832407,-2.286250,1.156555
1002.503906,-4.719603,2.906418,4.035556,-5.673733
1002.507812,7.213539,3.458173,0.583917,0.749120
1002.511719,6.368958,7.952899,6.773620,8.392904
1002.515625,4.488029,3.703348,14.959430,11.572866
1002.519531,11.094498,8.533746,8.701121,14.012598
1002.523438,9.888857,9.244175,9.070941,16.753565
1002.527344,11.870137,9.485552,8.729877,9.998769
1002.531250,14.197695,17.452813,9.808076,3.868074
1002.535156,12.220672,9.960142,10.170146,5.924156
1002.539062,6.430544,5.393624,0.139286,8.530185
1002.542969,-0.980425,5.430054,0.433965,0.784445
1002.546875,6.178819,5.578569,2.394947,0.685778
1002.550781,-4.668301,1.155502,-2.266214,-0.501782
1002.554688,0.069108,-2.515739,-7.146005,-3.090734
1002.558594,-1.249486,-3.673950,-4.069584,-10.711761
1002.562500,-11.093561,-10.739781,-6.635789,-5.542274
1002.566406,-9.996152,-9.837509,-10.232542,-9.344612
1002.570312,-16.663822,-13.304256,-0.159470,-16.093392
1002.574219,-12.929364,-6.956025,-12.723545,-6.997751
1002.578125,-13.826893,-15.672078,0.176381,-8.804609
1002.582031,-15.480982,-12.449962,-14.077398,-10.271875
1002.585938,-7.655815,-18.415250,-8.299226,-8.081536
1002.589844,-14.300737,-10.103670,-3.183405,-9.622397
1002.593750,-8.759893,-7.111897,3.089510,-12.181234
1002.597656,1.811342,-4.712245,-3.743196,-1.720095
1002.601562,-0.436215,-8.173327,-0.385395,-0.401176
1002.605469,4.696151,8.917317,1.411005,2.759352
1002.609375,3.629921,2.318189,6.283275,7.705741
1002.613281,9.046953,9.690280,10.956547,9.208833
1002.617188,7.501790,5.733527,8.213008,7.143138
1002.621094,15.844750,16.207202,11.981526,7.130186
1002.625000,8.619221,8.749336,11.720767,10.922751
1002.628906,11.718227,10.257573,13.447839,11.074014
1002.632812,7.322023,4.672967,9.081932,8.076522
1002.636719,6.083103,-0.438752,6.344390,6.925466
1002.640625,8.511635,2.980608,11.465648,12.442544
1002.644531,11.296306,-3.053045,5.468013,3.694170
1002.648438,4.581393,0.081974,7.980708,0.535191
1002.652344,-3.023165,-1.436005,5.039304,2.127160
1002.656250,-3.602152,-4.320799,-7.312760,-3.096853
1002.660156,-2.488338,-6.677368,-6.914556,-3.684889
1002.664062,-6.633251,-8.570819,-10.056646,-0.231839
1002.667969,-5.573474,-10.857500,-7.007025,-6.794746
1002.671875,-3.798619,-11.522710,-7.153019,-8.407626
1002.675781,-15.141378,-13.710376,-14.055257,-12.182504
1002.679688,-11.977881,-6.529793,-7.308069,0.461549
1002.683594,-12.193021,-5.359531,-7.157501,-2.080125
1002.687500,-6.767668,-2.762727,-11.465411,-1.823856
1002.691406,-3.986660,-1.618426,-3.510015,1.789836
1002.695312,-0.399680,-3.593113,-7.209318,0.199636
1002.699219,-3.976389,1.571648,-4.400677,-2.552317
1002.703125,13.710010,-1.861119,4.045168,3.924890
1002.707031,0.145912,2.917928,7.751925,8.789844
1002.710938,1.932160,-2.488273,5.315808,6.543544
1002.714844,4.654788,11.188011,6.782447,6.088138
1002.718750,2.300426,11.993081,9.522369,15.009031
1002.722656,9.300979,1.548532,12.316456,11.745617
1002.726562,12.149502,10.143556,8.634090,6.794459
1002.730469,19.473643,12.822165,6.106034,3.593437
1002.734375,11.797929,14.927413,2.789819,8.558998
1002.738281,7.016275,18.848781,8.342155,5.906437
1002.742188,6.340175,7.997273,8.973615,-0.715182
1002.746094,1.333860,5.958827,2.780563,1.522152
1002.750000,5.965675,-4.924735,2.119034,4.797346
1002.753906,-6.166169,-2.674188,1.708703,1.070762
1002.757812,-4.569733,-7.046840,-6.705374,-10.326165
1002.761719,-9.539455,-6.909514,-8.043753,-9.605754
1002.765625,-8.788008,-14.174228,-8.300576,-3.847234
1002.769531,-11.648961,-8.760732,-9.123001,-13.760421
1002.773438,-5.661171,-8.715706,-3.710072,-14.427697
1002.777344,-4.560487,-6.659172,-5.808509,-10.899838
1002.781250,-9.553261,-3.125924,-17.025536,-7.566712
1002.785156,-4.776773,-7.164700,-6.803901,-3.598022
1002.789062,-0.745969,-5.734363,-4.413288,-14.538425
1002.792969,-1.696063,1.835321,-3.722215,-6.115228
1002.796875,-6.042477,-2.147898,-5.126977,-6.569136
1002.800781,2.331133,3.490193,1.479848,3.692721
1002.804688,9.433277,1.314840,2.371533,5.448555
1002.808594,-2.280386,-1.614705,-0.406373,4.497809
1002.812500,9.877288,12.853511,8.416517,4.089505
1002.816406,3.417228,8.221596,8.645114,2.684508
1002.820312,8.758302,6.271766,12.984695,15.204624
1002.824219,7.742787,6.074677,-0.401531,7.231808
1002.828125,3.688329,10.270616,16.267203,12.850717
1002.832031,3.240022,7.132606,11.641968,9.800183
1002.835938,7.786024,14.226762,6.132158,9.048273
1002.839844,6.185384,8.340956,11.420147,9.062161
1002.843750,11.557273,0.130290,2.553291,0.345776
1002.847656,3.120601,-0.283109,3.266918,7.944805
1002.851562,-0.190535,-0.742587,1.175535,-4.001689
1002.855469,3.910241,-6.395106,-0.762666,-4.449867
1002.859375,0.654541,-7.177800,-7.857691,-3.313187
1002.863281,-6.106488,-7.598382,-13.291761,-8.027910
1002.867188,-9.393234,-3.693341,-9.581029,-11.835534
1002.871094,-12.204863,-7.528836,-5.784627,-9.995125
1002.875000,-16.312730,-8.554667,-14.921115,-12.090215
1002.878906,-7.194839,-10.007183,-6.803948,-1.123322
1002.882812,-12.208221,-12.205006,-7.738337,-12.450303
1002.886719,-13.319676,-8.226520,-2.028505,-1.865639
1002.890625,-8.691966,0.524660,-13.236027,-15.607116
1002.894531,-4.366804,2.697537,-4.309140,-9.667281
1002.898438,-3.238676,-4.985519,-0.268400,1.461995
1002.902344,0.916481,-6.093780,0.323471,3.639538
1002.906250,-1.551736,2.643551,0.616068,5.070482
1002.910156,1.064901,11.024903,1.709315,-1.808900
1002.914062,11.328841,7.640685,5.819044,5.189495
1002.917969,8.696078,6.129438,11.547642,11.664492
1002.921875,5.499067,0.391838,9.412487,6.134534
1002.925781,10.560628,12.101817,12.242570,6.720759
1002.929688,11.798128,10.731034,8.225948,11.297626
1002.933594,12.997033,6.304628,0.088734,9.828031
1002.937500,8.564561,10.624508,3.649595,11.320606
1002.941406,3.529076,7.811310,-0.637496,1.833591
1002.945312,4.977147,6.259991,6.719112,5.907436
1002.949219,-0.343393,-3.606517,-3.852139,0.429331
1002.953125,0.695168,-0.817038,0.999044,-0.385999
1002.957031,-6.766856,-3.734757,-7.790215,-6.597587
1002.960938,-11.122545,-4.423284,-13.203244,-9.008251
1002.964844,-10.256362,-10.800798,-2.966145,-0.154344
1002.968750,-17.995263,-5.902811,-13.325723,-10.782158
1002.972656,-8.550331,-10.838871,-5.391356,-6.374824
1002.976562,-13.023722,-18.368601,-16.332410,-12.212810
1002.980469,-5.796400,-7.857391,-11.903060,-14.124227
1002.984375,-14.725281,-5.537902,-10.061327,-7.366636
1002.988281,-5.693927,0.853085,-3.208873,-0.178219
1002.992188,-2.262304,-6.641511,-5.967531,-6.262368
1002.996094,-7.979157,0.963181,1.240990,-1.889155
1003.000000,-4.704419,1.111985,-0.404495,1.972029
1003.003906,2.688470,11.246160,2.700209,-3.147048
1003.007812,2.166186,5.875263,4.060126,6.633037
1003.011719,7.209441,2.181265,6.540486,10.484705
1003.015625,1.683849,17.799408,10.323071,8.438357
1003.019531,5.846886,5.918802,6.773825,2.212453
1003.023438,3.873870,2.543089,13.044331,8.577696
1003.027344,3.710982,8.606080,14.143353,12.986670
1003.031250,12.169715,3.640515,16.779914,6.875846
1003.035156,4.568019,7.678591,18.147821,14.189589
1003.039062,15.017766,7.465165,12.718290,0.833417
1003.042969,7.906946,0.778721,0.257980,4.716252
1003.046875,-2.715190,7.061011,3.567585,-4.514174
1003.050781,-3.375908,-5.570588,0.737634,-5.585870
1003.054688,0.717509,3.293710,-2.448860,-2.482556
1003.058594,-2.434827,-4.855651,-5.824293,-7.092560
1003.062500,-16.290351,-6.375628,-9.072899,-7.809425
1003.066406,-10.623508,-5.252275,-7.760014,-10.424698
1003.070312,-8.934949,-8.057257,-4.399221,-7.448743
1003.074219,-9.732552,-7.860388,-7.976205,-10.442271
1003.078125,-9.514999,-12.275405,-7.703798,-21.826651
1003.082031,-7.676161,-7.458540,-12.917964,-14.455100
1003.085938,-13.835238,-10.170396,-14.093664,-12.460864
1003.089844,-5.742699,-8.943696,2.164750,-10.588361
1003.093750,-4.150068,-2.200332,-5.211346,-2.960569
1003.097656,-5.107392,-5.106806,6.786120,-1.073326
1003.101562,5.244630,-1.556938,3.444250,-4.505673
1003.105469,5.319966,0.806278,5.003566,4.918776
1003.109375,8.914766,5.620476,5.182330,2.071553
1003.113281,12.049462,12.817219,9.804453,8.400504
1003.117188,12.198739,14.793327,15.887826,7.420389
1003.121094,11.197459,12.587774,-0.162464,12.032599
1003.125000,9.973548,15.307657,11.084488,7.747362
1003.128906,6.783554,13.365269,19.920117,5.579700
1003.132812,3.899744,6.784110,2.894921,7.174258
1003.136719,11.891402,10.075198,9.998989,8.355293
1003.140625,7.026412,5.646537,11.784772,11.482944
1003.144531,1.757903,5.897830,5.796420,7.308330
1003.148438,1.651433,3.698234,4.863389,-4.349538
1003.152344,6.009518,0.665983,2.501093,7.204738
1003.156250,-0.925898,-6.623507,-6.796647,2.040928
1003.160156,-7.555305,-6.108189,-5.321460,-8.220412
1003.164062,-10.560601,-9.695507,-13.201985,-9.747037
1003.167969,-7.886317,-7.028922,-13.645954,-22.410009
1003.171875,-17.032353,-5.308983,-5.955115,-10.416703
1003.175781,-11.164384,-14.174312,-9.611366,-13.684461
1003.179688,-9.321939,-15.981551,-8.269157,-11.714340
1003.183594,-5.820116,-6.970121,-4.799988,-9.247577
1003.187500,-11.825971,-2.135580,-5.172825,-5.828462
1003.191406,-7.426322,-7.994290,-8.772828,-3.148245
1003.195312,-1.774131,4.984077,-0.870186,3.603590
1003.199219,2.161679,-2.517122,-5.067992,1.595442
1003.203125,1.269909,-2.408616,12.612078,9.785272
1003.207031,-2.143406,-4.747155,7.538727,-0.532602
1003.210938,8.902468,5.926628,8.586273,8.101708
1003.214844,4.879861,4.899965,3.643443,12.232140
1003.218750,5.069526,21.672341,8.559822,11.160934
1003.222656,9.713573,6.252985,14.310773,7.358434
1003.226562,4.320170,13.013113,13.993698,13.122629
1003.230469,14.498474,8.587793,8.998799,7.750699
1003.234375,10.503258,5.468244,10.340463,3.771746
1003.238281,11.066363,9.583891,10.132436,1.468364
1003.242188,2.492670,-0.288505,13.775785,-0.057102
1003.246094,2.157383,-1.500865,1.329178,-3.739640
1003.250000,-9.445660,-0.118403,1.097064,-10.980616
1003.253906,4.607469,0.573292,-2.919826,-10.352182
1003.257812,-1.075511,2.420495,-4.993603,-7.005449
1003.261719,-7.222812,0.288312,-9.790305,-7.869115
1003.265625,-8.810176,-10.396616,-10.501604,-1.772148
1003.269531,-6.193525,-5.923698,-4.310577,-14.959702
1003.273438,-7.634873,-6.838041,-12.145569,-15.228957
1003.277344,-13.758849,-9.458349,-8.856783,-15.054281
1003.281250,-6.419682,-8.831823,-13.732034,-18.130359
1003.285156,-10.096087,-7.821114,-16.031911,-4.475474
1003.289062,-4.017787,-3.262085,-5.060697,0.184200
1003.292969,-1.906845,0.758250,-4.076500,-7.066268
1003.296875,-3.011525,-1.448157,-5.907095,-4.038918
1003.300781,5.971276,-9.349543,-5.191980,-4.934791
1003.304688,0.141334,2.517683,12.613280,6.171935
1003.308594,3.952050,1.002401,12.722855,1.478812
1003.312500,2.113167,8.896144,9.874685,7.354647
1003.316406,19.706183,3.627320,6.611743,11.876050
1003.320312,4.381012,11.463876,2.183355,10.923986
1003.324219,12.294063,4.746343,1.221768,11.029937
1003.328125,1.574020,13.861759,13.065238,11.585309
1003.332031,8.954394,10.960246,5.245193,16.775491
1003.335938,4.362312,-6.378480,8.193905,3.646225
1003.339844,10.795695,9.283483,4.154396,9.536148
1003.343750,2.037483,2.369676,4.263726,5.337561
1003.347656,2.821191,-6.870885,-0.431410,-2.963881
1003.351562,2.841182,-2.723492,5.172704,6.446663
1003.355469,-1.781856,-8.787729,-9.040333,-6.577700
1003.359375,-4.561128,-3.599058,-2.938404,-10.961749
1003.363281,-7.518385,-3.634407,-7.233802,-6.269750
1003.367188,-10.781074,-5.840791,-2.151169,-6.865565
1003.371094,-12.637950,-8.182939,-10.451541,-5.976361
1003.375000,-11.312325,-8.990433,-7.069924,-11.356752
1003.378906,-13.480016,-5.086524,-6.289936,-19.494521
1003.382812,-15.837088,-8.413979,-8.709046,-9.452293
1003.386719,-8.105730,-7.735556,-1.367426,-8.926513
1003.390625,-1.396040,1.183710,-3.260515,-6.986633
1003.394531,-0.976381,-1.893365,0.798692,-8.095521
1003.398438,4.785928,-1.877737,-6.647131,-10.774082
1003.402344,4.145022,-0.751648,-3.108156,1.025408
1003.406250,6.901255,-0.778583,3.295687,-3.934817
1003.410156,4.791399,5.499362,3.890624,4.175612
1003.414062,8.024478,6.395409,5.288968,12.531516
1003.417969,7.820566,8.583043,14.818078,11.298128
1003.421875,6.043339,1.998603,9.962089,12.621958
1003.425781,9.736342,15.348412,1.302545,10.311264
1003.429688,9.804470,12.252787,5.622601,3.111641
1003.433594,9.846794,3.669613,6.497387,13.314833
1003.437500,6.205627,11.219301,3.308953,13.163605
1003.441406,-1.643785,5.106972,6.814567,1.901583
1003.445312,5.513552,-2.382727,7.440728,-1.746059
1003.449219,-1.999861,0.526485,-1.218130,6.821139
1003.453125,-2.036291,-1.060989,-2.961397,2.573682
1003.457031,-7.735862,0.467573,-7.186310,-5.721139
1003.460938,-0.414154,-5.219884,-6.400716,-9.074533
1003.464844,-6.488245,-6.073761,-1.107147,-0.478386
1003.468750,-4.540282,-11.476788,-6.457348,-5.319719
1003.472656,-7.543300,-2.216414,-15.273315,-6.725006
1003.476562,-1.707980,-6.175566,-15.064155,-10.248307
1003.480469,-5.112266,-9.221770,-2.538058,-7.211137
1003.484375,-4.876561,-13.180187,-5.672679,-10.427580
1003.488281,-4.760681,-10.468230,-6.614837,-5.482204
1003.492188,-5.618960,-5.791612,-8.720184,-6.947561
1003.496094,-5.686880,-0.737737,-10.254057,6.344319
1003.500000,0.433102,-0.562569,2.124624,3.037740
1003.503906,6.864994,6.192522,-6.200220,-0.472707
1003.507812,11.946362,-7.170947,4.957776,2.334820
1003.511719,2.603789,12.722061,13.462474,10.039663
1003.515625,8.876164,5.127277,3.404609,1.980184
1003.519531,8.831988,7.241886,10.064789,6.964248
1003.523438,14.533253,11.072462,11.613456,7.055773
1003.527344,2.698328,5.116941,13.894442,7.877648
1003.531250,12.500442,6.375115,5.033368,7.521026
1003.535156,10.325643,8.368409,3.017912,7.094323
1003.539062,8.194519,5.354594,5.791444,14.074235
1003.542969,2.614495,2.408340,7.016607,-0.301475
1003.546875,-0.929374,0.551071,0.296969,2.446033
1003.550781,1.084914,0.542188,3.715864,-3.624857
1003.554688,-4.932629,-1.152393,3.181215,-10.931653
1003.558594,-3.222112,-3.238906,-3.332691,-3.870277
1003.562500,-2.838582,-5.460964,-5.228273,-6.630373
1003.566406,-11.599308,-8.850641,-9.056325,-4.102827
1003.570312,-10.937939,-12.719158,-9.486969,-6.907735
1003.574219,-17.400791,-13.987595,-5.193789,-12.095177
1003.578125,-7.632709,-13.045001,-9.633392,-5.411282
1003.582031,-11.622889,-8.328410,-12.025284,-15.267760
1003.585938,-9.871227,-5.537452,-3.894877,-12.573251
1003.589844,-1.296567,-13.400283,-3.487683,-6.010968
1003.593750,-5.252697,-3.582441,-2.906867,-5.718617
1003.597656,2.115171,-8.730881,0.739329,-11.350052
1003.601562,3.581437,1.806137,3.393895,-1.971136
1003.605469,0.997348,6.078356,4.154491,12.798877
1003.609375,7.127371,3.742271,12.323557,8.881899
1003.613281,4.113498,3.617404,4.871494,8.198830
1003.617188,7.916723,10.502547,13.388410,5.577170
1003.621094,10.508551,8.611508,-0.609649,7.629428
1003.625000,6.521508,7.186304,10.255133,3.168489
1003.628906,13.657801,5.119877,18.742903,14.734978
1003.632812,4.639119,15.806667,7.771226,8.441507
1003.636719,6.795533,5.740877,14.931944,3.726366
1003.640625,-0.286217,8.362254,1.461945,4.016775
1003.644531,1.227195,11.245592,7.856836,4.361680
1003.648438,2.508363,3.861653,-6.086003,-3.381060
1003.652344,-10.453723,-8.284612,-0.605739,-3.495621
1003.656250,0.497365,-1.982092,-2.446720,-3.501978
1003.660156,-4.051795,-8.767897,-0.309666,-3.634742
1003.664062,-11.609959,-5.197934,-2.018099,-5.366779
1003.667969,-7.837583,-3.632611,-12.461679,-11.875171
1003.671875,-7.125946,-7.619368,-9.401203,-4.228701
1003.675781,-16.092987,-11.654832,-11.954973,-8.575737
1003.679688,-15.859981,-11.708824,-12.570938,-9.816794
1003.683594,-9.046415,-9.737885,-5.497246,-10.706395
1003.687500,-11.457895,-4.830207,-6.707730,-11.836955
1003.691406,-3.551433,3.125131,-8.157018,1.789103
1003.695312,-3.702067,-2.593204,-4.473471,-0.710047
1003.699219,1.455243,-1.441878,-1.009812,0.781434
1003.703125,3.265881,-1.223279,0.906980,1.529828
1003.707031,7.805634,2.258216,2.724608,7.207460
1003.710938,2.025268,7.137624,4.070645,5.938197
1003.714844,7.494914,10.757703,10.511105,15.454675
1003.718750,8.793900,5.533451,4.420108,7.134413
1003.722656,5.041333,14.251363,15.257615,9.279159
1003.726562,13.804027,10.312389,11.756822,10.809411
1003.730469,5.733314,13.367046,8.634077,4.309400
1003.734375,4.990469,3.034108,6.843029,11.505750
1003.738281,9.647061,10.114509,10.883103,5.375826
1003.742188,7.717072,5.637702,-0.081779,3.509498
1003.746094,7.829797,6.510198,10.071417,-1.992959
1003.750000,-1.602498,1.755633,-1.020157,-1.330067
1003.753906,-0.668436,-5.158618,2.723525,5.529816
1003.757812,-9.187760,-5.294866,-1.981061,-6.057456
1003.761719,-6.046746,-7.179399,-6.617887,-6.263768
1003.765625,-9.223968,-11.100441,-12.001367,-12.991935
1003.769531,-10.381506,-2.892152,-13.541045,-9.394775
1003.773438,-15.582100,-5.084451,-15.533003,-13.653976
1003.777344,-9.544675,-15.448558,-9.834695,-11.994872
1003.781250,-9.298277,-10.827978,-9.434359,-14.986038
1003.785156,-9.678525,-1.561405,-7.547307,-5.454782
1003.789062,-10.267601,-11.201890,-10.181889,-7.154915
1003.792969,-5.448184,0.329475,2.205819,-7.271717
1003.796875,-5.471487,-1.155753,-4.921607,-1.673529
1003.800781,14.418583,2.419691,1.668416,-0.433439
1003.804688,8.153111,3.046459,2.365576,5.327337
1003.808594,3.582684,3.268436,6.744587,0.445530
1003.812500,8.140718,4.236635,5.903208,9.854555
1003.816406,11.890199,7.245560,8.018437,0.741378
1003.820312,12.249373,7.009146,3.337312,6.445255
1003.824219,10.288275,9.694734,13.604490,4.232681
1003.828125,1.354607,2.807090,9.218226,15.772055
1003.832031,4.627817,5.294190,12.090753,5.676952
1003.835938,2.163676,10.362866,11.132827,5.457691
1003.839844,2.167790,1.667925,2.010880,11.354842
1003.843750,5.441336,0.689257,5.647811,4.222726
1003.847656,3.389765,5.987552,9.615791,0.929159
1003.851562,2.172255,-6.149318,-3.147672,0.477625
1003.855469,-4.812528,-3.859626,-4.720681,-4.925525
1003.859375,-10.791926,-8.713511,-7.477910,-7.277939
1003.863281,-9.946650,-6.022574,-0.582827,-1.961837
1003.867188,-7.765528,-10.474506,-5.123184,-5.728030
1003.871094,-9.875543,-7.555087,-13.644099,-7.121676
1003.875000,-8.747598,-1.887830,-5.926543,-0.672698
1003.878906,-9.910646,-0.590781,-11.577561,-11.108515
1003.882812,-9.760757,-0.039994,-4.136616,-4.920527
1003.886719,-8.647149,-16.343045,-14.260433,-9.890238
1003.890625,-8.222832,-5.378502,-6.639388,-2.285328
1003.894531,-2.351637,-7.125503,-9.782802,-0.409478
1003.898438,1.586054,8.938574,-4.319157,2.718433
1003.902344,0.459053,0.465837,10.082944,2.109041
1003.906250,2.828537,7.028954,6.790196,-0.139703
1003.910156,1.225435,4.408782,5.391119,7.989607
1003.914062,10.680401,2.278841,11.863525,7.289060
1003.917969,8.748014,9.300335,10.865218,16.318353
1003.921875,15.927922,11.766790,11.276613,2.090371
1003.925781,15.292539,14.888040,14.669565,8.413580
1003.929688,10.122717,5.868060,8.804355,3.071251
1003.933594,13.814404,5.256135,4.476843,4.433674
1003.937500,12.414068,5.943715,5.562579,4.656638
1003.941406,6.458051,3.782643,3.034578,2.124456
1003.945312,-0.068337,14.917182,5.076157,8.268110
1003.949219,-4.613482,9.065319,3.246415,4.780150
1003.953125,-2.449830,-0.723011,0.050938,-5.329980
1003.957031,-7.111996,-2.494129,-7.565702,2.081720
1003.960938,-10.794557,-3.731284,1.276582,-5.798082
1003.964844,-14.350287,-2.717972,-0.544015,-12.126262
1003.968750,-12.629051,-10.450938,-9.162833,-7.148347
1003.972656,-3.269586,-12.311390,-9.964619,-17.570972
1003.976562,-15.870124,-15.345883,-11.371750,-17.140502
1003.980469,-14.821147,-11.174436,-16.012826,-4.040383
1003.984375,-11.049392,-6.396037,-2.333767,-6.167420
1003.988281,-7.997159,2.848821,-7.106232,-5.163820
1003.992188,-13.846935,-4.171181,-2.775004,-0.124354
1003.996094,0.434420,-9.040757,-4.539670,0.258436
1004.000000,6.596419,4.664334,0.485280,-5.807351
1004.003906,-2.870010,-3.845021,4.651943,3.633568
1004.007812,1.848351,4.042285,10.602094,-0.100510
1004.011719,7.245459,11.261849,4.773502,6.128773
1004.015625,3.085966,8.551827,8.740495,4.050913
1004.019531,-0.689886,10.179644,0.878136,20.361407
1004.023438,7.307365,3.951298,12.579685,18.804015
1004.027344,8.349132,3.695811,16.528483,6.602964
1004.031250,11.900025,8.340497,15.327633,0.177972
1004.035156,9.519031,4.095584,7.082283,3.903806
1004.039062,6.581339,7.839574,8.144694,11.166765
1004.042969,8.769506,6.476609,13.941793,-0.852891
1004.046875,2.842082,6.357161,0.644552,3.122483
1004.050781,-3.824336,4.560071,-1.878518,-0.001880
1004.054688,-1.921904,-6.914134,-0.052842,3.537843
1004.058594,-13.508344,-4.831877,-4.312163,-1.163276
1004.062500,-6.295254,-14.419549,-11.044239,-14.164615
1004.066406,-5.976587,-14.318579,-6.315758,0.041901
1004.070312,-5.078854,-11.103224,-9.932777,-5.757516
1004.074219,-5.819017,-12.984849,-12.323009,-13.187953
1004.078125,-10.813438,-16.910466,-3.809904,-3.972137
1004.082031,-10.042227,-6.955201,-4.002136,0.372949
1004.085938,-1.556532,-6.740211,-3.211807,-16.130064
1004.089844,-8.607438,-2.464603,0.508764,-4.393611
1004.093750,-3.988342,-1.942716,-8.780874,-8.574494
1004.097656,-3.322565,0.925765,-5.613849,1.454560
1004.101562,-0.403755,11.036119,-1.657131,-4.384939
1004.105469,4.990133,6.957589,2.581977,-1.919061
1004.109375,10.058051,3.961043,10.728695,4.100505
1004.113281,13.613303,3.162499,3.267430,6.966126
1004.117188,5.709722,5.374591,8.621311,6.700178
1004.121094,7.332568,11.746124,6.110134,13.659040
1004.125000,11.605594,8.447942,4.066406,14.120006
1004.128906,8.713109,14.982304,3.692964,2.379852
1004.132812,7.424030,10.046750,5.923775,11.835647
1004.136719,10.759212,9.937159,6.165336,0.233538
1004.140625,9.596400,8.437122,7.448887,5.369007
1004.144531,6.958460,10.705906,6.641632,3.598606
1004.148438,4.865113,5.053789,1.028095,-1.743438
1004.152344,-5.304238,5.269585,-8.704767,-1.583710
1004.156250,-1.807536,-10.027485,-10.874528,-3.246054
1004.160156,-7.655564,-11.479822,-5.285129,-3.505835
1004.164062,-9.798792,-4.607351,-6.570812,-3.139010
1004.167969,-3.300659,-9.721134,-17.635344,-13.319468
1004.171875,-8.777113,-5.264727,-15.023292,-12.730942
1004.175781,-9.677445,-4.553088,-9.863550,-8.108743
1004.179688,-14.495724,-5.755876,-10.963004,-4.189835
1004.183594,-9.743617,-4.872261,-10.840549,-10.620971
1004.187500,-11.438711,-11.074558,-2.637454,-7.089526
1004.191406,-9.448553,-4.155805,-0.022926,-6.857422
1004.195312,-4.417142,-0.291294,-4.060123,-3.150293
1004.199219,1.112522,-2.355691,-4.341564,6.065046
1004.203125,0.280858,5.400879,12.916590,8.435945
1004.207031,2.545319,7.036710,4.180971,4.901211
1004.210938,11.672614,8.822400,12.223277,8.098919
1004.214844,9.650673,7.049117,10.053319,6.406444
1004.218750,6.770621,10.515463,16.166888,3.187658
1004.222656,6.011251,8.597121,5.115255,8.738032
1004.226562,7.407338,9.468378,2.855876,9.080452
1004.230469,4.301927,14.036198,5.880753,10.915020
1004.234375,-0.427321,2.482099,14.264746,5.140160
1004.238281,16.469455,9.928641,5.513528,0.732060
1004.242188,6.898707,2.820967,8.299933,10.039251
1004.246094,-1.385278,3.913631,6.524213,-2.388449
1004.250000,-4.593672,-3.959642,-1.922192,2.263456
1004.253906,-5.261023,-3.806487,0.056526,-4.254458
1004.257812,-4.449989,-2.159122,-12.517395,-6.787185
1004.261719,-9.636539,-15.230375,-8.323911,-1.549779
1004.265625,-6.473147,-2.506945,-8.947411,-6.861241
1004.269531,-8.221786,-10.409400,-12.273830,-12.556360
1004.273438,-8.527036,-10.016497,-7.857220,-11.000949
1004.277344,-7.531252,-5.372576,-11.229028,-10.346952
1004.281250,-8.171201,-13.040097,1.373326,-3.590835
1004.285156,-5.761214,-13.690499,-8.160644,-9.998807
1004.289062,-3.417383,-10.232460,-4.046627,-8.845761
1004.292969,-3.132941,-2.928702,-0.377889,-3.559051
1004.296875,-7.268159,-3.935573,0.017015,-6.213715
1004.300781,5.936606,5.616088,1.400764,-5.367192
1004.304688,2.384736,2.354750,4.033432,-2.278039
1004.308594,4.755631,-0.323129,3.296448,0.196982
1004.312500,12.171907,10.183731,5.672226,10.283118
1004.316406,12.225661,7.101158,7.145186,10.794934
1004.320312,7.225952,8.386560,11.017032,12.924303
1004.324219,9.039291,13.855428,8.813204,12.043804
1004.328125,10.710185,10.625772,13.483378,15.231207
1004.332031,5.467577,7.906711,6.938885,4.760006
1004.335938,7.451191,9.026156,3.460870,5.285126
1004.339844,1.849171,7.031806,8.418120,3.399513
1004.343750,-2.222642,1.856469,5.918291,9.630339
1004.347656,-2.149895,-5.299064,2.337336,-3.596964
1004.351562,-1.458052,-4.348328,-1.615474,-0.267378
1004.355469,-7.038861,-0.247935,-4.020503,5.082381
1004.359375,0.130710,-3.924482,5.301943,-4.720025
1004.363281,-7.448589,-11.009149,-5.740248,2.418817
1004.367188,-10.497963,-4.827070,-10.115357,-5.754699
1004.371094,-10.104737,-11.380457,-14.013734,-11.689778
1004.375000,-13.069745,-8.460587,-13.187705,-10.573283
1004.378906,-12.044751,-14.783964,-10.731560,-21.278773
1004.382812,-12.298534,-8.535684,-5.144598,-8.743806
1004.386719,-4.480593,-9.332050,-10.619094,-12.070946
1004.390625,-1.602844,-8.709219,-6.492859,-5.143996
1004.394531,-5.810734,-3.860483,-12.504259,-0.120628
1004.398438,6.565451,-2.401261,-7.918927,3.890277
1004.402344,1.143581,-0.799737,-3.624581,9.059590
1004.406250,-2.457238,10.174193,7.649405,-0.437494
1004.410156,4.026057,2.745852,-0.128316,7.208081
1004.414062,10.541746,5.323766,10.922392,6.168622
1004.417969,11.078541,10.759072,3.216888,0.642367
1004.421875,2.611854,15.223664,4.331425,6.941268
1004.425781,13.968833,16.855829,4.269772,9.920954
1004.429688,5.312772,9.111128,10.286658,7.753725
1004.433594,8.245065,9.182130,5.333050,11.678925
1004.437500,6.540045,-0.976947,5.433782,2.627070
1004.441406,8.803472,8.329528,5.003976,8.715197
1004.445312,-0.791051,8.566052,0.894647,4.078397
1004.449219,-0.711366,-1.617957,1.487007,-3.099855
1004.453125,-1.213234,-0.793057,-2.093676,2.083228
1004.457031,-5.427615,-5.926150,-4.713393,-4.156122
1004.460938,-6.311824,-4.749303,-7.047799,-4.448460
1004.464844,-10.899152,-11.025362,-12.344395,-4.286923
1004.468750,-8.517320,-12.743866,-11.483665,-4.053636
1004.472656,-8.554212,-9.891992,-11.422139,-10.038999
1004.476562,-5.699024,-13.871253,-12.430224,-16.255441
1004.480469,-0.943331,-8.746396,-20.853566,-14.367438
1004.484375,-14.263492,-9.442204,-11.544671,-9.092812
1004.488281,-7.367923,2.774450,-6.717080,-11.941893
1004.492188,1.193165,-7.667593,-5.797022,-9.948637
1004.496094,-3.257843,0.471161,0.702375,-0.108752
1004.500000,1.764524,2.686817,4.895097,-3.674408
1004.503906,-1.502291,-3.692100,-1.687871,1.097875
1004.507812,-0.823125,9.028661,3.842969,1.918718
1004.511719,8.296050,9.923584,9.546017,5.589670
1004.515625,11.207402,7.447817,13.099623,7.955190
1004.519531,11.481275,6.107603,9.446921,3.709924
1004.523438,6.239491,0.274661,4.599262,13.742036
1004.527344,7.178908,12.766149,8.222851,10.239179
1004.531250,8.167224,7.452620,15.840657,14.009048
1004.535156,11.077565,10.536801,7.869632,2.163701
1004.539062,1.670851,1.653027,7.001319,5.449027
1004.542969,5.094436,3.347897,7.300279,7.202007
1004.546875,-1.489275,3.531158,-11.556826,-2.406605
1004.550781,8.518774,5.843847,-6.050945,3.190894
1004.554688,1.445466,-7.182081,-5.918650,-0.148469
1004.558594,-2.697998,-9.100669,-4.582373,-3.081507
1004.562500,-7.693555,0.014459,-5.728381,-10.446208
1004.566406,-6.134058,-10.864936,-5.097300,-8.850013
1004.570312,-7.303532,-2.999916,-7.324091,-5.111474
1004.574219,-13.928363,-5.306442,-6.096973,-9.563686
1004.578125,-2.755206,-8.484618,-1.616580,-14.547052
1004.582031,-14.576438,-5.831075,-5.375341,-11.177527
1004.585938,-5.798529,-10.397476,-10.873982,-5.854361
1004.589844,-5.632719,-4.801726,-7.926201,-3.168556
1004.593750,-4.315909,-5.135942,-3.642313,-0.065563
1004.597656,-8.030060,0.825103,2.455982,-1.272974
1004.601562,-3.174629,3.097210,6.473216,3.463982
1004.605469,-5.311817,3.463010,6.132916,3.526780
1004.609375,6.438489,8.126031,3.318180,2.443639
1004.613281,11.421985,1.838621,6.566781,16.321458
1004.617188,15.371436,5.969710,0.106209,13.658383
1004.621094,17.691543,7.994269,9.639497,11.661512
1004.625000,4.019613,5.528679,9.339515,11.201193
1004.628906,5.259443,14.325206,14.410486,13.845709
1004.632812,8.089372,10.225025,15.184052,3.884556
1004.636719,3.257964,9.009459,8.776328,6.591049
1004.640625,1.923575,1.301411,4.329029,4.518475
1004.644531,8.478852,3.329070,6.116066,3.783886
1004.648438,5.006250,-4.691310,-4.043391,0.907930
1004.652344,-4.734146,1.722456,-4.408130,1.087070
1004.656250,-8.023588,-2.649240,-3.734906,-2.294063
1004.660156,-2.478055,-5.778609,-8.329468,-8.740419
1004.664062,-11.599325,-8.068242,-6.740807,-7.696828
1004.667969,-6.855331,-5.882504,-10.388195,-14.173911
1004.671875,-8.367883,-3.689407,-0.758631,-5.274445
1004.675781,-11.858174,-10.302730,-11.801320,-9.899347
1004.679688,-2.005432,-14.915631,-10.905185,-7.967761
1004.683594,-13.201561,-5.675592,-14.335734,-2.945348
1004.687500,-6.873531,-11.248741,-8.975843,5.051858
1004.691406,-7.190675,-4.626962,-7.919826,-5.357503
1004.695312,-0.831761,-3.692034,-1.776892,-3.844323
1004.699219,0.697053,-4.911852,-1.550033,-5.881235
1004.703125,3.400960,6.278052,-2.195604,2.546836
1004.707031,5.990456,-0.426124,10.358408,6.350573
1004.710938,8.273703,8.968618,9.683960,-1.568514
1004.714844,5.745602,3.782637,0.175851,6.072410
1004.718750,5.265271,11.513296,15.495748,8.830851
1004.722656,12.640950,14.134532,16.020197,9.432290
1004.726562,7.407759,9.707931,8.039071,18.315143
1004.730469,6.394727,8.158807,9.209279,7.636681
1004.734375,11.268945,9.330418,6.959667,8.014337
1004.738281,6.547698,14.166149,5.082642,3.894499
1004.742188,10.022033,2.759199,2.038373,-1.728481
1004.746094,6.695356,-0.608326,-1.639972,-0.313958
1004.750000,-1.703421,-1.942149,2.853707,-4.360900
1004.753906,-4.473508,-2.283860,0.924511,-5.644117
1004.757812,-6.569150,-3.494595,-6.925998,-6.024057
1004.761719,-4.933042,-1.059140,-10.870917,-7.640990
1004.765625,-6.664516,-3.931539,-11.583573,-15.158286
1004.769531,-13.727814,-3.121948,-12.264431,-14.405864
1004.773438,-9.302184,-8.663447,-9.556616,-6.363168
1004.777344,-7.164958,-7.492893,-9.582381,-3.709104
1004.781250,-8.583132,-9.718933,-4.918799,-8.846855
1004.785156,-8.923991,-3.176405,-4.658166,-12.215982
1004.789062,-14.189317,-5.192470,-1.052145,-13.987335
1004.792969,-2.893446,1.790623,-10.753353,-7.439332
1004.796875,-1.873732,7.290752,0.218257,1.620785
1004.800781,-2.629670,-0.938812,3.970656,-1.091414
1004.804688,-0.511314,1.949486,-3.954445,0.699173
1004.808594,11.212224,2.746755,7.666928,3.502886
1004.812500,6.390958,5.632116,5.634025,2.470159
1004.816406,11.564190,15.067293,12.243712,7.124050
1004.820312,12.478810,9.369793,9.164036,7.547032
1004.824219,7.772106,11.013092,9.600402,2.692718
1004.828125,12.077078,14.528595,9.229395,6.840122
1004.832031,7.796805,9.288045,14.775337,11.697807
1004.835938,9.482867,12.336763,9.888286,11.911952
1004.839844,2.034353,12.537204,4.233258,3.421773
1004.843750,4.344921,-0.067827,4.395224,-0.815282
1004.847656,0.832641,3.747591,6.828255,1.240336
1004.851562,4.091487,5.215601,0.566290,6.585837
1004.855469,-2.074026,-4.395071,-7.507784,0.040680
1004.859375,-8.919036,-0.927362,-3.369471,-9.679101
1004.863281,-4.569959,0.026469,-3.457001,-10.180666
1004.867188,-14.886828,-5.668186,-11.399414,-15.482094
1004.871094,-9.952441,-14.969963,-12.507514,-9.748134
1004.875000,-4.580331,-6.360153,-10.143373,-11.596654
1004.878906,-12.964155,-13.104988,-15.787201,-9.032796
1004.882812,-13.188119,-13.992283,-17.627322,-6.563550
1004.886719,-4.784964,-8.435575,-11.148014,-8.608606
1004.890625,-4.687214,-4.971406,-6.424895,-9.283607
1004.894531,-3.064365,1.975781,-2.980014,-5.291306
1004.898438,-3.401697,0.957842,-6.671633,-1.449160
1004.902344,7.307325,1.956325,9.507163,9.463414
1004.906250,-1.448369,2.764034,0.561069,3.746206
1004.910156,4.184856,2.885040,11.994825,0.978746
1004.914062,12.678946,8.256668,8.629435,-1.611991
1004.917969,6.283968,1.891983,6.834258,5.416837
1004.921875,16.819746,10.422304,8.337984,16.805916
1004.925781,11.142483,9.464962,17.551583,9.406853
1004.929688,8.000689,1.552805,8.112483,6.980217
1004.933594,7.887002,2.015424,16.003765,7.542380
1004.937500,0.118355,10.401339,10.233404,4.412053
1004.941406,3.667319,10.451834,4.640927,1.947584
1004.945312,6.522831,4.384693,4.206047,-3.327899
1004.949219,-2.412008,4.239972,-5.967247,-2.248407
1004.953125,-0.832458,-5.527928,-4.111229,-0.311203
1004.957031,-0.698616,-3.484836,-1.843437,-9.404000
1004.960938,-7.609885,0.033859,-12.446411,-0.823830
1004.964844,-0.770253,-11.541967,-11.957171,-4.372262
1004.968750,-13.054132,-6.996161,-8.012888,-6.488487
1004.972656,-6.962631,-7.646902,-13.083070,-13.186646
1004.976562,-14.886272,-2.355615,-4.401696,-9.281343
1004.980469,-6.045686,-14.581727,-15.812669,-14.106898
1004.984375,-10.740021,-2.518337,-8.605906,-1.071903
1004.988281,-12.113873,-10.750166,-5.703322,-8.041746
1004.992188,-9.346509,-6.219925,3.035298,3.375986
1004.996094,-1.069534,-5.436561,0.226809,-1.889974
1005.000000,-6.323261,-5.457055,6.475435,6.401083
1005.003906,1.028465,4.764876,-0.819531,1.971593
1005.007812,5.403719,5.675973,8.308463,0.446133
1005.011719,4.392832,8.719536,9.748214,4.880972
1005.015625,6.052455,5.541962,0.590252,9.341680
1005.019531,2.534805,9.227080,14.069713,13.844535
1005.023438,12.104157,6.237307,7.332949,10.979492
1005.027344,3.398671,8.451200,6.125826,8.886850
1005.031250,8.698924,10.092088,7.263577,7.042068
1005.035156,8.644738,7.490145,12.563179,8.129373
1005.039062,6.255804,7.319741,9.036625,6.830049
1005.042969,-2.432873,9.662442,-0.741207,3.753991
1005.046875,-5.112941,-0.882706,-4.220327,4.153899
1005.050781,-6.560352,-2.147203,3.423043,3.249342
1005.054688,1.081982,-4.562404,2.841079,-1.905020
1005.058594,-5.892234,-4.390796,1.906986,-3.290975
1005.062500,-10.419709,-7.965752,-3.743212,-11.246161
1005.066406,0.054382,-7.138348,-3.729128,-10.758645
1005.070312,-10.293317,-8.054419,-8.918930,-13.285600
1005.074219,-9.721289,-6.147050,-12.842223,-8.857247
1005.078125,-11.126895,-17.541829,-2.252637,-3.479202
1005.082031,-7.293840,-10.048437,-6.167995,-8.982555
1005.085938,-0.826896,-10.384003,-10.155810,-5.197589
1005.089844,-9.832480,-0.820829,-5.012735,-7.546560
1005.093750,-5.453797,-6.503347,-2.626918,-4.363180
1005.097656,-3.576908,-3.017759,7.585608,-2.650663
1005.101562,8.294926,1.175134,6.009862,1.340832
1005.105469,8.992448,6.734235,4.528686,3.900938
1005.109375,9.655771,1.907466,0.481542,6.248757
1005.113281,10.405285,4.103551,8.509262,2.133657
1005.117188,10.057090,8.479259,13.338720,9.441150
1005.121094,7.694415,9.142823,6.843628,7.120069
1005.125000,9.086268,11.199285,10.572085,3.930963
1005.128906,6.479620,8.425604,14.588432,12.961421
1005.132812,12.143926,11.281723,9.673572,12.361655
1005.136719,20.197787,8.389089,3.436334,17.217233
1005.140625,3.131835,14.805815,-1.983711,7.269631
1005.144531,2.784504,0.889696,9.268669,5.141553
1005.148438,-2.590428,0.648221,0.792203,-1.965878
1005.152344,-7.048567,1.861037,7.473839,0.926224
1005.156250,-5.972926,-7.984370,-4.375567,-9.763076
1005.160156,-4.368669,-6.432602,2.503839,1.801446
1005.164062,-5.887233,-13.808087,-7.481397,-8.558818
1005.167969,-11.750019,-9.120294,-9.041495,-4.702525
1005.171875,-0.875111,-14.403380,-5.606540,-7.861471
1005.175781,-9.323167,-4.335768,-15.435761,-12.701731
1005.179688,-10.134297,-10.048351,-10.826420,-10.352669
1005.183594,-14.172361,-4.602000,-16.688255,-11.313231
1005.187500,-4.425535,-10.338525,-5.418071,-0.314256
1005.191406,-5.635046,-2.926860,-8.985745,0.435139
1005.195312,-2.396552,-5.744609,1.443218,-0.872193
1005.199219,2.976273,3.259991,4.720975,3.027758
1005.203125,1.315857,-5.668867,1.075174,3.376935
1005.207031,4.332917,3.375321,2.475009,-1.335016
1005.210938,6.954436,8.820055,9.323608,5.430230
1005.214844,8.802807,14.843906,6.248218,9.196071
1005.218750,9.639679,4.705987,11.631147,4.600568
1005.222656,12.665651,10.445126,8.099065,11.127439
1005.226562,6.167194,10.322135,9.208933,9.300424
1005.230469,14.187857,10.993561,7.279002,0.031800
1005.234375,14.907350,3.065055,9.635123,7.641864
1005.238281,6.648459,5.408054,6.501325,6.740560
1005.242188,9.720747,1.644243,5.094489,7.676778
1005.246094,12.741833,4.415825,8.408694,-5.552361
1005.250000,-3.119819,4.757752,-3.586165,8.216747
1005.253906,-2.742896,3.576366,-9.185460,-1.728789
1005.257812,-6.145015,-2.966472,-5.034519,-6.636975
1005.261719,-7.614114,-10.976271,-7.976601,-9.349508
1005.265625,-9.517339,-9.116838,-10.152578,-13.921824
1005.269531,-9.983758,-14.170347,-6.659717,-8.850780
1005.273438,-9.456072,-13.285493,-10.965012,-8.515714
1005.277344,-6.805150,-12.067594,-11.179155,-3.651107
1005.281250,-7.378521,-3.670065,-4.748678,-4.451513
1005.285156,-6.742030,-3.712596,-12.437642,-7.968846
1005.289062,-4.876790,-5.985915,-4.238968,-10.354739
1005.292969,-8.158017,-1.721711,-4.372844,-3.519369
1005.296875,4.769408,-8.653694,-5.180802,-1.355194
1005.300781,-2.070744,4.405251,1.349860,1.253857
1005.304688,2.019321,8.077053,1.189023,11.957275
1005.308594,9.499307,4.371723,7.422726,7.407082
1005.312500,8.855552,10.384870,2.840534,9.718110
1005.316406,7.196350,4.999078,15.616761,4.428598
1005.320312,9.833631,4.769154,9.476101,2.962607
1005.324219,3.368196,-0.748239,12.591245,11.949996
1005.328125,14.856759,5.414769,8.999841,12.175761
1005.332031,18.401446,20.673280,13.431450,8.406494
1005.335938,10.868040,7.186021,6.466934,8.182801
1005.339844,1.255404,7.330920,7.352920,2.932615
1005.343750,8.328861,3.028953,8.554964,3.712859
1005.347656,2.600708,7.232367,0.802622,9.406740
1005.351562,4.038615,0.432160,-6.840790,-2.018463
1005.355469,-6.377878,-0.078637,-1.151388,-4.604982
1005.359375,-11.681410,-2.421608,-2.823822,-8.776714
1005.363281,-8.091634,-7.003290,-4.645805,-3.940707
1005.367188,-9.069126,-7.194850,-0.897850,-5.613990
1005.371094,-6.935713,-14.276206,-4.374094,-0.373899
1005.375000,-11.121543,-3.748954,-14.505069,-11.973038
1005.378906,-8.474155,-12.822850,-1.948580,-10.207925
1005.382812,-10.871592,-6.851367,-10.242302,-11.418537
1005.386719,-7.187768,-3.858015,-7.391200,-14.677246
1005.390625,1.352699,0.613575,-7.398804,-13.612408
1005.394531,-2.860311,-7.990596,3.311293,-3.772875
1005.398438,-0.182583,-0.424202,3.763098,1.928659
1005.402344,-0.630718,6.400123,4.004681,-1.173485
1005.406250,-2.596875,-0.593113,4.313383,1.171574
1005.410156,1.487237,5.466475,9.550236,10.095177
1005.414062,13.137116,10.691014,2.009566,5.656223
1005.417969,6.981236,14.345930,11.478985,7.995889
1005.421875,13.340743,10.437491,8.930074,8.103158
1005.425781,8.108763,21.012405,15.377466,6.520092
1005.429688,11.840760,5.341108,11.295196,15.735240
1005.433594,5.826797,9.453174,12.989974,11.248983
1005.437500,5.825201,2.133280,8.044977,7.855110
1005.441406,-3.272313,5.926650,4.326144,5.647881
1005.445312,3.212307,5.873212,7.778919,5.284522
1005.449219,-3.095202,-1.251657,3.048654,-1.745740
1005.453125,4.902782,-3.106297,-5.923522,-7.564298
1005.457031,-3.193416,-0.386785,-9.795273,-4.630503
1005.460938,-14.196303,-11.392130,-7.315690,-3.585483
1005.464844,-15.075692,-7.994619,-14.793254,-4.896285
1005.468750,-11.307557,-4.257373,-12.540537,-11.710039
1005.472656,-8.797472,-11.835057,-3.425849,-7.042565
1005.476562,-14.088667,-16.307173,-16.023852,-9.448504
1005.480469,-0.782535,-6.379141,-6.734887,-7.271005
1005.484375,-11.816111,-3.989546,-8.876265,-11.742674
1005.488281,-5.699467,-5.428420,0.848538,-7.135687
1005.492188,-7.385569,-8.240110,-9.755773,-9.773091
1005.496094,-3.233246,-0.313907,-5.924787,-5.903785
1005.500000,-8.655926,-1.191987,-1.525243,-2.148530
1005.503906,5.349817,8.049714,6.877206,-2.145687
1005.507812,2.954961,2.955494,5.055544,0.424026
1005.511719,11.673259,7.365030,7.313209,14.652140
1005.515625,10.513982,17.777320,9.744795,12.298658
1005.519531,3.499255,14.120298,9.001677,9.133203
1005.523438,10.021873,12.516738,16.437657,8.318296
1005.527344,13.962445,10.829744,2.096312,13.542111
1005.531250,9.717197,9.327411,1.158343,9.905863
1005.535156,6.868900,12.831297,10.429004,6.894543
1005.539062,5.091274,13.873706,8.929185,6.690844
1005.542969,5.906163,10.377677,5.366594,-2.855998
1005.546875,7.776562,-0.108703,3.103995,4.064138
1005.550781,0.959163,2.701199,1.358181,-3.207366
1005.554688,-7.499431,-6.548414,-11.263011,-1.230897
1005.558594,-2.422791,-10.647340,-4.480324,-5.220293
1005.562500,-4.050231,-5.820786,-15.515714,-10.177923
1005.566406,-8.071016,-10.588737,-0.001403,-2.503066
1005.570312,-7.359341,2.563806,-5.605275,-4.761484
1005.574219,-13.291790,-14.019406,-12.908629,-13.994088
1005.578125,-18.987208,-4.777342,-8.199104,-9.773880
1005.582031,-12.187178,-3.923509,-9.180748,-6.395007
1005.585938,-7.376752,-10.579127,-13.014961,-7.641196
1005.589844,-5.979070,-11.790426,-4.378340,-2.274035
1005.593750,1.137881,-4.904517,-9.896293,-6.305317
1005.597656,-8.855791,-0.660199,-1.012815,-3.341369
1005.601562,2.513091,1.769358,-5.667682,-4.960802
1005.605469,11.159355,0.921686,8.604098,7.106728
1005.609375,6.807461,1.480619,9.760450,10.210941
1005.613281,7.562049,4.048206,6.390205,8.388323
1005.617188,7.778084,4.285785,13.799209,7.532245
1005.621094,13.879254,7.868573,9.744806,6.250144
1005.625000,13.449623,7.644060,6.443059,13.863661
1005.628906,11.254406,10.770308,12.370673,12.213056
1005.632812,6.270145,5.713744,2.077990,6.546207
1005.636719,5.514670,7.936253,7.227628,6.936593
1005.640625,-2.608975,5.630704,5.289119,5.894326
1005.644531,8.173392,-2.403558,4.473296,4.689764
1005.648438,-4.462194,-1.234756,2.289081,-2.966240
1005.652344,-1.668311,3.746142,-3.395827,3.033867
1005.656250,-9.189685,-5.764490,-7.346982,2.061479
1005.660156,-9.541087,-6.389731,-4.613483,0.061016
1005.664062,-16.914527,-9.883791,-10.729197,-5.057213
1005.667969,-6.828571,-4.927027,-10.895743,-7.018694
1005.671875,-14.761629,-15.533701,-8.145699,-11.757816
1005.675781,-6.288096,-15.371021,-9.847207,-12.319602
1005.679688,-13.002015,-15.101264,-8.235475,-6.441346
1005.683594,-7.746446,-6.724291,-10.064017,-5.101725
1005.687500,-2.674396,-11.523829,-3.658249,-8.518978
1005.691406,-8.015257,-14.832787,-0.405112,-6.542718
1005.695312,-8.099481,3.105115,1.549731,-0.320086
1005.699219,1.210131,-4.858801,-0.842044,2.534359
1005.703125,0.552921,-0.578301,2.803997,2.025430
1005.707031,10.031640,7.320548,2.834454,0.171472
1005.710938,12.293264,7.286117,3.264849,5.360230
1005.714844,8.501103,7.449102,10.642340,0.479373
1005.718750,7.920489,7.356985,15.549560,7.914897
1005.722656,7.714647,7.174953,4.617444,9.397680
1005.726562,13.521810,14.418140,16.763689,19.586940
1005.730469,17.886836,4.944026,9.907011,6.709707
1005.734375,1.083436,9.924733,3.565832,11.082737
1005.738281,7.339029,3.827003,6.469452,6.293909
1005.742188,12.720006,8.033420,2.364620,6.012080
1005.746094,-2.080720,1.567882,7.598554,-1.162925
1005.750000,-3.040765,0.326534,-0.274336,-0.384418
1005.753906,-4.218189,-0.324095,-4.202867,-2.990980
1005.757812,-11.095029,-7.003872,-2.213359,-5.398703
1005.761719,-11.514644,-3.660828,-7.156531,2.370874
1005.765625,-7.746171,-10.993954,-1.132696,-12.894879
1005.769531,-13.297982,-13.995542,-13.936341,-11.138374
1005.773438,-12.162960,-9.396285,-16.005342,-8.796186
1005.777344,-12.860441,-10.606042,-7.336723,-10.865656
1005.781250,-15.158983,-3.789277,-8.272052,-8.692152
1005.785156,-2.830970,-13.017697,-12.435460,-3.836665
1005.789062,-7.785312,-6.493972,-3.325451,-9.287233
1005.792969,-5.028229,-3.694943,-3.109462,-0.448153
1005.796875,-6.647086,-0.668406,9.210763,-4.804217
1005.800781,3.005600,1.456197,0.735203,7.683093
1005.804688,2.622498,0.714039,1.750781,4.046606
1005.808594,11.161653,-5.582840,7.667662,5.980831
1005.812500,10.026083,6.326965,-0.577107,6.261828
1005.816406,8.697113,11.732204,10.145408,9.423671
1005.820312,9.669372,8.216616,14.868473,6.932619
1005.824219,19.914995,13.517733,13.974402,13.149754
1005.828125,6.015649,8.475410,9.341523,7.887004
1005.832031,4.762983,14.969673,2.200342,5.597610
1005.835938,10.201442,11.351860,9.214558,9.381624
1005.839844,10.869328,1.360371,7.945127,10.307543
1005.843750,3.866214,4.608260,5.731417,4.343850
1005.847656,-2.779750,-1.246826,-2.829104,0.372692
1005.851562,-1.111280,4.590108,-6.513624,-0.256811
1005.855469,-10.207176,-5.772357,-3.749722,0.955905
1005.859375,-7.258315,-2.601827,-9.562719,-2.419400
1005.863281,-8.940983,-12.141782,-4.726949,-5.445377
1005.867188,-8.074916,-15.696657,-9.759381,-8.710941
1005.871094,-10.174697,-8.924185,-13.639794,-14.905698
1005.875000,-6.381286,-8.644349,-7.178926,-10.315783
1005.878906,-3.562346,-16.548333,-7.572085,-17.293652
1005.882812,-13.696823,-6.824444,-12.819704,-8.302985
1005.886719,-8.551867,-7.955185,-2.474330,-7.319365
1005.890625,-11.757962,-3.327169,-7.917259,-1.021786
1005.894531,-7.578031,4.991938,-3.446663,-0.074397
1005.898438,-1.475835,0.416354,-0.021218,-1.919386
1005.902344,5.986772,0.025902,4.816285,5.247339
1005.906250,1.624707,2.342221,8.249096,6.852698
1005.910156,5.696904,5.865094,-4.332155,4.819349
1005.914062,1.830529,6.225442,9.998245,2.147485
1005.917969,6.384915,16.904454,7.617663,8.814482
1005.921875,13.445898,5.989091,0.429900,7.006358
1005.925781,13.948274,15.256288,8.644484,9.675680
1005.929688,6.839938,15.657261,20.139580,8.369781
1005.933594,14.546957,6.268455,13.346977,14.603407
1005.937500,3.822745,7.853755,10.349163,7.419530
1005.941406,1.551081,6.182661,6.047474,1.501328
1005.945312,7.062489,6.680733,0.465091,7.086261
1005.949219,3.945666,0.646346,-4.189811,7.010967
1005.953125,-8.248505,-2.868646,0.459241,0.524888
1005.957031,-4.654676,-3.238800,-4.590807,0.937792
1005.960938,-8.399845,-5.131895,-3.434209,-4.992372
1005.964844,-4.613477,-7.864468,-8.985311,-5.366994
1005.968750,-7.579461,-7.445080,-6.130220,-14.894584
1005.972656,-11.346243,-9.902495,-8.954556,-2.782344
1005.976562,-9.398825,-10.221142,-14.550641,-16.110982
1005.980469,-20.033196,-7.408449,-13.935301,-12.886285
1005.984375,-9.601300,-4.720016,-7.478127,-1.917410
1005.988281,-6.486577,-6.902777,-7.441192,-7.128753
1005.992188,-1.673651,-9.886484,-7.183330,-12.452727
1005.996094,4.577436,-1.758805,3.829436,-1.198631
1006.000000,10.118677,-0.102205,1.586279,0.490129
1006.003906,1.686262,1.785509,3.236645,6.068036
1006.007812,4.590755,7.485815,6.869967,-6.304020
1006.011719,14.614689,1.156777,8.117244,5.615924
1006.015625,10.811637,11.664853,9.883573,9.908482
1006.019531,8.626176,11.553001,11.111875,3.609471
1006.023438,12.668896,1.454597,12.067529,8.827441
1006.027344,10.902476,6.877091,19.469929,11.433738
1006.031250,7.694200,3.273737,3.022939,5.151129
1006.035156,12.489322,9.948843,5.125042,14.046634
1006.039062,11.191353,2.392432,10.852290,9.411385
1006.042969,8.208990,3.957548,3.507753,3.488234
1006.046875,-1.728724,2.682742,0.217277,-3.495555
1006.050781,7.205609,-3.913650,-1.529995,-2.181258
1006.054688,0.257703,-4.322223,1.370232,-9.772508
1006.058594,-8.508640,-10.918821,-13.829849,-8.779452
1006.062500,-8.097416,-5.182017,-5.014196,-3.203951
1006.066406,-6.426059,-5.631325,-13.636305,-8.110090
1006.070312,-11.582070,-15.927229,-6.352462,1.975740
1006.074219,-10.109466,-9.537978,-13.657168,-13.273692
1006.078125,-8.883755,-14.090262,-9.688001,-8.784945
1006.082031,-3.354580,-7.719037,-5.463812,-10.234207
1006.085938,-15.936776,-13.508323,-13.494947,-10.978317
1006.089844,-8.224446,-0.767971,-10.346008,-12.539402
1006.093750,2.763783,-0.449468,4.576495,-0.753645
1006.097656,-0.418852,1.382266,2.682416,-1.548217
1006.101562,-1.264794,-0.206134,-0.168330,1.490134
1006.105469,4.179729,6.295896,7.291647,5.720821
1006.109375,8.401767,7.310580,8.518348,14.966419
1006.113281,8.930132,9.815388,8.282193,10.122135
1006.117188,11.128094,5.791010,18.141596,6.918736
1006.121094,5.775560,7.619798,6.352681,8.442625
1006.125000,12.542594,11.977519,11.120873,9.158912
1006.128906,8.878174,11.014531,14.039331,9.457965
1006.132812,16.328050,9.867831,6.704966,10.597694
1006.136719,11.197199,7.768829,4.442434,11.949326
1006.140625,3.419119,3.449747,1.601387,-0.426613
1006.144531,11.721266,0.065866,7.172439,-0.869623
1006.148438,-0.256602,4.461758,0.601469,-2.143458
1006.152344,-3.898111,3.402038,1.036661,-3.386032
1006.156250,2.806723,-1.038811,1.727205,-5.175412
1006.160156,-3.092765,-5.940707,-2.678529,-1.932146
1006.164062,-13.305343,-13.245434,-14.142735,-7.068198
1006.167969,-10.823929,-5.146010,-7.537829,-8.414119
1006.171875,-8.962453,-9.320354,-4.245492,-2.336336
1006.175781,-8.265743,-14.042379,-15.183649,-8.047689
1006.179688,-10.635337,-6.171081,-8.255234,-10.197083
1006.183594,-15.980559,-1.843929,-9.318396,-9.174086
1006.187500,-10.744535,-11.989583,-4.230104,-4.210346
1006.191406,-7.165488,1.432024,-0.052135,-1.602802
1006.195312,4.297124,-5.358789,-1.077334,-2.924636
1006.199219,-3.834787,4.509196,5.687314,6.294475
1006.203125,4.669938,-4.613680,4.627982,-5.324764
1006.207031,7.293553,1.466982,3.372065,12.425662
1006.210938,7.182963,5.514525,11.469625,6.063253
1006.214844,2.692842,5.979523,4.898255,13.305074
1006.218750,8.720173,5.870924,5.465700,10.102836
1006.222656,13.472116,9.897836,11.045717,3.632282
1006.226562,2.078310,9.866719,11.985727,10.781538
1006.230469,3.907283,11.061527,8.032221,6.060936
1006.234375,9.141455,1.172586,9.428807,10.062897
1006.238281,4.311943,3.198381,3.702483,2.319079
1006.242188,7.135343,8.405267,6.599549,4.062967
1006.246094,3.756941,-2.446681,-0.446028,3.521189
1006.250000,-2.303134,-1.554908,1.629429,2.699861
1006.253906,-2.800540,-4.887751,0.681367,-3.887057
1006.257812,-4.945489,-6.272231,-0.830703,-4.576142
1006.261719,-8.136804,-15.229564,-0.498129,-12.868708
1006.265625,-8.131142,-4.460748,-10.125277,-5.378281
1006.269531,-5.299793,-8.154891,-11.159047,-9.250211
1006.273438,-12.450467,-6.880459,-11.306482,-8.897400
1006.277344,-16.595534,-8.261796,-8.497148,-12.619616
1006.281250,-4.510886,-2.586619,-6.896269,-7.837956
1006.285156,-12.350525,-6.285248,-11.344040,-7.736609
1006.289062,3.001411,-10.396220,-11.201769,-4.661954
1006.292969,-1.789182,-1.948786,-5.168887,-7.265528
1006.296875,0.424899,-0.143327,-0.311329,2.674942
1006.300781,0.354291,-4.938617,6.536623,-2.984751
1006.304688,-3.629233,6.806099,5.300223,3.036292
1006.308594,8.942989,2.442204,6.893209,1.985951
1006.312500,5.826509,8.583342,6.076430,10.234318
1006.316406,9.234355,6.783507,9.756960,6.744934
1006.320312,14.230945,12.485197,10.005837,4.377659
1006.324219,7.827216,11.170133,10.887138,13.323383
1006.328125,7.748859,7.419632,9.724716,6.764931
1006.332031,7.431233,15.490088,11.870435,10.295096
1006.335938,12.304532,8.269275,4.924591,11.228270
1006.339844,0.700530,9.505300,1.446516,-4.264087
1006.343750,4.506636,0.397554,-0.154335,4.671708
1006.347656,4.743894,8.518608,3.668775,-1.270802
1006.351562,-3.608649,-1.424686,-4.158514,-5.060644
1006.355469,7.333812,-2.888631,3.629849,-5.133516
1006.359375,-9.876472,2.020051,-3.736863,-11.753373
1006.363281,-5.141460,3.681775,-8.311934,-6.379034
1006.367188,-10.076875,-2.998147,-6.575074,-7.600017
1006.371094,-9.450795,-6.928377,-9.150308,-6.146916
1006.375000,-5.405586,-16.117441,-11.115662,-6.296928
1006.378906,-11.905992,-14.812428,-5.123363,-7.822997
1006.382812,-5.382517,-9.193798,-0.605946,-4.490123
1006.386719,-4.252066,-3.842359,-5.705818,-12.283964
1006.390625,-1.952457,-7.795565,-5.646914,-4.061197
1006.394531,-1.122145,-14.372865,5.451227,-1.792373
1006.398438,-7.025646,-4.818393,1.852861,2.317516
1006.402344,-2.393743,4.734774,4.457038,-4.020315
1006.406250,4.914537,8.967388,-3.169489,5.319168
1006.410156,7.623042,7.336867,12.407311,1.961536
1006.414062,7.377223,2.538532,6.487826,6.577553
1006.417969,9.438579,10.151458,7.677732,9.936733
1006.421875,7.843050,8.619223,7.755781,7.554611
1006.425781,7.941163,10.954989,15.528814,13.650175
1006.429688,11.092430,16.673669,4.663005,9.934112
1006.433594,6.606626,4.389754,12.641288,0.911184
1006.437500,10.218515,7.223761,8.514195,4.091284
1006.441406,14.686420,12.702316,3.414474,5.762504
1006.445312,2.885690,-1.585697,-3.717459,-0.135130
1006.449219,-0.689641,-4.186036,3.467199,-0.080817
1006.453125,-3.313620,-12.254878,-3.562637,-4.817952
1006.457031,-7.219994,-2.954529,-4.143628,-3.906961
1006.460938,-3.375901,-3.361574,-1.816975,-4.650859
1006.464844,-11.879199,-4.882266,-9.926343,-5.748357
1006.468750,-11.978801,-3.136316,-15.220941,-3.479941
1006.472656,-8.748504,-5.077230,-16.685083,-11.563597
1006.476562,-16.590623,-10.921744,-13.526673,-12.613249
1006.480469,-13.128900,-5.540443,-8.684058,-8.579872
1006.484375,-5.615670,-7.665449,-14.951040,-9.962532
1006.488281,-10.712157,-7.852585,-4.281401,-10.847772
1006.492188,-6.535093,-10.228139,-2.491222,-3.813291
1006.496094,-8.856401,-0.249346,-1.317871,4.045323
1006.500000,-9.275381,-4.946480,2.199419,-5.140512
1006.503906,6.827704,-4.064650,8.489012,7.145836
1006.507812,3.538184,9.759679,-6.399864,5.724765
1006.511719,7.937942,11.164771,2.054581,0.407329
1006.515625,-0.563397,3.396344,6.945278,6.849256
1006.519531,14.949056,9.757446,6.238029,6.995219
1006.523438,12.503980,2.659193,11.138411,14.459227
1006.527344,12.703866,10.102506,17.048291,7.816732
1006.531250,5.206513,15.509051,10.025515,11.833107
1006.535156,4.967478,9.719857,5.273052,2.428021
1006.539062,5.773914,-0.998047,5.410352,7.390728
1006.542969,5.145810,9.949677,4.117542,4.893390
1006.546875,5.341851,-3.989711,3.272997,3.229218
1006.550781,-3.313653,0.156662,1.336508,-1.235127
1006.554688,-1.782148,-0.064768,-0.315621,-5.627400
1006.558594,-4.832123,-0.983366,-2.560897,-1.913810
1006.562500,-0.418368,-10.935207,-10.702046,-12.172422
1006.566406,-6.369161,-11.344893,-15.709631,-13.173708
1006.570312,-17.870969,-6.979699,-17.725173,-11.926665
1006.574219,-11.859818,-10.043307,-2.443557,-15.599510
1006.578125,-13.897843,-3.568469,-11.059790,-10.798385
1006.582031,-3.964331,-7.329161,-10.656549,-8.457543
1006.585938,-9.957082,-13.218741,-6.862790,-10.232647
1006.589844,-3.026824,-3.437787,-7.668406,-5.927207
1006.593750,-8.152405,-8.379138,-0.072813,-5.631303
1006.597656,-1.718007,-4.684033,-3.418604,-0.876883
1006.601562,-0.382297,0.401775,-5.953078,2.254136
1006.605469,3.272153,2.404650,6.994710,6.792872
1006.609375,3.883860,6.506269,0.383370,3.425872
1006.613281,5.598872,7.315172,11.024900,13.493762
1006.617188,6.808705,6.743301,11.480166,6.194787
1006.621094,11.859350,8.828829,6.548907,11.147274
1006.625000,10.483123,5.661051,10.637180,8.141330
1006.628906,18.218630,13.579421,8.614231,8.263380
1006.632812,7.011707,4.248049,10.054360,9.415213
1006.636719,6.296160,7.887315,5.540257,4.629340
1006.640625,1.396073,0.216398,3.981158,2.528257
1006.644531,2.925653,0.252740,3.109646,3.329923
1006.648438,-2.690217,-2.757813,-8.360738,-3.778911
1006.652344,0.104288,2.242278,-4.197852,-4.381022
1006.656250,-6.225461,-4.671993,-2.184652,-6.647294
1006.660156,-7.846035,-10.754015,-10.771305,-9.933139
1006.664062,-10.244862,-11.687160,-7.395838,-10.915121
1006.667969,-5.978631,-8.771252,-6.614105,-10.086539
1006.671875,-13.072446,-15.589646,-6.632104,-12.510894
1006.675781,-13.555739,-12.406637,-13.583206,-14.501587
1006.679688,-13.669271,-10.493832,-8.938349,-14.522925
1006.683594,-9.425735,-12.628135,-12.887723,-8.834033
1006.687500,-3.419074,-11.665805,-8.010377,-3.674830
1006.691406,-7.429193,0.711260,-4.427781,-5.561656
1006.695312,-0.275938,-4.772098,1.888026,-0.526187
1006.699219,1.331807,1.714983,-0.856973,-9.646185
1006.703125,0.699533,2.824574,7.693011,2.128035
1006.707031,3.366584,6.473337,1.639752,1.447476
1006.710938,1.692402,3.503098,1.126522,7.198934
1006.714844,5.604954,1.724321,0.834260,9.702293
1006.718750,13.434956,8.611739,10.639439,8.537916
1006.722656,11.735991,1.813713,4.426008,3.134666
1006.726562,9.964512,1.718995,15.912616,15.835495
1006.730469,10.922715,5.638103,6.253222,11.444082
1006.734375,9.377364,10.700635,17.456402,2.689947
1006.738281,8.028093,11.653945,3.321913,3.639704
1006.742188,4.276813,2.770173,6.597160,6.139158
1006.746094,13.441775,5.105696,7.194085,-1.685502
1006.750000,-2.863785,5.100960,-1.924130,1.119881
1006.753906,-0.910993,-5.239362,-7.362443,-6.113016
1006.757812,-8.844246,-3.892680,-1.475179,-6.172222
1006.761719,-13.602042,-4.322838,-6.171416,-1.124811
1006.765625,-7.509363,-17.175640,-7.256785,-9.476295
1006.769531,-13.688430,-11.799940,-11.895247,-8.181401
1006.773438,-10.238937,-8.938805,-10.339234,-13.706509
1006.777344,-12.711053,-7.377099,-9.428719,-12.940509
1006.781250,-12.232145,-14.969477,-8.061545,-10.117944
1006.785156,6.866087,-10.571807,-7.827658,-2.373586
1006.789062,-5.779637,-9.388373,-9.572936,-2.866951
1006.792969,-10.009446,-1.076996,3.659038,-9.128233
1006.796875,2.729211,-2.788324,-11.405585,-6.951142
1006.800781,-5.196046,3.630177,6.310560,5.229785
1006.804688,2.633136,1.532262,-2.112053,5.778260
1006.808594,10.096189,8.524717,11.660193,6.563475
1006.812500,6.524010,11.616277,13.197866,7.485648
1006.816406,11.238495,7.076911,8.850506,6.625020
1006.820312,2.440045,12.081838,5.809919,18.715217
1006.824219,15.542109,4.734235,9.052172,11.766638
1006.828125,11.024272,5.339394,13.672367,5.536086
1006.832031,11.453829,12.135984,11.411954,11.345799
1006.835938,1.256141,10.578626,9.966734,6.700252
1006.839844,8.837595,10.502561,6.528948,2.076651
1006.843750,3.328258,4.200551,8.988044,0.766760
1006.847656,4.058776,0.758078,1.917411,-3.891372
1006.851562,0.417486,-0.117092,-0.484784,-6.045966
1006.855469,-2.597513,-3.608006,-2.148127,-6.213885
1006.859375,-7.927081,-4.108637,-1.938297,-4.757134
1006.863281,-12.452324,-1.939267,-10.550177,-5.882776
1006.867188,-9.877239,-11.258424,-11.999982,-10.972926
1006.871094,-10.048971,-3.658690,-4.649973,-4.553252
1006.875000,-10.908772,-12.438764,-7.374139,-4.008601
1006.878906,-8.858792,-3.149737,-14.844583,-14.189613
1006.882812,-15.276492,-2.943328,-7.372568,-5.292095
1006.886719,-1.438137,-5.092740,-2.883022,-5.565437
1006.890625,-7.500386,-2.584972,-6.639529,-7.317450
1006.894531,-3.076708,-2.439143,-11.033375,-5.107522
1006.898438,1.566675,2.447927,-0.493683,-4.566153
1006.902344,0.742839,-6.028538,-1.205502,2.234361
1006.906250,5.118446,4.677552,8.071184,5.840656
1006.910156,3.956283,3.672637,8.602814,6.148526
1006.914062,16.608921,4.814342,2.184275,5.026296
1006.917969,4.522889,8.989298,11.165769,15.911923
1006.921875,7.449120,7.781814,7.414194,10.701155
1006.925781,11.143808,8.241036,8.550196,11.810122
1006.929688,14.729837,1.996580,13.702062,9.963026
1006.933594,12.297527,15.255612,16.088593,13.327110
1006.937500,6.176755,4.621363,8.823530,2.851026
1006.941406,-2.504384,6.301637,4.886356,6.326892
1006.945312,3.904866,5.185665,0.198606,8.423767
1006.949219,-2.369040,-0.450592,-8.897947,0.688137
1006.953125,5.167636,-3.269659,-1.868790,-3.483114
1006.957031,-6.307076,-5.581707,-8.894818,-9.761441
1006.960938,-3.796490,-0.022667,-2.531806,-5.404344
1006.964844,-8.954485,-4.831857,-11.040115,-6.709522
1006.968750,-3.908635,-12.229458,-16.729888,-6.348234
1006.972656,-18.135851,-8.636548,-12.168271,-11.444128
1006.976562,-14.756934,-9.026945,-9.570464,-5.304465
1006.980469,-2.816259,-10.195092,-11.795860,-7.354314
1006.984375,-12.662818,-9.573501,-7.000664,-4.037580
1006.988281,-5.073776,-2.394075,-3.128305,-12.325167
1006.992188,1.948883,-7.594096,0.156355,-5.927111
1006.996094,2.702294,0.260729,0.483391,-3.330302
1007.000000,5.101486,2.987185,3.582247,-3.867950
1007.003906,3.984877,-3.808475,4.850613,5.328706
1007.007812,6.639510,-1.817655,3.412563,-10.100036
1007.011719,13.987855,4.663366,8.565761,6.318053
1007.015625,5.689033,6.792188,7.049275,8.801774
1007.019531,3.863732,2.120126,16.725883,7.609000
1007.023438,14.883097,9.485305,2.248697,10.651200
1007.027344,7.611079,10.540204,5.162730,9.892377
1007.031250,9.146255,8.760521,13.690901,14.001856
1007.035156,10.696454,8.635974,5.694148,0.803784
1007.039062,2.965646,1.130515,8.945718,-0.718209
1007.042969,5.509217,2.586075,3.187344,17.800642
1007.046875,-7.261236,0.176576,-3.231177,-2.768488
1007.050781,-2.243677,1.353467,4.083304,-3.169421
1007.054688,-2.358655,1.399034,-10.202406,0.069739
1007.058594,-3.594469,-5.032396,0.407240,-7.831990
1007.062500,-4.288664,-7.096733,-0.833765,-9.761657
1007.066406,-5.965588,-13.039024,-4.134433,-4.499812
1007.070312,-2.918690,-12.061203,-6.661507,-8.645557
1007.074219,-8.266715,-8.756248,-17.740853,-13.880991
1007.078125,-14.185060,-15.323728,-16.071605,-15.328975
1007.082031,-17.997581,-11.259620,-5.092018,-11.519666
1007.085938,-2.737766,-7.501162,-5.523787,-8.646154
1007.089844,-5.778191,-7.639070,-5.307720,-7.587438
1007.093750,-4.506117,-8.767244,-4.440329,-8.443906
1007.097656,3.033810,0.686659,1.945170,0.573779
1007.101562,1.097529,1.932227,2.539558,-2.263613
1007.105469,9.211907,0.899774,6.615180,3.808287
1007.109375,-1.966024,5.617876,4.281099,6.253240
1007.113281,11.171500,11.817501,8.168327,12.021811
1007.117188,8.259356,7.319120,3.084993,11.114463
1007.121094,17.638340,11.723842,11.346482,8.644699
1007.125000,7.389553,7.112850,6.377489,7.359950
1007.128906,12.084846,6.937445,9.534325,3.045399
1007.132812,11.398762,6.739917,3.667781,10.083072
1007.136719,5.016762,6.435846,14.740805,4.886608
1007.140625,9.433572,10.629099,6.365314,4.665757
1007.144531,1.106231,2.020953,10.581092,9.084021
1007.148438,-0.117020,2.510620,-7.772764,2.169809
1007.152344,5.590898,-0.178260,-2.408033,-1.095535
1007.156250,0.639175,0.265879,1.707391,-0.873490
1007.160156,-12.988719,-5.358773,-8.273441,-6.294909
1007.164062,-9.394660,-7.677395,-8.146355,-2.681204
1007.167969,-2.898301,-2.967382,-5.947342,-11.393875
1007.171875,-13.255700,-8.077776,-7.834210,-13.645274
1007.175781,-7.643936,-9.592855,-9.112888,-6.680229
1007.179688,-16.027502,-11.992121,-4.629578,-9.302669
1007.183594,-5.159020,-9.475334,-3.071583,-15.384512
1007.187500,-3.221182,-9.527770,-7.800293,-12.406474
1007.191406,-2.804978,-7.997354,-6.229707,-10.661415
1007.195312,-6.358775,-4.020320,1.573654,-3.543488
1007.199219,-1.436919,-2.511066,-0.433265,1.375533
1007.203125,6.747967,-3.046012,1.642850,0.040824
1007.207031,4.236972,8.934591,1.314484,8.655173
1007.210938,8.379864,6.981289,2.673878,16.343383
1007.214844,11.533456,3.490058,10.601595,8.510484
1007.218750,3.711163,15.880095,12.683405,11.792949
1007.222656,13.461012,9.951053,7.310073,5.547273
1007.226562,8.038117,3.488630,6.129371,9.007126
1007.230469,14.335250,13.239844,11.959320,17.385863
1007.234375,8.972788,6.661674,3.907237,8.563891
1007.238281,11.123241,2.121624,13.497113,6.755005
1007.242188,13.663268,6.220588,0.102913,-0.305790
1007.246094,2.582871,4.414397,-0.890618,4.911515
1007.250000,1.806992,1.852493,0.707619,-5.635645
1007.253906,-5.892116,-4.594400,-0.608382,-0.227642
1007.257812,-3.395568,-7.987844,-12.655977,-1.099755
1007.261719,-11.986508,-11.013738,-7.053635,-5.319067
1007.265625,-8.464476,-12.358350,-8.555792,-6.933457
1007.269531,-9.920263,-8.977091,-13.772305,-10.712710
1007.273438,-7.025613,-11.686270,-14.666867,-13.130427
1007.277344,-13.385523,-2.987965,-4.393806,-7.248343
1007.281250,-5.398768,-5.621070,-13.551026,-8.356755
1007.285156,-2.626074,-10.976864,-10.934961,-15.660734
1007.289062,-13.228305,-5.783063,-8.954378,-7.170441
1007.292969,1.215494,-1.749478,-4.288347,-2.493883
1007.296875,-7.816394,-2.694922,-6.585043,-4.454999
1007.300781,5.650298,-2.996564,-8.760436,-6.089338
1007.304688,4.117777,8.485429,8.466997,2.811350
1007.308594,9.246485,7.681889,2.318116,9.515431
1007.312500,10.778851,13.901232,2.437125,9.393872
1007.316406,8.126042,7.024314,7.001134,1.875932
1007.320312,5.058137,16.005151,2.043445,8.161848
1007.324219,12.270692,10.631654,4.505862,12.997817
1007.328125,11.012375,9.819461,9.114273,8.795638
1007.332031,9.959198,12.978239,6.254577,9.180406
1007.335938,11.676909,4.659313,3.810580,5.972047
1007.339844,2.234333,14.197756,1.823070,5.609924
1007.343750,5.538100,-0.851389,7.469110,6.804699
1007.347656,1.431130,2.772779,4.255102,-2.245656
1007.351562,-0.913909,5.729518,-1.996852,-1.856615
1007.355469,-6.904130,-3.208295,-8.985726,-3.230813
1007.359375,6.715282,-9.155348,-10.445316,-9.456870
1007.363281,-10.826708,-12.452915,-9.173770,-6.989764
1007.367188,-15.737970,-10.404872,-14.399075,-9.252116
1007.371094,-16.153740,-14.296959,-6.264744,-3.281314
1007.375000,-12.817557,-13.833017,-9.127351,-1.091622
1007.378906,-15.856569,-7.233556,-12.378447,-11.119783
1007.382812,-2.958915,-9.576457,-5.993034,-8.125632
1007.386719,-9.629053,-5.185733,-8.250839,-5.935239
1007.390625,-5.278792,-3.623659,-2.438856,-2.096491
1007.394531,-4.447183,-3.567986,1.025746,-0.806500
1007.398438,-11.078593,6.935944,3.879890,1.205136
1007.402344,0.897688,-3.932814,5.456355,4.464387
1007.406250,-1.453871,3.782756,-4.057549,-2.836512
1007.410156,4.872404,11.990490,9.179592,12.323103
1007.414062,4.364882,-0.702722,4.450104,10.188816
1007.417969,10.865860,7.409893,8.093112,11.579059
1007.421875,8.176665,8.024172,4.643284,5.788932
1007.425781,7.404266,6.783964,7.554715,1.328190
1007.429688,12.655359,11.657308,14.884149,8.545976
1007.433594,6.678960,11.213691,5.734803,9.446350
1007.437500,3.761727,9.933775,4.099515,4.529081
1007.441406,3.711843,4.700706,2.304940,4.649194
1007.445312,7.197348,0.098319,6.194102,1.034394
1007.449219,-2.322921,2.566530,-4.293539,10.151898
1007.453125,11.161005,-5.177835,1.212823,-1.969916
1007.457031,-9.796585,-2.196288,-2.423019,-3.666201
1007.460938,-8.888861,-8.199005,-2.142507,-14.749001
1007.464844,-5.575064,-6.068404,-9.931301,-8.736338
1007.468750,-8.588054,-4.544783,-16.029653,-5.130858
1007.472656,-8.970741,-7.490188,-8.923309,-13.841570
1007.476562,-11.252148,-11.877609,-11.495996,-16.093730
1007.480469,-15.911555,-6.950506,-12.126631,-10.475008
1007.484375,-9.656141,-12.202078,-8.100682,-7.745314
1007.488281,-12.293378,-5.737085,-7.724343,2.647978
1007.492188,-3.042856,-4.011504,2.140000,-6.633756
1007.496094,5.978027,-4.799058,-3.866506,-1.238619
1007.500000,3.768081,5.331099,3.453529,-1.655121
1007.503906,-0.696097,9.671256,5.404733,0.008570
1007.507812,2.400187,7.378566,6.271924,2.565004
1007.511719,6.731714,0.901734,10.871386,0.024533
1007.515625,4.639564,10.101664,6.745302,11.197708
1007.519531,10.448388,6.596357,12.277818,9.920024
1007.523438,9.685900,5.815348,17.691004,7.933409
1007.527344,3.896621,9.254883,12.629562,12.396963
1007.531250,7.027285,9.615047,9.214525,7.020258
1007.535156,10.390688,4.447116,14.660278,8.589921
1007.539062,9.196931,-0.020375,10.183554,-4.083136
1007.542969,2.064580,7.242707,6.565457,6.171913
1007.546875,2.829828,-1.862185,-4.120735,5.855676
1007.550781,3.587165,5.017482,-0.573892,0.027323
1007.554688,-5.296495,-11.361783,-3.636468,-4.292837
1007.558594,-4.588851,-13.348702,-4.615315,-4.720285
1007.562500,-7.431772,-5.853527,-14.539660,-6.932100
1007.566406,-8.232147,-11.808005,-4.141897,-5.422920
1007.570312,-12.763394,-11.640564,-11.867483,-8.727509
1007.574219,-11.863067,-6.243259,-9.384949,-10.888730
1007.578125,-13.472559,-7.204291,-16.618640,-7.930925
1007.582031,-4.468637,-7.271127,-6.910235,-9.532190
1007.585938,-5.289104,-8.795795,-4.399167,-8.260224
1007.589844,2.676348,-9.809378,-7.353324,-8.306451
1007.593750,-4.891303,0.116451,-3.553249,-9.298390
1007.597656,-3.165304,-6.111956,-4.208489,-0.876250
1007.601562,-2.207175,-3.436854,4.736975,-1.739578
1007.605469,6.912048,2.226146,5.929808,5.053238
1007.609375,17.637312,-0.038896,10.490964,-3.086057
1007.613281,2.192787,8.665796,4.576021,3.248588
1007.617188,8.268921,18.763887,6.003044,12.140025
1007.621094,11.850250,6.298098,5.980677,9.729280
1007.625000,7.318295,7.858210,12.866048,12.712091
1007.628906,12.032213,14.002052,11.533095,12.780086
1007.632812,12.092784,10.270397,14.982558,6.355033
1007.636719,6.161979,8.579418,4.698662,9.152477
1007.640625,3.507591,3.332778,10.947441,5.301173
1007.644531,6.228050,8.421346,1.705577,9.872347
1007.648438,4.719421,-0.217291,0.615786,4.775813
1007.652344,-2.688839,-11.640557,-7.118745,0.572346
1007.656250,-8.501476,-0.191017,-0.865522,-1.057232
1007.660156,-3.269501,-4.038159,-6.891692,-8.601643
1007.664062,-11.726558,-13.293682,-12.945783,-6.020060
1007.667969,-13.567395,-9.310711,-4.921371,-10.258222
1007.671875,-12.977960,-11.588436,-12.575531,-8.260354
1007.675781,-9.999574,-11.954813,-14.035647,-10.676456
1007.679688,-11.450629,-10.583529,-8.750270,-5.582101
1007.683594,-10.713632,-7.558630,-10.783898,-18.288986
1007.687500,-5.703144,-8.259069,-6.792708,-9.481356
1007.691406,-9.273498,-5.344055,-2.273736,-2.092384
1007.695312,-0.505840,-1.998274,-12.478662,-8.331902
1007.699219,4.026843,-5.980963,-3.233974,-1.882427
1007.703125,3.707297,-1.498346,5.667812,-4.838642
1007.707031,3.405636,6.400004,2.678730,5.757620
1007.710938,6.258623,7.359680,11.678099,6.524825
1007.714844,5.452273,3.946521,5.609331,1.738296
1007.718750,17.319320,15.207389,7.634889,17.917879
1007.722656,3.204872,10.201308,20.004804,7.775351
1007.726562,5.982431,16.472844,14.408261,10.455412
1007.730469,11.226802,13.974099,5.043929,8.026303
1007.734375,6.938600,10.111935,3.774881,11.316697
1007.738281,9.915406,8.327804,7.637526,2.705020
1007.742188,10.611788,11.870465,6.109004,3.081035
1007.746094,3.681072,-3.546134,3.619502,2.533209
1007.750000,0.903334,-0.673247,-0.141138,7.902544
1007.753906,-1.527811,-6.676525,-2.684575,-4.188100
1007.757812,-6.328594,-9.143993,-5.391179,-9.699534
1007.761719,-8.364094,0.107907,0.792405,3.424128
1007.765625,-12.072874,-4.463881,-4.300106,-13.314983
1007.769531,-9.001239,-12.802849,-10.104687,-12.728747
1007.773438,-6.421378,-13.596499,-7.840312,-8.955736
1007.777344,-6.407493,-11.323000,-9.354817,-12.958083
1007.781250,-3.078603,-6.440788,-9.522898,-10.469276
1007.785156,-5.992074,-11.085522,-7.794079,-6.047012
1007.789062,-9.768124,-7.589749,-6.999639,-6.628950
1007.792969,-10.145892,-2.324754,0.291312,-12.073544
1007.796875,-4.179430,-1.465690,-1.572865,-6.828202
1007.800781,-5.769212,-4.981277,-0.917606,-0.503993
1007.804688,1.531198,0.726171,3.561335,-1.763096
1007.808594,2.755882,8.788478,-0.022367,1.776670
1007.812500,7.916472,7.631685,2.016468,8.153912
1007.816406,12.581174,7.228993,4.903178,-0.067680
1007.820312,14.094425,7.903286,-2.686912,10.205704
1007.824219,13.181202,14.904450,5.006215,5.884835
1007.828125,11.474740,11.664545,13.230068,7.827618
1007.832031,0.874043,3.725235,4.683650,12.834434
1007.835938,5.711489,11.612935,13.941998,1.669230
1007.839844,10.300329,7.947320,5.254023,6.706412
1007.843750,4.487837,6.195942,5.171211,-0.792252
1007.847656,-4.961358,1.484270,11.249802,-7.602132
1007.851562,-2.228551,3.100226,-0.676370,-4.638355
1007.855469,-3.815918,-0.847827,-6.383181,-8.925902
1007.859375,1.518524,-8.251548,-4.452378,-7.212996
1007.863281,-4.056611,1.102625,-10.903801,-8.558887
1007.867188,-15.100905,-7.078977,-5.580131,-9.137135
1007.871094,-13.032996,-8.480184,-14.584494,-8.590411
1007.875000,-15.063987,-2.779608,-18.075413,-11.368572
1007.878906,-9.893490,-12.792137,-9.970966,-11.520757
1007.882812,-6.643193,-13.589015,-11.184349,-7.363788
1007.886719,-5.453447,-11.203149,-3.885634,-1.497057
1007.890625,-8.954430,-8.128829,-1.769531,1.006615
1007.894531,1.912992,-6.850655,-2.507170,1.987412
1007.898438,-1.226375,-0.648921,-2.384337,2.645771
1007.902344,-1.815316,-7.011036,-2.450979,1.913158
1007.906250,-5.960281,11.660691,7.750164,1.223150
1007.910156,9.909122,1.413632,1.147489,10.828662
1007.914062,12.843034,8.129415,12.915451,5.287304
1007.917969,9.927110,-1.644750,12.927662,10.652276
1007.921875,21.062422,14.668725,9.833978,9.849608
1007.925781,7.120003,6.556118,3.067184,8.794700
1007.929688,6.460410,15.221130,13.018108,17.472204
1007.933594,9.786534,10.603312,5.692738,11.719785
1007.937500,1.541137,7.040724,2.463803,9.434721
1007.941406,11.395118,1.486172,3.906724,3.327526
1007.945312,0.277822,4.342008,2.850412,2.568267
1007.949219,-1.118627,-6.475686,-3.804229,5.118777
1007.953125,-2.513342,1.517559,0.789002,-1.998541
1007.957031,-0.527265,-5.445993,-9.954062,-7.094980
1007.960938,-15.776441,-8.935486,-1.882116,-6.884818
1007.964844,-6.290552,-4.709498,-9.126786,-11.728086
1007.968750,-8.354832,-4.772063,-10.158574,-9.087824
1007.972656,-9.705432,-13.135127,-14.566812,-5.749557
1007.976562,-10.974149,-8.288173,-9.886328,-14.541153
1007.980469,-12.066046,-11.868753,-13.278849,-16.429431
1007.984375,-12.886091,-10.677588,-9.570262,-11.178781
1007.988281,0.214957,-2.576707,-7.665844,-4.802847
1007.992188,-3.570558,-2.267945,-3.606714,-8.987285
1007.996094,3.664638,-3.670015,-5.520803,0.641063
1008.000000,0.222295,0.873380,-0.840535,-0.820375
1008.003906,3.364418,-1.003646,-2.110159,2.158640
1008.007812,3.624757,2.519848,0.087490,3.628011
1008.011719,4.785198,1.805286,9.259727,-2.091051
1008.015625,10.928935,10.939947,13.267057,12.549047
1008.019531,14.423602,1.858125,9.405720,10.549439
1008.023438,7.091200,12.554410,6.397061,9.275955
1008.027344,8.323155,17.601760,6.287100,9.633517
1008.031250,6.682873,9.950545,4.119926,13.402828
1008.035156,5.189387,-0.841734,5.231000,8.016342
1008.039062,-0.312486,1.948766,2.911128,7.339433
1008.042969,-3.653185,5.617536,5.397381,7.025885
1008.046875,-2.647165,5.860508,2.511627,5.605422
1008.050781,-0.796745,3.680632,-8.984570,-0.239926
1008.054688,-5.008513,-2.890760,-3.340144,-10.704264
1008.058594,-0.010390,-5.795409,-3.258624,-1.341283
1008.062500,-9.631911,-9.571475,-2.569771,-13.795079
1008.066406,-13.481906,-18.415641,-10.410689,-6.353134
1008.070312,-3.694366,-13.061085,-7.624322,-8.244168
1008.074219,-6.963461,-8.587952,-7.814659,-7.226436
1008.078125,-9.066954,-12.755609,-9.513294,-11.169275
1008.082031,-15.538799,-6.906490,-15.052514,-5.490444
1008.085938,-9.163324,-10.365637,-4.262883,-7.762265
1008.089844,-6.938147,-9.755478,-6.521277,-8.919868
1008.093750,-6.726902,-7.493373,0.782998,-4.173042
1008.097656,-4.407292,0.055766,-0.942703,3.558651
1008.101562,-0.167238,0.475973,7.192353,-8.495641
1008.105469,-4.144727,1.599236,2.097067,4.742571
1008.109375,8.657591,4.269249,10.347923,10.825038
1008.113281,5.347770,-0.386022,6.997959,14.433737
1008.117188,14.423943,0.823021,11.968834,6.508024
1008.121094,14.354319,11.591672,15.966141,12.292711
1008.125000,4.119152,12.140631,17.797610,7.897262
1008.128906,8.946323,9.872691,14.686719,6.959777
1008.132812,4.493031,5.086967,12.556334,7.260239
1008.136719,9.956122,4.133584,11.713792,15.950635
1008.140625,4.919094,4.513562,7.168911,3.872138
1008.144531,2.496520,3.403884,5.953805,2.627325
1008.148438,-0.627316,4.952936,1.288490,3.853044
1008.152344,-8.244070,5.211264,-6.422469,-2.367802
1008.156250,-4.932652,-5.910763,-4.395013,-4.388439
1008.160156,-8.601430,-4.408992,-5.061188,-5.646341
1008.164062,-10.582930,-14.860900,4.991625,-13.164996
1008.167969,-8.743091,-12.741896,-11.766041,-14.614760
1008.171875,-14.317728,-15.846069,-8.021063,-8.463788
1008.175781,-12.692173,-12.701496,-13.652373,-9.885408
1008.179688,-6.401321,-14.462678,-10.734523,-0.810544
1008.183594,-9.859149,-9.432733,-6.841387,-13.615531
1008.187500,-3.499542,-9.741651,-3.332736,-15.705568
1008.191406,-6.325725,-11.491060,0.869200,-4.690112
1008.195312,-6.112030,3.345886,-9.498743,-3.933392
1008.199219,-2.002884,-0.611971,2.077719,-2.865289
1008.203125,3.330952,0.820268,3.684324,2.970517
1008.207031,-2.325354,-0.092104,7.699731,-0.584857
1008.210938,3.376319,10.321074,2.148921,-0.854716
1008.214844,11.528668,9.806488,15.424999,11.234268
1008.218750,7.017034,4.579306,11.733849,8.971322
1008.222656,10.005422,12.478806,3.161258,6.083835
1008.226562,1.302122,5.023044,10.753965,7.741728
1008.230469,7.250189,8.179669,10.552540,13.669758
1008.234375,4.592012,3.432851,11.580860,9.180510
1008.238281,10.538155,12.562832,1.824983,11.005582
1008.242188,2.817212,6.588786,3.826628,4.721913
1008.246094,0.230643,-2.140413,2.155737,1.027508
1008.250000,6.077747,1.437769,-2.552503,-6.466087
1008.253906,-7.191244,-3.927505,0.502721,0.594999
1008.257812,-6.304429,-4.012560,0.641533,3.837181
1008.261719,-11.910974,-10.834553,-8.193726,-4.942300
1008.265625,-5.938930,-12.018315,-4.688038,-3.003400
1008.269531,-6.922135,-16.544214,-9.581387,-5.359415
1008.273438,-13.455297,-11.077558,-10.886275,-8.185406
1008.277344,-6.793978,-11.278228,-10.302571,-11.250541
1008.281250,-6.736965,-6.281834,-15.718194,-12.489409
1008.285156,-7.392898,-14.960692,-9.035183,-9.572447
1008.289062,-8.470957,-7.748347,-11.039988,-6.909705
1008.292969,-5.068775,-2.732547,-3.755988,0.696174
1008.296875,0.340727,-2.815301,-3.640663,2.597667
1008.300781,3.449426,1.873351,1.095421,-7.246182
1008.304688,10.827492,6.757258,-0.006366,0.586991
1008.308594,6.905280,7.689138,11.183361,4.485569
1008.312500,8.445747,6.606059,2.612701,-2.189556
1008.316406,6.231797,2.747902,7.384455,14.990127
1008.320312,8.880107,7.504580,12.619998,7.158699
1008.324219,12.333494,14.289233,12.454097,6.382977
1008.328125,15.191703,14.323319,10.669931,11.196232
1008.332031,9.317925,14.762011,11.371919,4.746624
1008.335938,9.126465,12.504429,14.107115,4.470158
1008.339844,8.411143,10.056941,7.521349,3.137447
1008.343750,-0.435508,1.174408,4.404808,4.359592
1008.347656,8.556153,7.330097,4.470462,-0.560657
1008.351562,-5.583459,-6.001913,-0.352269,0.441926
1008.355469,0.080832,-5.644975,-7.266181,-3.434475
1008.359375,-4.953417,-2.311173,-5.577182,-7.935067
1008.363281,-8.772366,-13.337403,-7.491866,-6.044755
1008.367188,-3.394460,-8.075639,-11.664111,-10.909839
1008.371094,-6.696674,-14.077613,-11.116933,-9.952372
1008.375000,-13.860657,-12.717879,-3.753149,-9.968575
1008.378906,-6.287787,-9.254129,-13.824328,-17.064783
1008.382812,-6.993680,-9.454056,-6.026455,-7.232629
1008.386719,-0.818930,-7.460909,-10.260387,-3.683008
1008.390625,-10.553394,-7.414961,-1.428697,-3.476616
1008.394531,6.909625,-4.666948,-7.866807,-7.293532
1008.398438,4.105800,-6.254877,-11.889372,6.739319
1008.402344,10.177417,1.003891,5.334332,7.143924
1008.406250,7.915595,-0.099579,2.721425,4.621443
1008.410156,0.330553,2.437717,6.758116,6.099915
1008.414062,11.592020,5.756310,10.908886,12.051922
1008.417969,9.606604,9.081581,15.972651,14.704812
1008.421875,8.842003,9.077770,6.712389,17.964396
1008.425781,4.625052,3.372810,10.303678,15.065639
1008.429688,7.400258,11.282977,1.473300,12.127716
1008.433594,7.510374,4.364948,6.343962,9.564767
1008.437500,5.602155,9.237991,9.692122,10.102085
1008.441406,2.273744,0.173551,7.042204,11.608880
1008.445312,4.377520,2.464244,9.622574,0.953495
1008.449219,-0.759381,-7.710963,-0.492774,-0.882490
1008.453125,-8.402615,-1.423655,-7.320447,-3.214990
1008.457031,-2.054025,-5.988106,1.125179,-4.583512
1008.460938,-7.265320,-6.650044,-4.558301,-6.283752
1008.464844,-9.854190,-11.747524,-8.951075,-8.848762
1008.468750,-13.372651,-9.781772,-10.314203,-10.535326
1008.472656,-11.394029,-11.093146,-8.080115,-11.639451
1008.476562,-16.954261,-12.734141,-12.455246,-9.949418
1008.480469,-2.252336,-5.927077,-9.174436,-13.550883
1008.484375,-13.936978,3.238159,-7.000618,-6.842196
1008.488281,-10.263226,-5.598281,-3.444982,-4.725392
1008.492188,-6.449379,-7.930226,-6.531614,-5.817070
1008.496094,1.417275,-2.352837,1.346721,0.463734
1008.500000,4.235010,6.232211,0.171161,1.768579
1008.503906,5.517983,6.025398,3.618930,5.694811
1008.507812,8.161083,11.730687,6.803707,10.003042
1008.511719,5.593354,6.935335,11.181970,4.610598
1008.515625,3.331408,14.625889,9.600333,12.291546
1008.519531,6.603697,13.814027,5.442634,6.086513
1008.523438,4.764647,8.534622,8.765433,9.424447
1008.527344,15.485235,14.117176,4.139862,9.879799
1008.531250,12.484516,9.828761,4.438631,10.192599
1008.535156,2.695773,11.652008,1.231913,6.233274
1008.539062,5.562359,5.049348,-0.341225,2.274319
1008.542969,5.130756,-7.306444,4.284462,7.590792
1008.546875,5.671720,-1.530052,7.891862,-6.948383
1008.550781,-6.835352,3.152029,-2.539384,1.228221
1008.554688,1.566572,3.946815,-4.262082,-6.775414
1008.558594,-5.195374,-7.626148,-8.300777,2.538672
1008.562500,-12.555377,-7.828454,-12.789889,-0.419344
1008.566406,-7.018429,-14.097106,-7.382237,-1.428388
1008.570312,-10.814056,-4.428209,-9.075044,-10.883164
1008.574219,-3.354244,0.105201,-10.575097,-8.604436
1008.578125,-7.964271,-17.366935,-9.804377,-3.738774
1008.582031,-9.701226,-10.564774,-5.304401,-12.848706
1008.585938,-11.435267,-5.472938,-5.368705,-10.687091
1008.589844,-15.679028,1.872784,0.980778,-7.704350
1008.593750,-2.140807,-9.653523,-3.799971,-6.404979
1008.597656,-3.631340,-0.312384,-6.932910,-1.222636
1008.601562,1.491369,2.867852,-1.812670,1.543821
1008.605469,4.366982,4.647348,3.899678,-1.580062
1008.609375,10.664365,7.638136,8.354869,11.281368
1008.613281,13.392590,8.202632,11.654070,6.255761
1008.617188,6.478692,6.225708,7.954488,1.013406
1008.621094,14.510145,3.197623,3.342198,12.331757
1008.625000,18.154323,9.942939,8.993622,8.043462
1008.628906,10.444672,11.387119,10.731853,7.889351
1008.632812,18.771942,7.559076,13.121621,10.258495
1008.636719,8.413566,16.616846,4.983218,10.286822
1008.640625,12.711632,8.435647,9.108531,17.091850
1008.644531,5.867544,-0.688385,4.341472,6.726328
1008.648438,1.036165,-0.239866,-4.187469,5.140752
1008.652344,2.352171,-5.641725,5.207688,-7.969730
1008.656250,-2.212785,-2.007258,-5.807689,-2.988256
1008.660156,-2.569224,-2.869215,-4.126804,-8.126840
1008.664062,-5.536702,-4.167404,-3.587931,-4.854466
1008.667969,-13.753086,-8.791945,-6.789805,-11.116353
1008.671875,-6.489631,-4.672529,-13.428029,-11.255715
1008.675781,-9.997530,-10.430636,-14.550706,-2.682853
1008.679688,-13.293052,-7.874663,-6.017358,-10.814237
1008.683594,-9.604908,-11.081715,-12.282579,-8.598056
1008.687500,-2.276791,3.283782,-10.037219,-11.509280
1008.691406,-3.601871,-11.523352,-2.043963,-6.512736
1008.695312,-2.043259,-5.797841,-7.146409,-0.545951
1008.699219,-3.914183,5.585487,-0.132507,1.083523
1008.703125,3.163894,5.282972,1.466904,-0.177211
1008.707031,6.213242,3.373829,-6.627523,0.757729
1008.710938,7.694629,-3.834025,5.843882,3.809709
1008.714844,15.185281,5.165379,8.963629,6.165234
1008.718750,9.125911,4.022691,7.365696,12.132204
1008.722656,5.269068,7.444026,11.713255,12.614013
1008.726562,14.285114,5.950760,9.442009,3.375046
1008.730469,10.287267,10.817123,16.053039,11.480784
1008.734375,10.715045,9.814751,0.733345,3.338843
1008.738281,8.793244,9.143589,8.658440,5.856729
1008.742188,0.496088,6.136437,5.237503,6.937466
1008.746094,6.280351,2.773497,5.849396,-3.768602
1008.750000,3.282780,-4.444598,-2.943869,-2.208587
1008.753906,-2.659257,0.567048,6.626602,-3.731669
1008.757812,-2.326395,-4.497280,-4.556741,-5.402399
1008.761719,-5.781061,0.075324,-7.200346,-1.645929
1008.765625,-6.780934,-9.377021,-10.062767,-5.739111
1008.769531,-6.417004,-8.838600,-11.825080,-8.446232
1008.773438,-8.584064,-11.026272,-13.125558,-9.864907
1008.777344,-4.018157,-14.658908,-6.631066,-11.769399
1008.781250,-13.070050,-7.767414,-6.605832,-9.713775
1008.785156,-4.844003,-11.455892,-0.504495,-10.046132
1008.789062,-6.963035,-6.483504,-9.190170,-9.584462
1008.792969,3.247557,-4.803485,-9.977151,0.231259
1008.796875,-1.978717,-5.358087,-2.559788,2.064527
1008.800781,8.242976,1.895041,-0.538993,-5.745931
1008.804688,7.337086,-0.049298,5.525978,5.646800
1008.808594,8.154026,6.562940,4.236423,7.832929
1008.812500,8.410375,11.107156,3.309848,0.565656
1008.816406,4.961028,11.610390,0.374019,3.971868
1008.820312,13.246089,10.109288,13.673888,5.600684
1008.824219,7.874714,16.170865,7.128550,11.987234
1008.828125,0.486137,8.811951,5.304496,10.413608
1008.832031,8.047000,12.654369,8.450631,12.439233
1008.835938,8.995404,6.221381,7.952896,2.024176
1008.839844,6.578536,4.360778,3.972543,7.283650
1008.843750,4.417262,4.107974,0.913070,10.632499
1008.847656,1.170781,0.194104,3.407503,-5.308621
1008.851562,-6.465011,2.106544,-2.164158,-3.876332
1008.855469,0.680838,-9.741651,-4.313464,-1.278869
1008.859375,-1.315699,-3.631383,-1.144057,-6.525751
1008.863281,-15.466860,-4.140023,-7.663745,-9.890957
1008.867188,-10.233975,-11.378011,-8.605779,-10.963887
1008.871094,-6.953461,-12.914443,-10.854087,-9.772192
1008.875000,-5.563631,-6.038362,-6.250862,-18.366220
1008.878906,-18.924011,-17.998926,-1.564831,-7.742542
1008.882812,-12.629524,-7.988711,-9.940122,-6.927468
1008.886719,-0.849561,-7.999448,-1.312011,-10.056245
1008.890625,-6.723770,-7.085367,-1.244394,-3.940202
1008.894531,-5.210195,-1.368807,-3.714691,-0.658357
1008.898438,-8.233181,3.164426,-2.102202,0.495884
1008.902344,7.420312,-2.072484,6.188794,7.728536
1008.906250,5.608424,0.782226,3.724097,9.674784
1008.910156,4.916888,3.614717,8.304630,6.801368
1008.914062,7.915555,11.047165,10.613107,12.045685
1008.917969,3.371224,7.682226,19.559094,8.559818
1008.921875,10.121696,14.111678,6.321733,8.121308
1008.925781,12.501221,6.815664,5.887918,10.772544
1008.929688,14.215078,13.368673,10.249628,13.029997
1008.933594,4.255804,17.982442,17.016243,6.007588
1008.937500,6.910296,4.795411,10.900844,8.898102
1008.941406,14.609618,3.217822,-1.403912,10.004806
1008.945312,7.328993,4.855544,8.304688,10.614763
1008.949219,-1.434153,-0.849992,-2.434073,-2.873545
1008.953125,-3.174652,-2.477083,-3.696780,-7.156672
1008.957031,-10.256584,6.786354,-8.333117,0.428002
1008.960938,-2.053965,-10.211739,0.278901,-2.637220
1008.964844,-4.070569,-12.848523,-5.063451,0.147600
1008.968750,-10.368777,-4.553799,-8.744116,-15.365338
1008.972656,-4.931627,-10.969961,-11.158242,-10.370184
1008.976562,-12.166235,-7.144306,-11.965566,-8.144015
1008.980469,-9.867847,-4.684694,-8.609022,-9.848162
1008.984375,-6.717145,-12.001230,-17.088116,-4.788490
1008.988281,0.679865,-7.641930,-7.434729,-8.823932
1008.992188,-6.382412,-7.078723,-10.414669,-9.618895
1008.996094,-0.752232,-0.368430,-7.272258,0.444472
1009.000000,5.358243,-0.234701,1.639431,-8.886457
1009.003906,5.590310,5.066271,13.290673,1.865101
1009.007812,2.548484,2.752442,4.734749,8.430136
1009.011719,7.899400,15.377866,10.854642,11.390109
1009.015625,3.497990,4.612465,6.357796,5.869540
1009.019531,18.368256,6.222528,12.293403,11.487907
1009.023438,-1.182267,7.044445,11.614423,5.988122
1009.027344,5.350419,7.854621,7.117280,10.205974
1009.031250,6.294270,11.494046,10.347033,10.925881
1009.035156,10.065345,8.700805,17.475814,3.669474
1009.039062,8.236386,4.418771,2.634468,8.272058
1009.042969,10.408330,7.695470,6.515673,4.198528
1009.046875,0.368878,0.250048,1.497175,5.410858
1009.050781,-3.836246,-2.650647,1.384128,5.450668
1009.054688,-8.148600,1.054246,1.070095,-0.918499
1009.058594,-6.139560,-6.347967,-5.678867,-4.832469
1009.062500,-8.531486,-8.872063,-1.915614,-13.236032
1009.066406,-12.926120,-9.243154,-9.095834,3.864098
1009.070312,-7.149371,-6.672704,-8.866035,-3.168823
1009.074219,-4.214361,-14.274888,-15.206650,-9.559706
1009.078125,-9.107185,-15.691812,-7.970397,-15.174508
1009.082031,-6.324273,-14.687692,-10.336253,-11.413368
1009.085938,-4.774426,-3.844263,-7.391918,-6.351191
1009.089844,-2.534373,-4.406463,-10.663877,-6.121320
1009.093750,1.289789,-5.911585,-5.839649,1.358981
1009.097656,1.584658,-0.710720,-0.625041,3.352930
1009.101562,4.121270,0.395928,-1.652003,-5.583474
1009.105469,1.717377,12.010951,8.794611,3.604161
1009.109375,10.359342,3.468959,3.663329,10.494617
1009.113281,9.998373,10.821251,12.075284,10.239643
1009.117188,10.957760,-0.595932,2.650891,8.657841
1009.121094,9.225423,13.501510,5.911595,10.502380
1009.125000,8.736710,14.256667,10.247921,5.363091
1009.128906,7.611998,14.704961,11.454066,4.917772
1009.132812,11.487524,13.336232,3.904070,15.401106
1009.136719,9.380763,11.339209,5.089043,10.914111
1009.140625,4.535674,-3.030531,1.961198,-0.296516
1009.144531,5.684780,2.804211,5.647546,0.510371
1009.148438,-5.470881,-4.473872,0.688018,0.575939
1009.152344,-3.350268,1.248983,0.658576,-1.617476
1009.156250,-1.197525,-0.765998,-6.439735,-3.947295
1009.160156,-12.340875,-10.535838,-6.072243,-4.759775
1009.164062,-7.160309,-7.630270,-8.762800,-9.286220
1009.167969,-10.158926,-11.654242,-10.408032,-8.868721
1009.171875,-9.325894,-11.256632,-11.251294,-9.671415
1009.175781,-19.127918,-5.961683,-11.732263,-13.672490
1009.179688,-7.950082,-9.406567,-4.908215,-17.531262
1009.183594,-8.889872,-7.059413,-12.934144,-11.001410
