timestamp,TP9,AF7,AF8,TP10
1000.000000,-9.143014,-4.953580,4.888807,8.501052
1000.003906,9.862830,-2.222343,-2.127052,1.610422
1000.007812,3.735960,3.841713,10.894358,4.546750
1000.011719,7.991035,3.755999,6.053513,6.215218
1000.015625,6.076193,9.826704,8.308194,7.267574
1000.019531,10.921433,8.022980,11.397056,4.973286
1000.023438,3.782878,7.000980,8.212913,10.722186
1000.027344,3.526604,5.713628,7.732428,8.271262
1000.031250,10.956249,11.024949,6.424890,6.521315
1000.035156,12.034900,4.127988,7.319316,11.267454
1000.039062,8.862228,10.191641,11.710983,5.583262
1000.042969,4.672250,0.828724,6.353720,4.389795
1000.046875,-1.985625,2.587437,0.262899,-0.808847
1000.050781,-4.407784,6.913117,1.798073,0.785955
1000.054688,-0.343230,-7.970914,-6.568643,-4.348455
1000.058594,-4.616045,-8.036356,-2.781815,-2.403608
1000.062500,-10.563899,-3.544470,-9.607965,-9.775371
1000.066406,-6.335460,-0.014874,-10.508856,-5.978936
1000.070312,-12.078446,-6.110086,-8.752128,-11.443949
1000.074219,-9.823677,-5.982558,-9.179392,-6.831809
1000.078125,-10.202350,-10.267263,-5.066009,-4.534295
1000.082031,-9.974783,-7.622327,-4.976101,-8.103784
1000.085938,-11.669799,-5.779794,-5.995980,0.089116
1000.089844,-8.984363,-0.312137,-1.626289,-9.312061
1000.093750,-10.351503,4.678667,-10.422870,-11.607734
1000.097656,-2.153099,-1.990669,-0.451586,-2.925061
1000.101562,0.313013,-1.787396,1.672647,-1.812712
1000.105469,3.713874,9.840797,1.807770,6.195359
1000.109375,3.472913,5.582278,11.604186,8.976620
1000.113281,12.174267,12.053981,13.544077,4.983486
1000.117188,9.694996,8.328799,3.244493,10.774010
1000.121094,15.476048,8.307104,8.431256,15.019778
1000.125000,5.741855,10.974993,13.246416,6.135127
1000.128906,11.577519,15.197854,9.666326,10.590488
1000.132812,11.835454,12.632697,16.121307,9.208508
1000.136719,-1.270332,9.309824,9.092676,6.424218
1000.140625,11.813633,0.898640,5.720055,0.969037
1000.144531,7.923091,4.600081,1.425712,4.780750
1000.148438,1.722878,-3.700384,3.426372,6.823187
1000.152344,-4.794869,-10.907496,-2.206547,-11.630533
1000.156250,-7.412645,-0.852388,0.291335,-2.328471
1000.160156,-12.631594,-11.888672,-3.561538,-1.200765
1000.164062,-6.299524,-8.238435,-8.894841,-4.928584
1000.167969,-9.192591,-11.060205,-9.227957,-11.905500
1000.171875,-15.355532,-13.417265,-9.344901,-13.982267
1000.175781,-3.790143,-7.515374,-10.649703,-9.167697
1000.179688,-13.070073,-2.540766,-13.935985,-13.020481
1000.183594,-7.382364,-10.466125,-11.945389,-2.113060
1000.187500,-6.307590,-5.691876,-5.923073,-10.416326
1000.191406,-10.382649,-5.146545,-3.640231,-6.946834
1000.195312,2.644711,1.868851,-5.741428,1.332375
1000.199219,-3.595856,3.619075,6.203128,-0.128415
1000.203125,1.019656,-5.849988,-5.890441,5.565359
1000.207031,6.416879,11.425806,6.764790,6.254949
1000.210938,3.762554,13.105553,6.103258,4.060057
1000.214844,8.846159,3.313189,8.740385,9.022665
1000.218750,18.395144,15.351622,3.921867,11.456336
1000.222656,10.395729,15.795832,10.175054,12.303366
1000.226562,19.633650,6.080894,12.859349,8.434368
1000.230469,5.663929,1.393089,12.174290,8.090906
1000.234375,8.123785,10.702710,5.714025,15.194535
1000.238281,10.241340,8.043982,8.930871,11.097857
1000.242188,0.984549,4.050104,6.908992,-0.119487
1000.246094,4.956556,4.470795,2.111217,-0.584826
1000.250000,-3.993641,-6.295769,4.446948,1.866506
1000.253906,-8.650670,-3.960055,-6.766074,-0.161496
1000.257812,-4.740609,-4.787537,-7.952176,-6.126543
1000.261719,-6.900901,-1.184895,-3.687655,-5.128692
1000.265625,-5.298221,-12.368310,-10.341385,-4.319400
1000.269531,-7.960399,-5.994573,-12.248587,-11.304382
1000.273438,-9.192394,-7.524869,-10.926799,-2.794802
1000.277344,-5.061046,-9.480607,-7.610286,-9.171257
1000.281250,-7.468725,-5.936909,-10.649024,-4.596843
1000.285156,-7.230066,-11.426956,-8.976247,-11.789269
1000.289062,-8.392812,-7.695731,-4.576795,-7.109149
1000.292969,0.641217,-2.612369,-6.995144,0.219740
1000.296875,-2.166429,0.333817,-5.230242,-3.517165
1000.300781,1.518408,1.142369,-1.411213,-3.142578
1000.304688,2.066185,1.236774,0.329101,6.898377
1000.308594,3.624171,10.942762,7.808694,0.976987
1000.312500,0.344912,2.925692,5.398790,5.567895
1000.316406,6.877312,12.528600,9.270267,6.260238
1000.320312,11.726185,12.422092,13.369591,18.530005
1000.324219,8.880688,10.077423,12.746866,10.709913
1000.328125,13.236753,14.491813,14.794810,8.144904
1000.332031,9.785028,4.485677,8.194771,7.828712
1000.335938,14.222820,1.770921,10.202821,7.139988
1000.339844,5.771653,6.105934,-0.568268,11.642482
1000.343750,5.324132,0.242613,3.223024,0.702490
1000.347656,4.194613,-1.299663,3.699907,5.866985
1000.351562,-3.905536,-2.014710,-0.012815,5.080412
1000.355469,-3.929015,0.013694,4.510278,-6.204286
1000.359375,-4.788148,-1.570278,-7.445916,-5.836243
1000.363281,-10.782958,-12.574283,-6.697774,-4.658734
1000.367188,-14.379480,-14.700725,-8.702318,-2.426458
1000.371094,-12.297502,-3.407774,-2.460111,-7.748810
1000.375000,-2.252701,-13.308834,-11.887249,-11.592946
1000.378906,-14.462803,-4.711183,-3.719562,0.785253
1000.382812,-12.382479,-13.624440,-12.725341,-10.399139
1000.386719,-9.377618,-8.133933,-4.540606,-5.903415
1000.390625,5.766200,-4.042401,-6.607766,-15.883784
1000.394531,-0.545533,-6.349553,-3.797602,-3.107789
1000.398438,0.110810,-3.212645,-3.392780,-7.598063
1000.402344,1.256002,3.374194,2.451819,-5.898956
1000.406250,9.782209,-3.722444,0.415691,4.692188
1000.410156,3.496562,5.045992,12.111585,9.484477
1000.414062,12.777235,4.188601,5.411162,12.012552
1000.417969,2.162636,6.070231,8.612267,9.740936
1000.421875,15.418668,12.381906,14.346002,13.941048
1000.425781,11.082404,5.264239,15.684858,11.950728
1000.429688,6.145305,6.302254,8.230807,3.951856
1000.433594,15.422852,11.191395,10.461083,12.821406
1000.437500,16.952981,8.472926,10.412470,8.567011
1000.441406,5.502406,4.758371,5.151152,5.783615
1000.445312,0.866803,3.025895,-1.369720,5.589610
1000.449219,4.014568,-3.275729,-2.433481,-5.515320
1000.453125,-4.682353,-3.114129,-2.399441,4.037338
1000.457031,2.628049,-1.536757,-2.284241,-6.143019
1000.460938,-8.505183,-6.456588,-8.035413,-7.123031
1000.464844,-11.073855,-6.200697,-6.769383,-14.364564
1000.468750,-13.697669,-10.749747,-12.076297,-7.538715
1000.472656,-11.231098,-15.653506,-2.311848,-8.375277
1000.476562,-6.688854,-5.601722,-12.543548,-8.842592
1000.480469,-13.132554,-15.144263,-12.154049,-10.689146
1000.484375,-8.842176,-1.615935,-8.025591,-3.536108
1000.488281,-13.727428,-1.478526,-9.957447,-7.548947
1000.492188,-2.562140,-3.919160,-4.922299,1.398713
1000.496094,1.235104,-10.945484,-2.066734,-7.127008
1000.500000,-5.624624,0.302958,-2.606065,-2.867860
1000.503906,1.109068,3.467843,-0.235156,-2.034188
1000.507812,9.402865,4.737755,2.924793,7.969249
1000.511719,4.302699,1.602006,3.286221,3.158880
1000.515625,7.410538,5.789453,3.854246,5.134978
1000.519531,0.547524,11.762792,4.059630,8.003907
1000.523438,6.702769,11.689539,9.839674,16.108028
1000.527344,11.033361,10.102308,9.704789,14.567627
1000.531250,9.926494,7.722188,8.121421,4.121652
1000.535156,5.787090,10.209123,7.415720,12.246664
1000.539062,0.794163,4.520487,15.677687,14.517985
1000.542969,6.603308,9.081260,1.834585,6.794309
1000.546875,0.713207,6.130869,-6.870125,4.035713
1000.550781,6.931868,-2.486269,-4.384567,3.332844
1000.554688,-1.750836,-0.848994,-0.057076,-2.871758
1000.558594,-4.874663,-7.025006,-4.884554,-12.275166
1000.562500,-9.828303,-9.075988,-8.563847,-5.543163
1000.566406,-3.354310,-8.437802,-6.163344,-8.749666
1000.570312,-5.765615,-13.196964,-4.260299,-11.398727
1000.574219,-7.673118,-5.778428,-6.844436,-8.828086
1000.578125,-18.029199,-10.347655,-7.690201,-5.827783
1000.582031,-11.706000,-6.409407,-12.043721,-15.327066
1000.585938,-6.379081,-6.725382,-5.795040,-7.562978
1000.589844,-10.998156,-9.130990,-1.475496,-0.809950
1000.593750,-7.758030,-1.614549,-1.436096,3.851732
1000.597656,-3.924832,-2.173313,2.254465,0.479892
1000.601562,3.296891,-2.622489,-0.183071,-1.530099
1000.605469,1.775838,1.480673,-2.026507,-1.842810
1000.609375,0.031084,11.783629,10.146296,10.590396
1000.613281,5.781351,13.997797,7.438402,8.056750
1000.617188,7.114002,10.489970,4.069686,13.487450
1000.621094,10.963115,11.898289,13.409619,10.846395
1000.625000,13.679489,9.423795,6.668434,15.704340
1000.628906,11.047033,8.108684,10.973006,15.390541
1000.632812,15.338136,6.956928,13.961245,12.403045
1000.636719,2.287555,5.900450,6.192754,8.051749
1000.640625,1.122866,9.786984,9.224187,6.614855
1000.644531,0.165542,3.000347,4.079833,1.650196
1000.648438,-3.032129,-3.731085,0.033295,-5.425153
1000.652344,3.133330,-7.911193,2.562633,-0.580157
1000.656250,-1.301004,1.261171,-3.896653,-0.987485
1000.660156,2.291361,-2.865781,-5.246252,-6.648853
1000.664062,-6.785692,-13.260572,-13.735999,-1.361202
1000.667969,-3.863841,-6.440267,-10.545575,-12.471289
1000.671875,-12.143377,-19.686244,-9.719682,-7.658217
1000.675781,-11.357827,0.086883,-8.722708,-2.762487
1000.679688,-19.676558,-15.561603,-7.327497,-10.372527
1000.683594,-4.456515,-9.770545,-7.092074,-8.409737
1000.687500,-3.037060,-5.514219,-11.310553,-4.695991
1000.691406,-1.879842,-6.972083,-3.172072,-5.080085
1000.695312,1.475492,1.051245,-7.157019,3.948153
1000.699219,7.380456,-0.151080,2.074789,0.114188
1000.703125,1.198384,-1.424599,-6.547755,6.345428
1000.707031,-2.307158,2.675486,3.189801,-4.071631
1000.710938,11.127847,3.455875,6.399611,3.044581
1000.714844,7.644787,7.681782,4.460005,6.797099
1000.718750,2.985489,2.902221,3.333379,13.450089
1000.722656,6.871092,16.286604,12.126957,12.672725
1000.726562,8.417171,11.652075,5.938203,1.947097
1000.730469,3.285062,7.733539,13.233910,11.798007
1000.734375,10.568853,5.559411,2.647037,3.899319
1000.738281,8.816678,2.657722,11.750273,6.739129
1000.742188,0.770047,2.895343,4.916848,6.701855
1000.746094,-1.082572,0.138058,2.685320,5.555289
1000.750000,-0.714802,-2.851243,-1.722384,1.631597
1000.753906,5.698411,-8.105269,-6.324333,-4.693658
1000.757812,1.497801,-1.974215,-7.450633,-11.245088
1000.761719,-0.043173,-7.251244,-6.788840,0.285588
1000.765625,-4.714925,-5.578866,-5.721706,-9.981479
1000.769531,-15.697169,-13.993800,-13.628183,-3.611818
1000.773438,-11.816029,-16.991249,-13.793337,-7.796334
1000.777344,-8.892523,-4.562657,-6.835990,-12.233151
1000.781250,-8.131003,-11.675084,-13.265853,-18.949907
1000.785156,-3.926783,-12.507521,-10.877287,1.145394
1000.789062,-0.325114,-5.540162,-9.385279,-5.514426
1000.792969,-8.803291,-1.772160,-6.293227,-3.538600
1000.796875,-9.930008,-0.759096,-1.780253,-2.665969
1000.800781,-2.605999,0.026953,6.372422,-1.821514
1000.804688,6.533746,6.108560,2.059810,6.267614
1000.808594,2.991508,3.293489,5.902664,2.988377
1000.812500,4.303361,9.953896,7.428721,3.022711
1000.816406,12.272314,1.363860,7.199920,11.777849
1000.820312,9.218308,8.735138,10.337777,16.911813
1000.824219,6.910783,16.981847,7.323265,7.127941
1000.828125,4.039899,12.316454,4.392225,7.767286
1000.832031,8.286197,11.086597,15.490375,9.845047
1000.835938,4.183819,13.126405,5.768633,2.791664
1000.839844,9.500175,11.660413,13.700023,7.640190
1000.843750,1.905757,1.321787,6.875044,4.946078
1000.847656,1.351700,-0.203429,9.491438,1.205638
1000.851562,2.912594,2.960862,-0.074842,2.347560
1000.855469,-7.721853,-1.336711,0.799017,-7.337074
1000.859375,-0.937562,-8.470826,-5.181295,-9.856171
1000.863281,-6.949618,-6.121601,-7.775595,-4.711257
1000.867188,-14.633993,-4.029948,-10.294088,-9.222488
1000.871094,-7.314437,-3.002654,-6.657927,-8.833519
1000.875000,-6.575795,-14.548368,-9.557373,-13.115199
1000.878906,-7.321646,-13.047033,-4.115009,-8.015641
1000.882812,-8.206821,-4.154078,-5.217185,-3.394708
1000.886719,-12.870143,-8.449059,-5.949959,-8.815397
1000.890625,-5.909232,-2.903664,-1.678958,-1.990126
1000.894531,3.699213,-1.371437,-7.466029,-7.301177
1000.898438,-2.087790,-1.766719,-4.083447,-5.236003
1000.902344,3.555956,-4.209145,10.000751,1.792908
1000.906250,5.928981,-5.364683,3.023895,6.190354
1000.910156,4.989322,5.860930,3.152062,4.399096
1000.914062,-0.218103,-1.866203,2.817619,8.260748
1000.917969,0.242886,5.013658,3.629877,8.438842
1000.921875,6.585847,10.517116,7.887331,4.320118
1000.925781,9.762358,-2.657463,14.496307,10.546780
1000.929688,8.266851,12.882958,5.670305,6.905566
1000.933594,3.432715,5.186903,2.704007,8.524460
1000.937500,4.614086,6.671840,4.503078,15.981997
1000.941406,9.165609,1.423413,8.110521,6.870096
1000.945312,-1.196465,4.191093,0.057823,7.790865
1000.949219,1.071455,4.122526,-3.213267,-3.276282
1000.953125,-1.021308,-3.687696,-2.048080,-12.162261
1000.957031,-14.996927,-5.271429,-1.805560,-10.114668
1000.960938,-3.334061,1.263276,-6.806802,-2.126653
1000.964844,-1.593030,-6.276266,-9.402677,-1.032686
1000.968750,-3.730270,-3.053415,-11.650122,-9.930365
1000.972656,-4.795060,-9.936004,-9.585348,-13.834091
1000.976562,-5.197653,-14.050555,-10.435126,-11.260771
1000.980469,-5.729680,-13.382938,-8.300460,-18.931278
1000.984375,-5.670203,-18.443138,-15.219768,-5.397393
1000.988281,-6.560442,-7.003129,-9.057823,-7.678932
1000.992188,-5.251469,-1.743073,0.075218,-5.989499
1000.996094,2.090414,-3.092485,2.712991,-11.638321
1001.000000,0.474362,-4.208177,0.600338,8.480776
1001.003906,-2.049636,5.806563,6.302139,4.278905
1001.007812,-1.323159,3.677443,2.107123,5.779602
1001.011719,8.695161,7.881514,-1.896894,6.408590
1001.015625,7.485761,7.497142,10.275373,6.329042
1001.019531,4.620958,9.349830,7.082147,11.022630
1001.023438,6.712042,5.725816,7.135401,7.187059
1001.027344,0.703266,8.660530,9.629345,9.817929
1001.031250,18.154436,8.557172,7.003960,15.329183
1001.035156,5.832813,8.492413,10.973906,11.051774
1001.039062,4.251696,4.739478,8.933307,7.385883
1001.042969,3.869109,2.740094,3.576241,3.175111
1001.046875,-2.553949,7.080925,0.265121,-2.792036
1001.050781,-6.944591,-1.889284,-2.254551,-3.750525
1001.054688,-6.761397,-2.665853,-1.393346,-10.913792
1001.058594,-10.820037,-0.249200,-13.268700,-4.147166
1001.062500,-8.334384,-10.925441,-5.182213,-3.212356
1001.066406,-13.165304,-11.051228,-5.004475,-15.556537
1001.070312,-5.598064,-7.939215,-8.205529,-13.674178
1001.074219,-6.695963,-11.380654,-12.315480,-12.077352
1001.078125,-6.003074,-8.596609,-10.651148,-7.859459
1001.082031,-9.227824,-7.843800,-4.861922,-11.045872
1001.085938,-1.610644,-10.298577,-7.974655,-8.009226
1001.089844,-9.298187,-0.320276,-3.845812,-4.096707
1001.093750,-4.986670,2.112013,0.382792,-3.690743
1001.097656,-6.345769,-0.049702,-7.746716,-2.647878
1001.101562,-0.883571,10.022892,1.047721,1.239910
1001.105469,4.870012,-0.978968,2.379484,3.243564
1001.109375,0.896657,7.956226,6.603896,7.375677
1001.113281,4.606417,7.073626,4.163438,3.777893
1001.117188,4.808226,7.191022,7.289027,10.898360
1001.121094,12.521054,9.734520,7.879448,6.664482
1001.125000,11.098881,6.768492,8.954108,9.954755
1001.128906,12.457811,11.496326,5.057433,7.201268
1001.132812,10.237175,9.751303,8.619686,9.369441
1001.136719,3.591438,10.055658,10.920866,9.843582
1001.140625,7.315394,14.129134,6.075079,12.509268
1001.144531,1.718549,6.503068,0.849769,0.582179
1001.148438,0.071799,-2.846691,-0.597442,5.534649
1001.152344,-3.532347,0.284907,-2.395416,-2.147613
1001.156250,-2.766534,-4.118974,-4.674200,-2.697716
1001.160156,-3.641298,-15.598476,-7.611789,-9.834286
1001.164062,-5.547920,-6.981028,-10.965671,-12.146903
1001.167969,-11.022257,-13.491401,-2.968359,-15.317226
1001.171875,-10.038235,-9.052552,-12.732416,-6.130005
1001.175781,-6.245235,-13.999467,-9.141677,-12.283590
1001.179688,-11.523250,-7.717844,-4.814585,-7.853354
1001.183594,-14.443755,-10.336064,-7.271621,-12.612174
1001.187500,-4.298734,-3.321119,-9.107017,-5.515530
1001.191406,-8.905692,-7.191357,-5.236071,-2.840252
1001.195312,-4.113186,-3.880968,3.109159,-7.056234
1001.199219,-2.299057,-2.015789,-1.597164,1.367467
1001.203125,-4.721455,-1.005066,-7.624643,3.273507
1001.207031,2.602594,10.508136,6.025936,-4.536077
1001.210938,11.296033,4.957944,15.348878,9.455998
1001.214844,8.245781,10.102220,4.288598,16.441254
1001.218750,10.309239,10.414082,4.340879,7.593161
1001.222656,10.742530,11.886796,9.354467,9.283007
1001.226562,10.579505,8.377579,12.655554,10.585971
1001.230469,10.772218,9.058117,6.343035,9.508858
1001.234375,6.077008,7.184266,5.118707,14.600171
1001.238281,7.631127,2.816118,12.264874,8.275838
1001.242188,-0.217926,11.430267,11.164193,6.843208
1001.246094,-3.039411,14.194166,6.032696,10.610400
1001.250000,-2.482333,-0.717545,-0.577340,2.494172
1001.253906,-4.527042,-5.159461,-5.649051,1.530291
1001.257812,-9.487314,-6.867370,-5.745863,-11.055680
1001.261719,-8.451848,-14.185230,-4.313994,-8.953874
1001.265625,-5.518013,-10.449128,-6.605096,-11.053099
1001.269531,-5.046555,-11.354863,-19.313235,-4.520299
1001.273438,-7.088705,-4.896688,-3.859335,-15.253614
1001.277344,-10.966460,2.082829,-17.661018,-7.832272
1001.281250,-10.043106,-11.398487,-8.688505,-8.337102
1001.285156,-10.394585,-7.615377,-7.965421,-8.620603
1001.289062,-10.120942,-8.131279,-8.043405,-8.058874
1001.292969,-2.174586,-1.420359,-2.087906,-7.238299
1001.296875,-3.308552,4.077807,-4.880446,-1.476791
1001.300781,1.058851,5.652626,1.229999,0.499944
1001.304688,7.822018,4.895112,3.261017,1.091054
1001.308594,5.686212,8.704331,5.567114,8.339868
1001.312500,-3.368024,3.169120,11.686146,2.312190
1001.316406,10.802303,5.742414,6.298817,3.632964
1001.320312,12.902117,13.852715,13.938849,9.712344
1001.324219,13.155345,8.236081,15.045798,7.127403
1001.328125,3.809435,3.982771,11.582777,6.622210
1001.332031,7.771053,11.031214,3.028034,12.410022
1001.335938,4.130334,7.719914,7.636623,6.437037
1001.339844,-0.927359,2.410513,8.100736,5.231354
1001.343750,1.832364,1.764378,3.100258,4.135195
1001.347656,4.733017,1.506068,-0.799534,-1.069433
1001.351562,-3.277110,3.653764,-2.975835,-2.859298
1001.355469,-4.096775,-6.017572,-7.242116,-8.444293
1001.359375,-4.753017,-5.659648,2.043526,-3.486855
1001.363281,-2.436208,-10.333505,-13.439081,-4.038626
1001.367188,-14.502925,-10.256802,-7.139927,-9.374443
1001.371094,-15.178635,-11.790787,-10.785671,-0.307857
1001.375000,-9.158803,-6.946865,-8.698798,-11.449321
1001.378906,-7.108813,-6.850533,-7.207912,-6.617533
1001.382812,-2.165873,-9.578114,-8.641353,-8.491315
1001.386719,-6.918799,-8.726235,-9.200881,-7.195363
1001.390625,-9.501620,-7.717660,0.930400,-7.732771
1001.394531,-7.156289,-1.049356,-0.609533,-12.039018
1001.398438,-2.572197,-6.624684,0.886155,0.713169
1001.402344,2.565660,4.181241,2.459588,6.115368
1001.406250,2.627420,10.513822,7.810338,5.913263
1001.410156,11.735319,6.165925,10.386961,7.466569
1001.414062,0.547455,6.595480,8.742921,7.394197
1001.417969,11.060842,11.397237,4.117008,12.718638
1001.421875,9.543794,9.984104,3.818333,10.426721
1001.425781,12.038055,7.948202,10.945350,7.270937
1001.429688,5.188881,5.348920,19.889000,8.643301
1001.433594,4.213448,6.878623,4.803714,6.833614
1001.437500,13.637998,5.809600,8.426297,3.594444
1001.441406,4.057558,-2.144071,4.909283,12.491573
1001.445312,-2.171078,3.184555,3.852613,-1.383885
1001.449219,4.097434,-0.560311,-4.009552,1.463442
1001.453125,-1.215216,-1.688950,1.107888,1.071591
1001.457031,-1.452194,-6.062676,-4.412665,-6.883848
1001.460938,-4.447019,-2.991810,-6.074839,-7.792175
1001.464844,-1.630521,-3.009195,-7.406809,-3.455014
1001.468750,-4.588754,-11.277671,-11.946778,-11.257728
1001.472656,-8.565371,-11.896706,-17.650617,-12.055504
1001.476562,-9.859551,-7.298955,-5.704619,-6.944152
1001.480469,-4.748835,-12.490872,-8.148942,-7.921177
1001.484375,-8.241906,-6.963426,-5.702956,-10.918907
1001.488281,-7.531809,-3.347770,-8.682099,-7.965157
1001.492188,-6.415868,-12.710023,-8.811260,-1.673284
1001.496094,4.143362,4.217901,2.379516,2.219688
1001.500000,-9.841808,-0.227915,-0.778164,-7.245729
1001.503906,8.602613,-0.689035,6.813809,12.450813
1001.507812,6.157440,5.166872,-1.179025,3.200507
1001.511719,6.012801,4.606787,4.394284,6.327163
1001.515625,4.440051,10.844895,8.973241,-2.486910
1001.519531,14.681159,6.053190,3.095195,9.375790
1001.523438,8.347139,6.547656,14.538880,14.040125
1001.527344,7.828030,2.242159,10.445645,4.363553
1001.531250,8.408382,8.583568,2.297618,8.506989
1001.535156,14.758365,13.586920,2.351031,7.167916
1001.539062,7.698617,9.009110,8.094132,5.545818
1001.542969,1.968721,1.035649,4.326988,1.056391
1001.546875,4.655465,7.822377,2.664429,-3.475155
1001.550781,-1.691560,-4.622400,-5.865423,0.796656
1001.554688,-7.449964,-3.712686,-6.709899,-2.125733
1001.558594,-4.413078,-1.345459,-6.901381,-1.944645
1001.562500,-3.033200,3.436040,-9.718264,-8.226177
1001.566406,-7.875596,-10.017655,-9.662706,-10.898441
1001.570312,-6.739919,-13.684416,-9.585699,-7.676239
1001.574219,-10.232549,-20.695972,-8.139584,-10.839404
1001.578125,-15.195449,-3.368917,-6.342710,-4.587949
1001.582031,-4.400026,-6.083222,-10.534531,-12.781896
1001.585938,-5.602097,-7.222273,-9.424572,-7.626359
1001.589844,-10.008981,-7.752914,-4.214727,-0.722476
1001.593750,-3.221471,0.376431,-3.472596,-8.731363
1001.597656,1.483624,-3.663729,-2.297361,3.812422
1001.601562,1.125187,1.179053,-1.609804,-1.135362
1001.605469,5.691717,4.110154,2.838146,-4.408357
1001.609375,6.155562,3.065020,7.849860,5.607579
1001.613281,7.919089,8.047240,6.945241,5.667385
1001.617188,14.614958,9.732749,14.189259,13.119121
1001.621094,12.143814,10.280969,3.693165,6.157064
1001.625000,20.226102,6.847922,12.848129,12.707006
1001.628906,15.608274,5.859940,-2.354131,14.567573
1001.632812,4.282923,1.589514,5.000774,23.039583
1001.636719,3.366684,0.518473,5.716876,5.105629
1001.640625,3.772355,6.387601,6.714400,4.070363
1001.644531,4.444744,2.434175,6.295268,4.324652
1001.648438,5.856839,-6.561034,4.736339,2.187085
1001.652344,0.672981,2.227111,-3.090570,2.336480
1001.656250,0.689079,-4.314202,-6.938028,-5.868001
1001.660156,-3.221008,-4.160378,3.221643,-0.440356
1001.664062,-5.431192,-10.398304,-4.067958,-9.022392
1001.667969,-10.869993,-7.203256,-11.288744,-12.194769
1001.671875,-9.058627,-10.794260,-8.018126,-15.185779
1001.675781,-14.164425,-10.902135,-15.619965,-4.332458
1001.679688,-9.750457,-8.205068,-12.432462,-11.768353
1001.683594,-10.058243,-11.405394,-3.538214,-8.558396
1001.687500,-10.930905,-9.180393,-4.519653,-6.868314
1001.691406,-6.985850,-1.816666,-12.457857,-7.012317
1001.695312,-4.656969,-3.328985,0.412294,-0.593125
1001.699219,0.947879,3.050438,9.737607,-2.740733
1001.703125,4.076483,2.327634,6.040060,10.702941
1001.707031,5.663228,9.024323,7.118200,8.163568
1001.710938,4.163675,19.080620,8.436202,6.475804
1001.714844,3.830405,11.944615,11.197829,5.104624
1001.718750,8.510082,7.415183,7.927912,6.324348
1001.722656,12.564657,11.774224,6.944530,11.258270
1001.726562,5.660893,6.624338,12.949220,12.116681
1001.730469,3.657016,7.424622,4.983688,7.598913
1001.734375,7.391067,6.535707,4.387144,14.003390
1001.738281,9.543718,5.553165,8.683071,6.951840
1001.742188,12.410435,6.132232,6.075531,7.429789
1001.746094,-2.716909,4.058395,7.015056,4.327059
1001.750000,-2.366455,-1.975259,0.878021,-0.143788
1001.753906,-5.249034,1.511852,-5.844937,-0.892114
1001.757812,1.567914,-3.817773,-1.321122,-4.542729
1001.761719,-8.317282,-2.733113,-3.228380,-6.785055
1001.765625,-11.093905,-4.543330,-12.938542,-3.585563
1001.769531,-11.946347,-4.427173,-14.671587,-13.149645
1001.773438,-14.167665,-6.988047,-12.045021,-6.997019
1001.777344,-12.104983,-2.082515,-8.863971,-5.902166
1001.781250,-2.910628,-15.698379,-15.817644,-9.497065
1001.785156,-9.224084,-7.394651,-6.693738,-3.958953
1001.789062,-8.899854,-8.697943,-2.985496,-6.991956
1001.792969,-5.071599,-3.743793,-9.193962,3.681142
1001.796875,1.764201,-1.869470,-3.276069,-9.241912
1001.800781,-3.739210,3.265587,3.441403,-1.565434
1001.804688,3.373927,4.670271,1.932007,-0.815629
1001.808594,7.721736,5.711498,-4.604225,4.395695
1001.812500,12.974173,8.496415,2.663602,6.898040
1001.816406,6.834506,14.821970,8.618351,8.146519
1001.820312,12.689549,2.262269,15.944503,16.253566
1001.824219,10.018628,11.215355,16.169223,10.564847
1001.828125,6.083487,4.603149,18.814552,5.528704
1001.832031,8.399686,5.318188,11.102271,5.168707
1001.835938,9.430812,-0.585490,8.643658,9.001486
1001.839844,7.328127,7.908986,2.263354,7.936826
1001.843750,0.495931,6.591398,9.260735,7.639609
1001.847656,-1.279235,-3.224694,2.263543,0.615126
1001.851562,-0.497624,2.117294,-6.635748,1.488252
1001.855469,-1.281018,-3.327933,3.072551,-3.014291
1001.859375,-7.469118,-10.493173,-4.438086,-4.635627
1001.863281,-14.629759,-7.732763,-0.511550,-5.816604
1001.867188,-17.882672,-13.122511,-6.880047,-12.115259
1001.871094,-16.333231,-7.498777,-4.791032,-12.376535
1001.875000,-10.727624,-9.756830,-13.666503,-3.450153
1001.878906,-4.789549,-10.867363,-4.335512,-3.505977
1001.882812,-3.704302,-7.413784,-7.374983,-7.648165
1001.886719,-17.438002,-6.340535,-3.784940,-6.218281
1001.890625,-5.431113,-7.198265,-12.409631,-8.732458
1001.894531,3.679728,-0.747148,-2.934188,-6.840094
1001.898438,-0.690204,-0.974538,-5.143525,-2.706484
1001.902344,4.339619,4.493233,3.395310,1.510945
1001.906250,3.744638,0.195906,5.070478,6.763775
1001.910156,8.646206,10.524157,18.547144,6.496241
1001.914062,5.664983,8.168621,2.422609,7.223678
1001.917969,16.225057,2.801859,7.110872,6.784565
1001.921875,5.628850,12.989929,3.636880,7.328282
1001.925781,9.083023,12.636665,2.632704,6.199729
1001.929688,8.984811,10.753586,7.075994,9.737139
1001.933594,4.917209,3.845981,10.008871,4.269989
1001.937500,13.257179,12.047568,5.618763,9.162338
1001.941406,8.775381,6.815512,-0.309439,8.988300
1001.945312,0.728907,1.435546,4.564871,3.560457
1001.949219,5.376301,-5.215981,6.396665,3.941212
1001.953125,-7.995883,5.795969,0.095541,-2.021769
1001.957031,-9.824168,-7.378914,-3.445432,-7.491457
1001.960938,-10.743681,-2.072552,-7.708766,-3.032060
1001.964844,-12.686390,-9.508285,-4.816364,-5.899025
1001.968750,-12.074873,-10.821873,-10.563442,-7.299486
1001.972656,-10.977123,-4.244754,-11.984002,-7.800309
1001.976562,-5.549186,-9.789405,-11.066087,-9.739152
1001.980469,-6.911393,-6.477158,-13.259450,-11.370960
1001.984375,-7.893094,-6.670238,-6.288584,-8.450229
1001.988281,-2.216496,-8.931178,-11.142850,-4.482800
1001.992188,-9.763029,-11.407630,-1.745567,-9.679035
1001.996094,-4.704323,-5.235560,-6.489474,-9.250787
1002.000000,-8.256655,3.273715,2.427882,0.737073
1002.003906,2.046946,3.595067,1.471564,1.438640
1002.007812,1.269934,6.803319,2.128900,4.702037
1002.011719,0.823089,11.540449,12.908487,9.832102
1002.015625,19.097318,6.207023,9.799704,11.995564
1002.019531,9.790155,5.351941,10.235853,8.986513
1002.023438,8.661085,11.566875,4.922502,-0.773251
1002.027344,10.261570,5.738463,10.178772,8.955005
1002.031250,11.166536,10.537783,11.225664,7.602657
1002.035156,6.479351,12.696277,5.567102,13.231271
1002.039062,8.028039,10.452708,6.755520,3.586621
1002.042969,-1.561596,12.567022,10.600652,5.212739
1002.046875,-0.731999,-6.489835,0.930367,9.547069
1002.050781,0.384302,-2.292862,-11.263001,-0.191789
1002.054688,-10.156764,1.287776,3.643893,-8.658878
1002.058594,-9.409192,-13.873887,-4.829706,-10.791660
1002.062500,-2.795749,-7.572425,-15.752837,-1.893046
1002.066406,-7.738383,-2.041926,-6.156778,-8.337046
1002.070312,-7.902898,-10.548090,-5.304818,-10.108301
1002.074219,-20.764560,-16.256367,-7.553251,-1.741695
1002.078125,-11.139952,-6.091900,-7.893842,-8.192447
1002.082031,-8.709689,-3.552843,-9.004362,-11.012627
1002.085938,-1.931131,-0.504777,-7.088470,-7.315942
1002.089844,-7.474315,-2.690318,1.786483,-2.986984
1002.093750,-5.267292,0.499484,-4.686046,-2.308334
1002.097656,6.786090,-2.748448,-0.054666,-3.664705
1002.101562,2.255941,1.708197,4.934525,6.914214
1002.105469,-0.452494,2.620927,1.156965,10.301040
1002.109375,-1.086467,1.032721,9.049349,4.370493
1002.113281,0.858340,5.101137,4.226840,9.445465
1002.117188,10.148924,7.070771,8.131302,4.211997
1002.121094,2.375163,10.232063,11.122365,3.530565
1002.125000,8.679763,17.563106,8.408144,6.069465
1002.128906,8.163937,11.657265,13.584757,9.011558
1002.132812,4.869686,7.513820,5.571600,13.247791
1002.136719,9.060504,11.702584,9.168295,8.627050
1002.140625,1.466510,-3.196092,4.886515,1.645388
1002.144531,3.696471,1.403678,4.318635,0.183714
1002.148438,-2.125725,-4.917055,2.631082,3.835770
1002.152344,-4.583355,-3.639521,-1.512828,3.977761
1002.156250,-7.711621,-3.916692,-2.330430,-3.010414
1002.160156,-7.103485,-1.592923,-7.619916,-1.024190
1002.164062,-1.861964,-13.533353,-10.350786,-9.651710
1002.167969,-7.932022,-8.586807,-6.739852,-8.509267
1002.171875,-12.375289,-15.141502,-6.615990,-17.332814
1002.175781,-18.868172,-15.332155,-9.452868,-13.694980
1002.179688,-9.363877,-13.364796,-10.104114,-10.408895
1002.183594,-11.036776,-11.489971,-8.831117,-7.653571
1002.187500,2.698120,-10.431728,-4.701759,-4.405502
1002.191406,-1.330446,3.567746,-4.374360,-2.973734
1002.195312,-8.256098,-4.844027,-2.130983,-0.851983
1002.199219,2.425496,2.175059,-5.334613,1.955182
1002.203125,0.054037,9.146925,2.625336,-0.264103
1002.207031,-0.264193,3.938252,11.420422,6.011933
1002.210938,2.500502,10.235459,9.012757,2.677826
1002.214844,12.851635,15.355733,1.316108,8.289203
1002.218750,4.385971,3.278892,12.013805,18.325111
1002.222656,2.175426,9.698663,14.624954,4.641268
1002.226562,14.501229,4.431907,7.337285,2.373386
1002.230469,8.764431,14.438941,10.560484,16.164981
1002.234375,10.957584,7.345855,4.839955,7.218332
1002.238281,8.949358,1.927908,8.197940,7.012665
1002.242188,10.108821,10.572862,4.040673,11.179865
1002.246094,5.524319,4.259096,1.614631,4.208500
1002.250000,0.866699,2.113825,-2.563328,2.146393
1002.253906,1.963242,-0.969575,-4.054876,2.661204
1002.257812,-5.602471,-1.932711,-0.645518,-4.860392
1002.261719,-4.053531,1.754462,-2.438120,-4.305799
1002.265625,-13.546813,-15.903060,-5.610335,-14.426153
1002.269531,-10.085106,-16.140775,-3.436372,-13.919361
1002.273438,-9.819573,-1.016111,-13.845445,-8.945251
1002.277344,-10.378414,-8.126792,-12.248375,-3.573598
1002.281250,-7.812440,-12.340709,-7.990202,-10.210023
1002.285156,-11.082854,-8.291413,-6.189956,-3.554206
1002.289062,-1.758408,-7.806310,-10.212768,-11.009535
1002.292969,-2.090316,6.408814,-6.601327,-0.115546
1002.296875,0.619298,-7.508510,-9.003118,4.471972
1002.300781,0.415281,-9.195034,-2.395030,-0.974000
1002.304688,3.318302,1.755646,2.475636,-2.452324
1002.308594,4.430209,11.162928,0.408178,3.695994
1002.312500,9.323690,9.240944,9.397774,5.073327
1002.316406,8.413747,9.223529,6.026754,5.915340
1002.320312,2.207424,4.476580,6.807525,8.578132
1002.324219,13.606417,5.192689,6.658047,-0.085908
1002.328125,10.472351,10.043494,13.383234,12.298147
1002.332031,14.892837,10.521197,12.956490,1.661054
1002.335938,11.147662,8.862185,12.958980,3.726029
1002.339844,9.113785,3.291202,8.177970,2.845764
1002.343750,-4.389552,4.620400,3.553261,-3.230913
1002.347656,-3.302448,-0.770866,2.448622,-1.694045
1002.351562,-4.962490,-6.280136,0.036453,-2.440773
1002.355469,-3.840697,7.125006,-0.428412,-11.229764
1002.359375,-5.508561,-12.430614,-5.407752,-9.704429
1002.363281,-5.381949,-11.905903,-10.296017,-6.992819
1002.367188,-13.748297,-18.644660,-14.324998,-4.993873
1002.371094,-16.124015,-4.058713,-1.054208,-9.393045
1002.375000,-1.040981,-3.731696,-9.074929,-8.384274
1002.378906,-15.059823,-12.103858,-14.883044,-12.431461
1002.382812,-8.578081,-7.832428,-14.742585,-8.682823
1002.386719,-0.068709,-5.212819,-12.528522,-10.167343
1002.390625,-6.573785,-11.789206,-7.098807,-2.354984
1002.394531,2.422093,-3.893606,-1.036339,-16.354139
1002.398438,-8.389614,-2.648665,-1.855670,-9.763262
1002.402344,-7.398363,3.812651,-1.543314,4.808225
1002.406250,-0.254560,6.851058,4.019311,0.137680
1002.410156,1.676813,4.278401,9.259743,9.485019
1002.414062,3.715320,0.461691,3.588891,8.381866
1002.417969,10.093403,6.568242,3.448107,14.019474
1002.421875,11.039791,1.516687,9.952241,2.877809
1002.425781,13.821776,15.679281,10.036486,9.534438
1002.429688,1.184363,8.773627,16.528965,0.047579
1002.433594,14.729138,11.995923,7.029937,7.865493
1002.437500,7.921570,4.476422,11.560933,4.669434
1002.441406,5.095697,8.927651,-0.434804,8.275804
1002.445312,4.665446,0.402374,5.670012,-4.449073
1002.449219,-4.413844,1.987812,-5.607241,-3.269059
1002.453125,-0.874622,2.781147,-3.007343,2.280112
1002.457031,-6.424760,-4.513679,-4.095587,-2.958499
1002.460938,-7.157059,-12.364011,-10.777486,-16.116729
1002.464844,-9.236810,-4.023457,-7.318489,-11.918909
1002.468750,-8.138478,-2.306047,-10.675299,-7.813602
1002.472656,-12.041050,-13.234790,-9.673192,-6.566045
1002.476562,-10.228401,-10.238296,-8.382547,-16.476099
1002.480469,-16.782744,-11.278343,-7.582901,-7.937453
1002.484375,-10.492969,-6.139020,-9.190435,-9.165984
1002.488281,-8.474123,-3.712629,-10.684989,-4.789204
1002.492188,-0.302186,3.212225,-1.644193,-8.373043
1002.496094,0.255249,-4.645947,-5.283745,2.914900
1002.500000,4.237110,10.930296,-6.537008,-2.586687
1002.503906,-2.242980,5.900979,3.340848,0.801154
1002.507812,5.780113,7.911592,10.227951,6.567494
1002.511719,11.796477,10.017212,6.944353,6.135354
1002.515625,9.948246,9.008594,5.496245,9.395112
1002.519531,3.335430,8.112867,5.776603,4.977426
1002.523438,16.067515,7.207247,9.828487,10.957775
1002.527344,4.282329,6.004101,8.580732,17.233076
1002.531250,14.601937,9.802052,14.093705,7.453353
1002.535156,12.630518,9.040139,8.160824,9.988362
1002.539062,8.714822,10.025860,15.017098,6.052295
1002.542969,5.746749,0.865668,2.474195,6.157284
1002.546875,5.682715,-1.451831,4.683743,-1.239517
1002.550781,-7.886499,2.817400,-4.757591,2.474029
1002.554688,-2.033810,-4.980001,-0.660720,-3.234603
1002.558594,-3.133303,-3.646530,-6.558404,-8.729631
1002.562500,-7.062596,-6.347390,-10.988453,-7.667272
1002.566406,-9.913840,-11.820674,-6.923774,-6.310165
1002.570312,-11.198138,-6.854445,-14.041413,-15.099315
1002.574219,-5.712323,-13.145336,-13.856604,-8.596583
1002.578125,-6.534064,-13.764792,-2.680729,-9.091219
1002.582031,-14.188412,-11.607756,-4.780713,-10.970568
1002.585938,-7.164846,-4.315074,-5.047204,-8.647286
1002.589844,-5.659339,-11.680015,-7.442960,0.732014
1002.593750,-1.687263,-7.573736,0.052474,-5.351833
1002.597656,-1.425154,-4.429150,1.022954,-6.069474
1002.601562,-1.771378,5.115943,4.693417,6.323318
1002.605469,-4.859745,4.340465,-0.297352,8.591705
1002.609375,1.482020,6.041301,10.234428,2.812760
1002.613281,10.068359,13.238577,8.031888,10.256759
1002.617188,12.382194,3.736644,10.560660,11.096885
1002.621094,7.616409,13.953917,4.969319,4.373921
1002.625000,6.451791,7.522741,10.989966,5.601499
1002.628906,10.831176,5.409762,6.766318,9.093489
1002.632812,7.577834,16.817388,7.278745,7.343874
1002.636719,7.643832,18.037018,7.812181,10.478943
1002.640625,1.619933,11.507464,3.328115,7.725762
1002.644531,6.270578,2.646472,0.656832,3.809260
1002.648438,-5.035054,0.568675,-5.581850,-0.758903
1002.652344,-2.072636,3.639097,-6.716583,-2.251968
1002.656250,0.486334,-3.250799,-1.649026,-2.866407
1002.660156,-8.442458,-7.036367,-0.780884,-7.713693
1002.664062,-8.667045,-12.881082,-8.224252,-11.309999
1002.667969,-13.106368,-9.371353,-11.917854,-6.619892
1002.671875,-11.900075,-13.307431,-3.371392,-3.273758
1002.675781,-10.261855,-9.092687,-10.943435,-7.679411
1002.679688,-6.404909,-4.889474,-10.191148,-15.666668
1002.683594,-15.937331,-11.351451,-4.919809,-10.273311
1002.687500,-10.341206,-0.882496,-16.436008,-7.647390
1002.691406,-8.353093,-2.882307,-7.184582,-1.893707
1002.695312,0.524046,-3.350069,4.908752,-4.357948
1002.699219,-2.769989,-4.059435,-1.852453,-1.633489
1002.703125,2.251207,-1.690891,-2.557752,1.639294
1002.707031,7.377810,2.778478,6.624872,5.204540
1002.710938,13.402521,9.694600,2.741284,8.825991
1002.714844,6.776631,5.246540,10.899784,10.677636
1002.718750,10.819861,8.868359,12.550566,6.299705
1002.722656,10.345616,12.349794,9.730939,9.768987
1002.726562,11.048388,10.427378,4.130332,17.559641
1002.730469,8.686335,8.155078,19.230681,8.747943
1002.734375,10.106757,10.133620,-2.168098,7.278657
1002.738281,0.321521,7.627500,3.340521,9.844494
1002.742188,6.054008,3.956742,1.949135,-2.530900
1002.746094,-4.317184,3.085085,10.541448,4.522843
1002.750000,0.784943,1.468783,-0.000974,9.865686
1002.753906,-3.896631,3.383066,-4.333865,-4.985831
1002.757812,-8.539440,-10.883432,-5.501343,-10.468333
1002.761719,-6.774425,-12.804284,-4.696137,-0.700738
1002.765625,-11.119190,-7.205432,-9.726850,-5.306096
1002.769531,-11.413802,-10.667440,-3.996512,-9.647147
1002.773438,-15.068131,-10.547169,-10.288424,-6.750850
1002.777344,-13.894617,-15.153688,-6.859048,-12.196031
1002.781250,-3.495742,-4.164979,-6.676690,-11.476477
1002.785156,-14.220728,-3.232841,-6.116293,-5.833022
1002.789062,-0.515901,-7.115102,-9.325758,-3.786435
1002.792969,-3.174577,-2.272490,-6.386700,-7.823856
1002.796875,-2.919104,-2.263641,1.717425,-3.725406
1002.800781,-1.728862,-4.893418,-4.749264,1.315981
1002.804688,4.041159,3.060018,6.020368,10.881811
1002.808594,6.251061,-1.758369,3.243389,3.642339
1002.812500,3.520752,4.196782,0.354172,3.965614
1002.816406,13.819144,10.242304,9.063223,16.197415
1002.820312,10.734026,11.465546,13.239218,4.204534
1002.824219,6.709706,13.231989,9.257122,3.046581
1002.828125,9.401907,12.428882,10.013115,1.919927
1002.832031,7.230649,3.706975,13.743706,5.564069
1002.835938,6.008077,5.004387,4.312619,3.651945
1002.839844,3.812863,2.546656,3.998663,8.362114
1002.843750,5.267143,12.497211,2.617837,7.577172
1002.847656,-0.009503,2.738338,6.761779,4.848121
1002.851562,-1.547974,-0.485156,0.709554,-8.156891
1002.855469,-7.357286,-7.207832,4.756373,1.271590
1002.859375,-9.763865,0.627125,-3.224490,-1.701990
1002.863281,-14.191601,-9.589437,-12.429533,0.019547
1002.867188,-3.284170,-5.700000,-12.541433,-9.511113
1002.871094,-3.498086,-13.267523,-4.116291,-12.086763
1002.875000,-13.578848,-9.113062,-7.844078,-13.787312
1002.878906,-11.773300,-5.874198,-9.976697,-8.651801
1002.882812,-10.418080,-6.820797,-13.234684,-12.735454
1002.886719,-13.535940,-14.175286,-6.170176,-7.108536
1002.890625,-10.813900,-5.728113,-13.345267,-4.303017
1002.894531,-0.959305,-3.873904,-5.992948,-3.521395
1002.898438,0.335868,-0.227580,1.848274,-2.262211
1002.902344,0.691345,-0.119656,1.708250,1.244418
1002.906250,2.331577,-2.287980,1.539639,2.308086
1002.910156,8.674799,9.406775,8.143276,-1.237076
1002.914062,8.667497,4.156690,12.538808,10.470528
1002.917969,1.249176,13.388772,9.623296,9.585519
1002.921875,11.377496,12.829560,4.275897,9.900590
1002.925781,10.485140,6.479970,9.632541,11.351431
1002.929688,10.625966,14.513744,5.651303,10.165831
1002.933594,11.050939,7.643992,4.077496,1.180862
1002.937500,9.435971,0.988762,8.521754,9.194454
1002.941406,4.683973,5.356954,-2.381353,10.246255
1002.945312,3.561351,4.760070,4.998120,2.868833
1002.949219,-0.213626,0.766639,3.418868,-1.960534
1002.953125,0.129112,-0.314877,-9.742207,-3.787553
1002.957031,-8.159183,-4.071176,-0.682929,-0.958093
1002.960938,-12.042122,0.173608,-11.499470,-2.963003
1002.964844,-10.368714,-8.201944,-10.903565,-8.228174
1002.968750,-4.601006,-12.133626,-14.200618,-8.001844
1002.972656,-3.477259,-3.800026,-11.375523,-5.005780
1002.976562,-8.227963,-19.074167,-12.862234,-0.323021
1002.980469,-5.523828,-13.025671,-19.012036,-10.680980
1002.984375,-8.498557,-14.249151,-8.095536,-9.196765
1002.988281,-10.020620,-3.266934,-6.308656,-3.215559
1002.992188,-10.583439,-2.701222,-6.312836,-1.809995
1002.996094,-0.911108,-2.878723,3.180791,1.554259
1003.000000,3.266316,-0.784028,-1.239370,5.496643
1003.003906,0.799407,6.392794,-0.915126,3.976939
1003.007812,2.184143,1.799324,4.287513,6.021566
1003.011719,5.479215,1.605847,13.077765,-0.105294
1003.015625,6.015643,9.706152,4.737848,8.986267
1003.019531,4.223065,9.468392,10.211202,5.953352
1003.023438,12.215948,7.737177,4.982136,16.289263
1003.027344,14.121890,16.267913,12.266953,9.698493
1003.031250,13.798535,12.279230,1.539940,9.127156
1003.035156,16.213233,7.387353,9.470101,-0.250086
1003.039062,7.054784,9.514949,4.994066,5.153595
1003.042969,3.954337,8.668413,5.759981,1.340758
1003.046875,4.508905,-5.959535,1.334973,6.193187
1003.050781,-2.555603,-2.846435,-4.192111,1.781566
1003.054688,-7.008909,-4.676522,-2.117551,-6.690070
1003.058594,-2.905086,-1.668064,-8.259810,-6.519958
1003.062500,-6.451785,-0.028089,-6.767489,-10.700159
1003.066406,-5.036498,-8.447087,-8.730785,-7.455383
1003.070312,-10.394762,-3.352717,-11.643026,-7.287605
1003.074219,-11.841903,-9.305311,-7.981266,-10.339766
1003.078125,-11.493451,-13.638128,-7.839508,-7.731424
1003.082031,-1.967057,-5.748652,-3.813906,-13.451651
1003.085938,-6.480370,-7.735280,-6.222748,-9.590829
1003.089844,-8.668087,-9.649628,-9.140968,-9.587114
1003.093750,-4.964607,-4.108212,-1.953349,-6.481810
1003.097656,0.118598,5.210986,-2.821835,-3.678258
1003.101562,5.383962,-7.372020,-2.390993,-8.938448
1003.105469,4.970089,4.794146,3.455709,4.147667
1003.109375,8.348449,4.180627,6.131578,4.523044
1003.113281,2.900986,13.416742,10.034629,7.305683
1003.117188,3.217779,5.345673,11.955803,3.449825
1003.121094,4.764000,13.644295,15.905611,10.674741
1003.125000,17.789434,5.185476,7.546863,16.680223
1003.128906,7.578948,6.223195,3.163806,14.696808
1003.132812,11.511119,4.274954,6.662947,12.331517
1003.136719,2.192427,4.890107,4.195730,9.244611
1003.140625,5.576757,-0.145450,9.571028,0.923536
1003.144531,1.203215,5.994486,4.230685,7.296029
1003.148438,-1.014100,5.317783,0.873545,1.067450
1003.152344,-1.466165,-2.312047,-2.975839,0.626577
1003.156250,-2.398081,-4.694163,-1.230983,-2.630779
1003.160156,-6.859616,-9.888133,-7.384677,-12.010778
1003.164062,-8.495244,-16.068423,-7.002657,-6.600133
1003.167969,-7.137679,-4.046975,-2.111358,-5.903857
1003.171875,-6.254758,-16.433610,-14.877882,-12.922927
1003.175781,-10.356344,-7.555263,-20.095926,-7.717744
1003.179688,-7.290009,-14.349565,-15.334084,-9.579325
1003.183594,-0.921450,-5.659798,-9.167500,-7.904794
1003.187500,-9.756353,-1.715432,-6.582429,-6.059284
1003.191406,-7.949879,-8.810043,-6.284716,-1.899370
1003.195312,-2.595224,-3.479795,-1.607043,-9.487582
1003.199219,-0.967109,0.120958,-0.588545,-4.972737
1003.203125,0.867129,-5.117350,-4.145192,0.141363
1003.207031,5.751796,4.837553,10.432647,5.350880
1003.210938,4.886368,-1.321800,10.633950,8.201227
1003.214844,6.142202,15.550000,3.371223,10.904773
1003.218750,11.654453,10.838217,7.469055,7.785015
1003.222656,6.601407,16.187065,6.518212,4.615571
1003.226562,19.856782,11.527493,9.757155,6.783265
1003.230469,8.725971,14.275952,12.384999,17.076553
1003.234375,14.672645,1.235386,16.130879,12.125300
1003.238281,12.214166,7.210615,6.782089,4.876396
1003.242188,14.029130,-3.770772,6.446783,2.759210
1003.246094,3.104353,5.145521,1.005566,11.350804
1003.250000,-7.161695,-1.245997,-7.271583,1.214224
1003.253906,-2.417552,3.938129,-0.359395,1.639228
1003.257812,-4.185619,-3.671007,-6.942527,0.448063
1003.261719,-9.522881,-7.609148,-5.085371,-16.307579
1003.265625,-21.363207,-11.931180,-9.922042,-6.552018
1003.269531,-2.771207,-2.636706,-11.529070,-12.096168
1003.273438,-7.936373,-13.867783,2.006314,-10.770409
1003.277344,-7.875572,-8.240196,-5.222251,-2.986458
1003.281250,-8.851725,-14.481495,-6.908880,1.576120
1003.285156,-15.116810,-5.278550,-12.554440,-17.204853
1003.289062,-3.035819,-8.892373,-3.142760,-0.272329
1003.292969,-11.210161,-8.362918,-6.226724,-12.446633
1003.296875,0.438060,-4.719888,-0.461610,6.123522
1003.300781,5.751169,0.292766,0.072213,-0.069581
1003.304688,6.755378,-0.188008,6.911551,-5.169218
1003.308594,9.581585,-2.268303,4.882278,10.044029
1003.312500,-1.745581,11.882935,9.553204,10.627450
1003.316406,9.706044,11.470523,12.791987,5.412822
1003.320312,7.663588,8.093312,7.037090,8.421528
1003.324219,11.450127,6.164578,8.834060,8.896366
1003.328125,6.909868,8.887975,7.258942,7.336042
1003.332031,5.770476,8.402785,17.809103,11.320509
1003.335938,4.067583,2.991667,9.637015,3.061685
1003.339844,-0.609730,5.436857,4.809886,3.926767
1003.343750,3.928759,4.296339,7.471733,-2.229467
1003.347656,2.317822,5.352772,2.929468,4.081144
1003.351562,-3.410341,1.028080,-1.739474,2.611620
1003.355469,1.914113,-10.007687,-10.736134,-2.491224
1003.359375,-4.775414,-3.362381,-0.196304,-11.936436
1003.363281,-2.790987,-2.416289,-9.345222,-6.469650
1003.367188,-8.866114,-7.493345,-11.190251,-7.100772
1003.371094,-4.913361,-15.098033,-8.404263,-4.478458
1003.375000,-8.215084,-13.136140,-12.227856,-9.483319
1003.378906,-5.426302,-8.110378,-14.548849,-3.905207
1003.382812,-11.215695,-7.962148,-13.913043,-4.254377
1003.386719,-12.648012,-6.076414,-1.045084,-9.067727
1003.390625,-9.883335,-5.779937,-3.536824,-8.025184
1003.394531,-2.887845,0.212155,0.486037,-3.423990
1003.398438,2.477235,-6.718760,-0.507455,0.152303
1003.402344,10.176943,2.405722,4.997981,9.321907
1003.406250,4.592817,8.726452,-2.207810,0.446070
1003.410156,7.335621,8.501084,5.662346,1.927915
1003.414062,11.629787,5.489733,12.956247,7.214035
1003.417969,5.772093,13.818379,11.591369,15.444768
1003.421875,6.097768,4.300564,10.300154,11.940048
1003.425781,6.184442,10.763869,9.837637,7.561537
1003.429688,9.568762,12.915890,7.501162,9.408902
1003.433594,8.118367,6.096605,5.479662,9.197856
1003.437500,4.064774,9.047000,6.526696,5.649321
1003.441406,7.654679,3.099191,9.768049,6.431692
1003.445312,8.615107,0.083235,-7.230665,6.368207
1003.449219,-4.364540,-0.765959,2.158060,-4.517024
1003.453125,-3.117646,-9.594048,-0.351759,0.769916
1003.457031,-6.745561,-0.506324,0.550174,-5.988564
1003.460938,-6.894873,-8.610551,-6.874165,-5.233635
1003.464844,-3.290867,-9.047002,-7.410315,-8.650721
1003.468750,-11.539397,-7.712675,-9.613032,-13.228683
1003.472656,-10.662450,-14.431020,-13.989212,-10.434064
1003.476562,-4.924551,-23.093511,-9.295438,-14.379559
1003.480469,-12.433643,-9.969829,-16.469305,-9.498292
1003.484375,-12.387062,-12.677097,-13.239691,-8.345632
1003.488281,-12.533141,-5.067512,-11.352488,-3.634017
1003.492188,-4.212455,0.593737,-6.711153,1.526951
1003.496094,3.457224,-1.900479,-6.623777,-1.364330
1003.500000,9.798374,-1.991550,0.006113,-1.095063
1003.503906,-2.050779,1.393868,8.758095,7.918184
1003.507812,5.285855,5.949664,3.639996,-4.877327
1003.511719,9.946107,9.309184,4.792645,9.150305
1003.515625,7.718124,7.351921,15.328400,11.783805
1003.519531,12.292509,8.398843,6.665583,4.214800
1003.523438,15.800997,8.556274,11.159256,8.059054
1003.527344,11.194138,2.914839,12.099754,6.470728
1003.531250,8.881175,10.936198,11.673829,6.490127
1003.535156,6.645283,9.882391,11.723083,4.797792
1003.539062,7.731853,8.106202,9.888240,11.464645
1003.542969,5.380001,4.199996,5.500650,4.797375
1003.546875,-0.232040,-1.478085,2.971992,1.364392
1003.550781,-6.629964,-4.239141,-6.550082,-6.746435
1003.554688,0.357786,-3.982415,3.453102,-4.117909
1003.558594,-6.889343,-10.109787,-2.477397,-5.041324
1003.562500,-5.237908,-10.123120,-4.787695,-3.249144
1003.566406,-8.061660,-17.721260,-10.601298,-21.249334
1003.570312,-12.634433,-6.424575,-8.162494,-5.728140
1003.574219,-6.858380,-4.236243,-2.190386,-10.852976
1003.578125,-12.352416,-11.316382,-11.350976,-14.170123
1003.582031,-4.476100,-10.611395,-8.662715,-1.087648
1003.585938,-15.995045,-10.396560,-8.617095,-10.696351
1003.589844,-6.669387,-10.371697,3.943265,-13.518242
1003.593750,-7.367627,5.807565,-5.908757,-0.561132
1003.597656,-4.697045,2.219942,-4.282154,4.738191
1003.601562,2.209283,-3.563682,1.464830,1.149856
1003.605469,-2.163112,5.240786,-3.275990,3.492224
1003.609375,12.662481,11.810357,7.595222,2.646242
1003.613281,3.043594,-1.031690,-1.359309,5.809971
1003.617188,12.438071,9.972748,2.026752,16.237371
1003.621094,13.049344,10.906094,10.899751,5.937081
1003.625000,5.035184,12.026331,11.471447,9.702874
1003.628906,11.701349,10.705911,7.795730,8.367551
1003.632812,4.853047,9.189382,11.680412,3.979679
1003.636719,10.701791,13.141407,14.584791,11.662808
1003.640625,3.086473,4.873923,4.410003,4.937330
1003.644531,-1.019762,2.000850,3.665981,-0.427752
1003.648438,0.634351,8.437078,-1.832946,-1.987612
1003.652344,0.062671,-8.548158,-1.198850,-3.280753
1003.656250,-9.535647,-0.944349,-4.371735,-4.486896
1003.660156,-1.354778,-0.553042,-3.436651,-9.062986
1003.664062,-11.210219,-3.678719,-0.043815,-6.753493
1003.667969,-10.249595,-20.175057,-12.690366,-5.946481
1003.671875,-4.069621,-10.999460,-6.693860,-7.351843
1003.675781,-3.902035,-15.694906,-15.752440,-4.253589
1003.679688,-8.375279,-1.232336,-3.228540,-11.265855
1003.683594,-5.218097,-12.908127,-5.492417,-3.373385
1003.687500,-11.225338,-9.449450,-7.168042,-7.470740
1003.691406,-8.942983,-0.561338,-4.782590,-6.105711
1003.695312,-2.939604,-6.300405,-11.650677,0.284392
1003.699219,-2.580133,-2.956772,-2.455501,-0.265383
1003.703125,-2.543338,5.191080,-1.261656,5.098700
1003.707031,7.777535,7.187742,6.780094,6.994775
1003.710938,10.376712,10.926705,14.682533,5.061553
1003.714844,6.174354,6.563724,9.859398,3.913244
1003.718750,1.446632,13.730106,11.699681,17.753343
1003.722656,5.175798,12.675716,8.641529,12.681242
1003.726562,8.791189,10.176154,16.732114,6.569079
1003.730469,19.696901,12.844520,7.564878,13.891726
1003.734375,0.444806,11.989886,13.007998,8.595806
1003.738281,7.206422,2.776410,6.892533,9.626142
1003.742188,5.346502,14.378818,4.797149,7.461955
1003.746094,-1.965198,3.525761,6.471473,1.727992
1003.750000,6.588829,-6.913232,-0.308988,-2.979607
1003.753906,-3.255991,-0.811453,-6.085126,-8.226910
1003.757812,0.031683,-6.114571,-2.579367,2.840227
1003.761719,-7.067739,-3.905241,-6.171246,-2.716871
1003.765625,-2.980823,-11.024981,-16.437880,-14.365686
1003.769531,-17.195012,-10.385964,-7.865690,-11.757497
1003.773438,-8.375839,-11.044030,-13.608930,-11.055919
1003.777344,-8.153014,-5.631535,-8.368054,-11.033799
1003.781250,-4.644683,-16.950580,-8.924634,-12.048394
1003.785156,-5.315451,-7.044566,-7.597733,-4.364147
1003.789062,-8.683211,-2.818918,-7.311165,-6.149916
1003.792969,-15.948264,-5.439990,-18.321925,-7.084410
1003.796875,-6.343312,0.693513,-2.410700,-10.051879
1003.800781,3.335583,-1.848520,0.878591,-1.256740
1003.804688,7.404352,2.327174,4.713522,8.356375
1003.808594,3.430874,9.930254,6.101085,4.036017
1003.812500,11.016801,12.389437,2.294807,2.834820
1003.816406,12.654106,9.510266,13.380982,16.528859
1003.820312,6.797258,4.079616,11.263386,9.340729
1003.824219,14.032578,3.673320,12.835390,10.777363
1003.828125,8.088617,12.945627,5.937903,7.221764
1003.832031,3.903488,9.894404,7.311211,5.418020
1003.835938,10.006729,7.669315,6.690824,2.868469
1003.839844,0.437037,-2.115290,5.566932,3.425108
1003.843750,2.742441,-0.632733,11.677035,0.383300
1003.847656,8.752122,0.990971,-1.169922,3.560526
1003.851562,-5.832582,-2.522260,0.642346,-2.689774
1003.855469,-12.145770,-2.090854,-3.599053,6.502011
1003.859375,-4.782238,-10.892068,-4.065097,-3.591049
1003.863281,-2.959272,-6.820704,-8.461765,-4.128172
1003.867188,-14.507768,-11.839490,-7.928977,-3.541693
1003.871094,-11.108485,-5.320347,-3.692202,-4.371294
1003.875000,-3.299517,-10.463717,-10.703067,-8.514131
1003.878906,-12.631862,-10.851579,-9.501748,-11.751979
1003.882812,-15.474848,-9.953043,-15.104887,-5.280743
1003.886719,-8.300221,-9.091888,-8.910766,-9.153771
1003.890625,-4.323284,6.000677,-7.950636,-5.356840
1003.894531,-0.657544,-3.209969,-0.692539,0.074191
1003.898438,-2.050794,-1.258994,-3.686879,-4.084831
1003.902344,3.546847,4.530951,1.747077,-1.204828
1003.906250,3.274058,2.544761,2.715370,2.939672
1003.910156,9.445167,7.103557,4.609450,4.535869
1003.914062,0.371908,8.567071,14.004259,7.015456
1003.917969,9.526431,6.898849,9.541906,9.301254
1003.921875,6.407542,14.414036,6.622744,5.487610
1003.925781,11.905678,11.591985,12.907194,11.721576
1003.929688,1.782241,4.466238,11.347840,19.335956
1003.933594,3.516156,6.595392,10.034928,13.226585
1003.937500,8.016647,10.842492,7.444180,2.710845
1003.941406,7.118998,7.098059,3.535493,-6.566309
1003.945312,-6.148288,0.295711,-2.322801,3.040189
1003.949219,-4.422834,2.215327,-0.301825,0.603830
1003.953125,-3.828323,-1.805519,-5.072297,-1.230891
1003.957031,-1.333348,-14.390375,-7.713693,-1.975935
1003.960938,-2.171550,-8.451519,-5.034740,-8.244686
1003.964844,-6.631933,-13.171229,-6.833543,-5.341493
1003.968750,-10.883390,0.328211,-9.837426,-7.025765
1003.972656,-13.152786,-21.750092,-14.538999,-12.673051
1003.976562,-5.462074,-10.371461,-5.189490,-13.723788
1003.980469,-10.271259,-7.396305,-7.638545,-9.021777
1003.984375,-4.988293,-7.907139,-11.211856,-5.540285
1003.988281,1.342948,-0.001346,-4.489088,-4.561354
1003.992188,-1.995008,0.097570,-1.984120,-4.967336
1003.996094,1.000931,1.447415,-2.186527,-4.570666
1004.000000,0.451706,-0.490428,-7.657337,-0.790959
1004.003906,3.187188,4.988774,3.994905,-3.172093
1004.007812,4.174579,12.280638,9.464220,-3.526286
1004.011719,5.089429,15.005384,1.454581,6.496283
1004.015625,7.272128,9.243943,7.960213,14.658844
1004.019531,8.221157,10.837804,8.485579,5.687876
1004.023438,5.387558,8.845902,10.341612,4.852387
1004.027344,12.829435,16.422471,2.837142,10.486843
1004.031250,7.236325,7.838930,10.133380,6.401919
1004.035156,16.418606,13.521152,6.971179,7.040038
1004.039062,10.743811,4.917426,0.146972,3.129911
1004.042969,6.249788,1.867057,2.198782,6.345875
1004.046875,5.291757,-1.080999,3.006262,5.498390
1004.050781,5.493083,-0.751812,-1.879422,10.284426
1004.054688,1.674634,-2.021920,-3.847396,-2.292320
1004.058594,-4.583480,-4.151010,-0.836000,-8.367070
1004.062500,4.794519,1.031823,-9.793416,-11.940641
1004.066406,-7.374991,-20.867793,-19.629035,-8.115803
1004.070312,-11.387595,-14.062970,-6.837775,-16.356951
1004.074219,-10.382619,-9.601711,-10.174318,-11.473418
1004.078125,-10.420039,-17.190713,-6.462912,-6.378061
1004.082031,-12.871947,-6.756292,-12.805156,-6.615778
1004.085938,-5.753634,-10.738153,-0.037396,-2.372010
1004.089844,-9.298250,-6.464064,-7.486898,-2.950692
1004.093750,-1.435940,-6.912134,-1.383682,0.591433
1004.097656,2.067077,3.119827,5.787334,-7.359656
1004.101562,3.108572,6.235755,-1.397979,4.305201
1004.105469,3.665324,6.229064,1.406960,-1.553257
1004.109375,5.575507,11.017927,1.978299,-5.289334
1004.113281,3.122164,7.998957,9.001327,17.649340
1004.117188,10.299779,10.734613,9.138709,12.640112
1004.121094,14.514050,8.220268,1.340092,10.997088
1004.125000,11.063977,9.512522,1.605380,18.635607
1004.128906,9.561232,5.437167,11.003353,13.504896
1004.132812,4.548683,7.934080,4.778046,4.746255
1004.136719,4.195131,11.646168,9.099109,6.811157
1004.140625,4.747471,4.758853,3.918416,4.698764
1004.144531,12.700587,1.658391,11.261049,4.315294
1004.148438,-1.921567,0.483440,-2.046677,1.161412
1004.152344,-7.317857,-2.761289,3.421194,-2.140505
1004.156250,-4.765727,-1.148678,-3.569855,4.922280
1004.160156,-4.844195,-1.201476,-13.537175,-5.888729
1004.164062,-8.860337,-13.599514,-17.367500,-2.662234
1004.167969,-0.142723,-3.806870,-3.490516,-6.210482
1004.171875,-8.308423,-14.447975,-9.215244,-3.851362
1004.175781,-8.998660,-14.031228,-9.819112,-12.720520
1004.179688,-8.375048,-19.434495,-9.016740,-8.218689
1004.183594,-6.873430,-10.139442,-9.212562,-11.724634
1004.187500,-4.355185,-10.608576,-15.348866,-1.182302
1004.191406,-6.790339,1.655271,-4.556498,-2.241168
1004.195312,-4.407262,-4.425038,5.400388,-2.239567
1004.199219,-7.842249,-1.450887,3.978648,-5.632867
1004.203125,4.672169,-0.404212,6.624152,2.879298
1004.207031,6.166000,8.663007,9.391431,1.055243
1004.210938,16.922157,-2.194938,10.087171,2.441308
1004.214844,4.802498,5.139711,13.973650,8.956513
1004.218750,10.662286,10.110653,9.427454,12.331832
1004.222656,9.447790,9.884064,9.560344,8.646733
1004.226562,14.887550,14.963974,15.569462,14.952232
1004.230469,5.781006,7.861710,7.718679,16.115575
1004.234375,6.334181,8.707023,4.648491,7.875684
1004.238281,4.945770,8.645505,8.278662,9.136420
1004.242188,4.271241,4.412907,0.904486,3.198262
1004.246094,-2.633906,7.111795,-0.120738,6.935406
1004.250000,-0.560648,-0.779491,-4.352639,4.885150
1004.253906,-1.503065,2.816804,2.130101,3.069613
1004.257812,-5.974906,-3.731044,-5.211718,-6.588069
1004.261719,-6.010623,-7.448621,-4.665508,-8.706395
1004.265625,-7.497596,-10.298506,-8.252665,-7.581133
1004.269531,-10.195927,-14.418964,-5.780999,-6.262918
1004.273438,-7.861852,-4.296075,-8.419110,-12.988942
1004.277344,-7.964778,-4.882286,-9.041254,-6.749293
1004.281250,-9.018496,-12.107724,-5.110353,-10.422751
1004.285156,-7.499829,-12.399698,-5.545524,0.165746
1004.289062,4.395098,-4.932313,-7.980261,-4.282190
1004.292969,-7.247838,-2.183005,-2.747716,-1.984962
1004.296875,-1.336470,-3.980144,0.981397,-3.024336
1004.300781,-5.306156,-6.477074,0.437240,9.044844
1004.304688,6.474905,0.064340,0.586158,4.803649
1004.308594,9.410859,6.301127,3.438288,5.578639
1004.312500,6.619494,2.629041,13.514671,9.798909
1004.316406,6.589082,1.354779,12.343687,9.527824
1004.320312,-2.542075,8.020695,10.129001,10.301160
1004.324219,11.698414,11.385965,7.732007,3.782530
1004.328125,8.588060,14.515007,7.288465,7.750868
1004.332031,5.700506,11.185540,9.266170,11.583226
1004.335938,8.147465,17.927617,10.238381,11.175798
1004.339844,9.827172,3.674537,2.840213,0.156942
1004.343750,4.885984,-2.286622,1.533837,3.113622
1004.347656,-8.723586,-2.112470,5.861170,-0.950298
1004.351562,-6.727354,-4.085512,-6.911934,-3.039326
1004.355469,-1.230785,-5.643251,-4.696057,-3.072461
1004.359375,-4.626106,-6.189078,0.275805,-3.896953
1004.363281,-8.353441,-4.769955,-7.658839,-7.082354
1004.367188,-5.780168,-2.316328,-3.517515,-8.227337
1004.371094,-5.233755,-5.820656,-8.619412,-17.304587
1004.375000,-7.433523,-14.943270,-13.538961,-13.727350
1004.378906,-12.970366,-8.533070,-3.316864,-13.430408
1004.382812,-11.620421,-4.489894,-8.034337,-13.496267
1004.386719,-13.392818,-6.596719,-6.253201,-7.362513
1004.390625,-7.873261,-8.589106,-8.363285,-7.756470
1004.394531,-4.582899,-0.188784,4.196621,-10.099836
1004.398438,0.690867,-1.265647,-2.688650,-5.236563
1004.402344,-0.033986,2.126922,-2.761743,7.406656
1004.406250,5.767298,-6.495771,5.186602,4.947052
1004.410156,12.852055,8.991329,3.799957,7.017642
1004.414062,10.680662,18.720454,7.857162,7.269371
1004.417969,13.066429,9.255617,11.238809,10.572471
1004.421875,8.578408,11.698506,12.899792,2.678635
1004.425781,5.701703,6.520607,14.771117,9.543777
1004.429688,7.851887,6.738566,3.958714,10.290068
1004.433594,14.241864,5.590017,9.110692,10.242961
1004.437500,13.285646,18.376937,9.940931,1.065229
1004.441406,6.483433,5.351203,3.958853,4.208775
1004.445312,2.409300,1.002461,0.774526,3.641773
1004.449219,0.131145,4.674825,0.211504,3.901610
1004.453125,-5.076062,-7.812983,-1.151047,-3.890315
1004.457031,-2.762161,1.703203,-3.424297,-4.194670
1004.460938,-3.140783,-2.049194,-8.487503,-3.101285
1004.464844,-15.569958,-17.805279,-5.475812,-8.717440
1004.468750,-11.409393,-12.795853,-16.579696,-8.665269
1004.472656,-12.554174,-10.948639,-7.160263,-16.929061
1004.476562,-8.086596,-7.199790,-7.749804,-3.999761
1004.480469,-11.718343,-1.193136,-8.951213,-7.540564
1004.484375,-17.153034,-5.022517,-12.641739,-9.415588
1004.488281,-8.539612,-6.545362,-11.024062,-5.767790
1004.492188,-10.352083,0.986256,-10.168615,-7.236671
1004.496094,2.733061,-4.336410,-1.184294,-1.381191
1004.500000,7.537736,-0.771846,-6.362982,0.746340
1004.503906,-2.373849,4.921691,2.871519,3.258276
1004.507812,5.184132,8.351518,-0.225436,12.635949
1004.511719,12.384615,5.129645,5.721847,6.292308
1004.515625,9.095152,5.606936,1.507617,4.769121
1004.519531,8.260751,9.236718,1.326573,7.173306
1004.523438,11.338279,11.033191,16.275709,15.853744
1004.527344,10.023340,13.653706,10.957132,9.452809
1004.531250,9.358138,11.739592,5.024312,9.966183
1004.535156,13.296086,6.474909,3.205857,7.233142
1004.539062,-2.681037,11.825927,10.005436,3.646288
1004.542969,8.451220,-1.111932,0.796313,4.615139
1004.546875,-4.186195,3.286668,3.549280,-2.073888
1004.550781,-1.345587,6.937817,-1.042527,0.540578
1004.554688,-5.059196,-5.180829,-8.539590,-12.302850
1004.558594,-1.427008,-13.763276,-3.856189,-8.381292
1004.562500,-7.588624,-2.991509,-11.215465,-7.275750
1004.566406,-5.806834,-1.081647,-10.271345,-6.021077
1004.570312,-9.474834,-14.819016,-9.638391,-8.814491
1004.574219,-15.112972,-9.278098,-12.066376,-10.909462
1004.578125,-8.174442,-7.969167,-9.971019,-13.714064
1004.582031,-11.300029,-7.514627,-7.188307,-9.270434
1004.585938,-5.912476,-7.601117,-5.112146,-10.430916
1004.589844,-13.640077,-10.549570,-7.627197,-8.075210
1004.593750,-4.151347,-12.007809,-0.925163,-3.503780
1004.597656,1.345725,-1.818018,2.451521,4.212647
1004.601562,0.971604,6.175694,1.387733,6.007302
1004.605469,-0.827797,-1.669364,14.685876,6.572251
1004.609375,7.453083,7.591681,3.326851,3.168812
1004.613281,12.096994,11.674858,3.287184,5.141008
1004.617188,5.735964,10.615838,7.262224,7.643537
1004.621094,16.234053,5.253413,12.212362,13.797901
1004.625000,13.409582,8.482976,5.244784,18.504723
1004.628906,14.786796,8.852945,14.181381,11.013959
1004.632812,15.255320,6.707483,5.217607,12.190990
1004.636719,13.904989,7.175921,5.976551,13.869153
1004.640625,3.231466,11.148191,14.414623,6.456470
1004.644531,-0.976601,-4.993136,2.327860,4.186443
1004.648438,3.183001,-5.811763,5.775795,-1.859533
1004.652344,5.524375,-3.528159,2.460622,-0.474148
1004.656250,2.632239,-1.760718,-7.719632,-5.132534
1004.660156,-6.856473,-7.707814,-4.054815,-7.195138
1004.664062,-13.644568,-6.013966,-8.662767,-13.366682
1004.667969,-4.571671,-10.863422,-7.679123,-10.923228
1004.671875,-8.938124,-6.524226,-10.571177,-8.491828
1004.675781,-10.257057,-9.650755,-8.840214,-1.061153
1004.679688,-6.744537,-8.901710,-8.349920,-9.414714
1004.683594,-12.849251,-11.311076,-8.861478,-7.150876
1004.687500,-2.739170,-12.755095,-2.257487,-8.748820
1004.691406,-5.328473,-2.317600,7.614613,-11.367549
1004.695312,-9.357711,-2.587120,-5.069202,-2.511929
1004.699219,4.551317,-3.633272,-6.501785,5.571128
1004.703125,3.259435,2.940975,3.855077,3.506559
1004.707031,-1.823639,-0.636614,-3.261399,4.959534
1004.710938,9.295409,2.212499,12.453608,2.836389
1004.714844,1.733811,6.314542,7.033942,12.836702
1004.718750,8.167898,4.976487,5.948024,5.533244
1004.722656,18.110038,8.707471,11.358980,6.665175
1004.726562,13.942278,7.745828,10.807053,11.369705
1004.730469,3.219879,7.212964,6.823061,8.722749
1004.734375,8.722713,6.011213,7.301506,10.452478
1004.738281,8.476098,4.991933,8.255056,9.328642
1004.742188,1.944190,9.948659,4.726418,-1.631340
1004.746094,4.518036,0.637443,-0.259310,3.005622
1004.750000,-6.899185,0.732850,0.403739,-2.418004
1004.753906,-5.662836,-4.082294,-1.642748,-3.740876
1004.757812,-5.787100,-3.918996,-1.934764,-5.395586
1004.761719,-2.659678,-10.101391,-11.128583,1.114471
1004.765625,-20.552654,-13.931345,-11.919467,-5.057600
1004.769531,-9.256428,-11.395721,-13.414074,0.895810
1004.773438,-12.557366,-10.851650,-8.561554,-4.950178
1004.777344,-16.362515,-15.869337,-16.841823,-11.742348
1004.781250,-11.840461,-4.521973,-8.718179,-8.839873
1004.785156,0.040585,-17.621156,-9.984089,-15.473507
1004.789062,-8.379962,-7.974810,-8.932411,1.292694
1004.792969,-2.007628,-1.249788,-8.951468,-11.361865
1004.796875,3.566858,-0.667151,-3.840340,3.467436
1004.800781,1.503006,3.164843,4.238629,0.897853
1004.804688,7.045448,4.849198,3.266548,1.587759
1004.808594,-0.175215,2.268256,6.328145,-2.806253
1004.812500,9.606890,11.015337,5.443332,8.604623
1004.816406,0.595964,10.320751,11.941923,8.950041
1004.820312,5.544617,10.474318,10.019755,12.837266
1004.824219,19.466111,13.309160,9.499320,12.272617
1004.828125,17.732985,7.672823,10.439201,10.159083
1004.832031,15.303582,11.192490,7.347846,9.415592
1004.835938,16.470591,10.705311,4.813769,6.456673
1004.839844,8.596659,1.816054,0.647023,3.756147
1004.843750,8.976042,3.593634,1.380159,0.746904
1004.847656,8.628438,1.721408,1.515195,4.971924
1004.851562,1.231015,-4.055401,-1.314919,3.251226
1004.855469,1.939467,-6.244801,-1.147692,-3.452595
1004.859375,-7.554730,-1.422039,-7.789045,-3.017458
1004.863281,-7.041554,-7.344795,-8.450289,-0.221526
1004.867188,-10.604811,-9.494577,-2.039441,-6.522599
1004.871094,-14.059902,-8.586666,-4.683750,-10.418756
1004.875000,-12.516670,-10.317347,-8.902487,-9.547593
1004.878906,-8.444776,-12.760650,-11.554560,-10.531959
1004.882812,-9.749312,-12.244346,-9.435345,-10.316541
1004.886719,-3.153422,-6.995920,-5.688210,-11.171218
1004.890625,-6.008497,-8.163339,-2.865016,0.666104
1004.894531,0.531561,-3.345057,0.649158,-3.009834
1004.898438,-3.305812,1.822773,-3.338812,1.643002
1004.902344,5.626880,7.026507,-5.417657,5.095143
1004.906250,4.711172,3.164485,6.501480,6.304260
1004.910156,7.487204,0.101257,-0.661370,2.928071
1004.914062,7.983215,0.942812,10.858323,-1.498198
1004.917969,11.113332,13.879090,6.701417,4.878402
1004.921875,14.564993,11.744117,11.235685,3.202647
1004.925781,6.440056,12.002288,7.063250,12.405085
1004.929688,11.093921,12.676300,9.821644,1.203050
1004.933594,4.383282,14.154268,11.731254,9.644883
1004.937500,11.085852,1.190961,4.112729,9.363326
1004.941406,6.102392,8.868944,-1.551609,2.733074
1004.945312,6.574413,-0.120390,15.927864,2.264166
1004.949219,-6.814961,2.763687,-1.472526,1.101149
1004.953125,-5.423161,-4.893480,1.969612,1.345139
1004.957031,-10.505962,-4.754341,-10.632428,-6.432194
1004.960938,-8.207809,9.615995,-4.386955,-9.157151
1004.964844,-4.259941,-4.722867,-9.848884,-13.611828
1004.968750,-11.797748,-9.226518,-10.850039,-6.085151
1004.972656,-14.837595,-14.278751,-8.365861,-13.035457
1004.976562,-9.587834,-4.247735,-1.655738,-4.194381
1004.980469,-10.396130,-18.758250,-13.777967,-2.021363
1004.984375,-15.181864,-16.720906,-3.011997,-5.660761
1004.988281,7.053917,-6.670630,-12.664574,-4.909096
1004.992188,-11.834626,-3.720134,-5.254028,-11.871796
1004.996094,-13.489948,3.534896,-0.935679,-7.512434
1005.000000,-2.718906,6.549527,-5.429567,-0.263898
1005.003906,0.521297,0.126426,-3.015203,-2.190392
1005.007812,10.828112,10.666701,2.395078,6.989036
1005.011719,6.527340,7.512643,8.449717,11.777899
1005.015625,12.501955,4.508680,-0.274838,5.347379
1005.019531,6.947731,11.925462,7.304604,7.955078
1005.023438,15.080481,6.943026,4.069204,0.327975
1005.027344,13.456923,11.059697,17.031646,16.818951
1005.031250,3.519125,15.028338,11.979322,3.629335
1005.035156,13.418523,6.436109,4.020828,7.092853
1005.039062,-0.732789,12.152690,10.096193,4.154450
1005.042969,7.303687,3.614065,2.333329,0.524019
1005.046875,-4.727835,12.022993,-7.225606,0.875615
1005.050781,-5.999572,-0.499594,0.620974,5.673113
1005.054688,2.526566,-8.052335,-3.702994,8.319385
1005.058594,-0.778059,-0.108822,-7.155525,-16.200061
1005.062500,-8.472939,-7.749239,-3.763530,-16.165783
1005.066406,-13.045602,-9.998046,-9.677085,-12.982233
1005.070312,-12.885666,-11.324388,-8.450831,-12.930203
1005.074219,-12.255699,-1.536147,-8.920195,-10.215051
1005.078125,-11.391382,-10.564573,-2.319997,-7.766595
1005.082031,-9.266000,-10.689603,-7.992225,-12.871003
1005.085938,-2.655294,-9.393982,-9.141941,-5.095366
1005.089844,-13.032559,-8.342690,-5.646755,-1.066652
1005.093750,-5.763367,-5.891507,-3.887046,-5.094605
1005.097656,2.072553,-4.486720,7.774394,-3.805652
1005.101562,0.400530,0.476066,-7.113490,0.835558
1005.105469,5.447089,14.647309,7.994535,2.303440
1005.109375,4.449828,5.382452,10.965430,3.468960
1005.113281,3.066699,7.053347,9.973700,6.748025
1005.117188,5.032466,6.197719,10.800297,13.185768
1005.121094,5.841320,8.159929,11.907965,19.068578
1005.125000,7.959626,5.294831,10.080013,9.612087
1005.128906,13.205488,11.280081,13.362118,7.063110
1005.132812,16.947463,4.287099,3.896888,6.016771
1005.136719,5.412843,12.933349,9.482483,9.796852
1005.140625,13.085606,1.643962,5.237791,6.807839
1005.144531,2.396688,-0.628267,3.430167,4.588494
1005.148438,4.296030,-0.514197,0.022685,5.537841
1005.152344,4.126685,3.839953,-0.540370,-1.654816
1005.156250,-8.956815,-0.037792,-8.190641,-4.486489
1005.160156,-6.315511,-0.738361,-10.157620,0.666916
1005.164062,-14.201613,-9.008161,-15.242270,-4.122852
1005.167969,-6.682362,-13.901072,-6.836276,-0.314138
1005.171875,-12.206329,-12.819756,-11.196177,-4.592386
1005.175781,-11.135239,-4.740628,-10.124678,-5.952525
1005.179688,-5.389028,-12.651645,-11.574663,-11.453190
1005.183594,-6.236463,-6.771903,-3.686218,-12.639163
1005.187500,2.182760,-11.796851,-8.973276,-13.943068
1005.191406,-9.172069,-8.597478,1.050915,-5.470141
1005.195312,-1.519629,-3.352463,3.029855,-1.179862
1005.199219,3.754790,-2.239093,2.295258,0.719068
1005.203125,1.258963,-1.498134,2.287082,3.551627
1005.207031,7.657676,6.863600,1.658468,3.225259
1005.210938,2.834952,6.681763,7.112089,9.690709
1005.214844,11.791741,-2.374527,10.119169,11.124863
1005.218750,14.299565,9.979259,5.154821,12.486261
1005.222656,8.851606,2.531099,10.583301,13.692979
1005.226562,9.148486,4.229150,7.340665,6.490866
1005.230469,6.669151,14.176435,8.958383,8.936865
1005.234375,6.039353,8.358880,8.956082,6.855641
1005.238281,3.518110,8.813155,17.797807,10.194156
1005.242188,6.440893,4.132319,0.976203,6.003129
1005.246094,5.870929,7.301002,-4.724751,4.659103
1005.250000,-0.044770,2.620679,-3.216888,3.963832
1005.253906,-6.788806,7.186961,-7.072947,-2.383130
1005.257812,-7.139186,-4.366483,2.189309,-9.119254
1005.261719,-4.599633,-12.812442,-8.705914,-1.468419
1005.265625,-9.903253,-5.498451,-12.706324,-5.249162
1005.269531,-6.716373,-13.607598,-10.051936,-7.468830
1005.273438,-13.745751,-7.852790,-6.759851,-4.920504
1005.277344,-8.344428,-19.139805,-5.885585,-11.514228
1005.281250,-16.904306,-13.251403,-7.088583,-2.637100
1005.285156,-7.413817,-9.257687,-6.731090,-9.192098
1005.289062,-5.151363,-5.233861,-3.510385,-4.836386
1005.292969,-6.225755,1.250904,-0.990629,-2.072943
1005.296875,-3.618937,3.615863,-3.104491,-4.366997
1005.300781,-0.742821,-2.629765,-1.270860,4.706373
1005.304688,7.643468,6.855857,4.859710,3.968872
1005.308594,-2.908883,0.461110,8.464576,2.140855
1005.312500,4.332486,8.430582,9.840311,1.366585
1005.316406,7.313939,3.951753,4.470262,8.408194
1005.320312,6.804166,5.878213,10.077664,8.685999
1005.324219,7.554822,12.789263,3.800736,17.580585
1005.328125,10.503500,9.629304,11.449604,15.173349
1005.332031,5.774258,4.669889,9.939267,9.555795
1005.335938,6.025248,7.789812,13.395213,5.529966
1005.339844,14.529539,7.439672,8.494129,7.093657
1005.343750,2.455858,7.508785,4.936279,3.349567
1005.347656,5.910760,0.437674,3.707108,0.829050
1005.351562,-5.378008,2.727120,6.808225,1.672098
1005.355469,0.021357,2.121962,-6.063500,-7.885823
1005.359375,-3.929375,-1.971479,-3.902439,-0.173781
1005.363281,-16.512758,-9.388028,-8.190848,-10.393007
1005.367188,-10.146505,-8.614435,-8.316543,-7.191805
1005.371094,-12.422589,-8.110810,-8.743313,-10.128740
1005.375000,-11.101964,-11.932387,-10.125747,-13.672541
1005.378906,-10.702474,-9.177857,-10.734649,-17.647165
1005.382812,-6.768026,-5.858215,-12.671645,-9.216503
1005.386719,-12.258454,-6.260503,-7.050816,-15.186602
1005.390625,0.108351,-4.911500,-4.634422,-2.854574
1005.394531,-4.776385,-5.516701,1.231831,-3.250357
1005.398438,-1.152573,6.228508,0.706111,-1.051900
1005.402344,7.538847,3.671798,2.525948,-0.720157
1005.406250,2.409819,13.545354,1.971950,-0.986947
1005.410156,11.666420,6.598168,7.706135,0.169724
1005.414062,-0.042468,8.039375,10.058024,8.071754
1005.417969,11.712409,16.159156,13.662706,14.329706
1005.421875,14.053028,12.995540,8.577636,9.347961
1005.425781,11.016837,10.740562,10.175212,14.239342
1005.429688,3.610798,3.264848,10.626114,7.626764
1005.433594,10.293819,9.157843,13.596301,4.408197
1005.437500,2.246164,4.197457,13.793369,7.890614
1005.441406,5.953116,15.498652,8.428964,1.941166
1005.445312,-3.706919,1.691696,2.732412,7.291922
1005.449219,0.474356,3.342413,-2.318203,-0.746034
1005.453125,-1.629867,-1.443906,2.872381,-1.901268
1005.457031,-3.624602,1.679593,-0.834106,-4.543287
1005.460938,-4.370047,-10.273969,-8.436790,-6.876330
1005.464844,-9.746731,-9.381065,-4.346192,-3.866309
1005.468750,-6.835399,-10.571911,-9.371484,-5.798137
1005.472656,-14.596252,-9.534142,-6.900090,-10.226641
1005.476562,-8.150009,-9.102112,-9.787447,-10.592838
1005.480469,-7.684625,-9.032702,-16.255671,-14.512382
1005.484375,-12.103362,-16.466469,-7.060706,-4.819931
1005.488281,-13.130016,-10.289442,0.811237,-12.323621
1005.492188,4.217156,-10.326502,-6.935391,-4.901274
1005.496094,6.576739,2.085770,-4.967462,2.284144
1005.500000,-4.216018,-3.965161,-1.428073,3.877649
1005.503906,2.332131,2.894640,1.882157,2.569831
1005.507812,-0.044130,1.729915,7.658476,-0.978212
1005.511719,6.348009,7.563898,8.649062,9.383312
1005.515625,8.663014,-2.636701,-0.714172,-0.627776
1005.519531,16.312222,17.057109,10.836573,8.039161
1005.523438,3.730148,13.781201,9.249275,10.998010
1005.527344,6.786933,11.400268,7.692384,-2.330505
1005.531250,11.546410,7.074964,10.090056,5.949569
1005.535156,14.602097,1.599504,7.855455,14.242390
1005.539062,10.527539,6.168219,3.995854,-1.072148
1005.542969,2.940013,3.996878,8.652929,1.839623
1005.546875,10.972422,3.902174,-9.816243,-0.969701
1005.550781,-2.969754,-8.941758,-2.726932,-0.788997
1005.554688,0.341849,-3.638061,3.098204,0.538437
1005.558594,-2.061844,-10.339114,-9.178791,-4.981662
1005.562500,-8.167018,-2.912182,-2.961279,-3.465920
1005.566406,-5.404522,-10.999017,-16.439712,-15.372200
1005.570312,-7.250839,-9.067461,-6.162874,-10.021992
1005.574219,-14.349227,-12.803486,-5.556966,-9.579251
1005.578125,-14.809158,-9.020379,-0.114190,-10.624797
1005.582031,-3.559543,-3.125814,-6.432389,-1.884319
1005.585938,-11.162097,-10.352207,-8.190464,-12.214474
1005.589844,-8.474078,-4.411407,-6.373079,-14.352686
1005.593750,-4.219337,-10.438127,-0.899085,-2.200908
1005.597656,-2.203124,3.107651,-2.175521,6.739726
1005.601562,5.051713,-5.673965,1.071417,0.499757
1005.605469,-0.098252,4.064979,3.600803,1.206401
1005.609375,5.847635,5.964425,3.860144,7.088200
1005.613281,9.423238,7.802633,9.002045,10.602831
1005.617188,6.706707,4.328927,2.496948,10.891778
1005.621094,8.263179,17.634713,9.423258,9.480446
1005.625000,10.438118,8.816546,12.453978,7.114955
1005.628906,6.108998,8.265936,9.014576,11.924684
1005.632812,2.885239,15.332848,16.271446,8.305359
1005.636719,7.837002,9.772274,2.628962,1.986600
1005.640625,6.825609,6.497816,3.696297,7.949123
1005.644531,10.806960,7.727742,-1.919710,7.843751
1005.648438,-1.530860,-3.921545,-4.796184,-7.703621
1005.652344,-5.875204,-4.018342,-4.081743,-5.928679
1005.656250,-2.318564,-6.717705,-5.652740,1.582437
1005.660156,-5.736327,-13.371430,-9.904802,-7.028259
1005.664062,-9.045514,-1.004176,-7.280984,-12.541949
1005.667969,-2.522024,-3.146619,-7.759721,-4.530535
1005.671875,-9.251226,-11.591113,-4.728402,-11.612301
1005.675781,-9.016025,-5.389818,-11.960024,-8.316456
1005.679688,-6.702031,-5.546559,-8.988000,-7.145698
1005.683594,-7.989932,-14.293665,-11.473443,-6.230043
1005.687500,-2.573691,-8.241288,-8.793548,-11.871168
1005.691406,-6.825301,-0.262922,-3.475500,-5.336404
1005.695312,-6.065594,-4.588830,-12.597898,-5.809381
1005.699219,1.570213,2.654332,-1.729150,7.400815
1005.703125,-3.118360,-0.087932,3.907756,1.852625
1005.707031,13.678989,11.504157,7.203247,2.968869
1005.710938,8.189506,10.959974,6.106630,10.423229
1005.714844,11.781169,8.803168,4.404456,9.810942
1005.718750,7.753622,13.059616,9.039082,4.671287
1005.722656,4.305750,11.220876,14.149378,12.196310
1005.726562,17.887608,5.655889,4.428597,13.804388
1005.730469,10.187601,13.259686,6.236620,-3.733181
1005.734375,2.379110,6.160934,11.907288,9.675917
1005.738281,6.732873,4.103819,4.780735,3.136359
1005.742188,-0.482574,12.364636,2.704246,3.856026
1005.746094,-1.135025,5.725865,-3.829770,1.019486
1005.750000,-3.554992,-4.752299,-0.590350,1.332771
1005.753906,-3.530522,-1.661218,-3.097049,-3.530345
1005.757812,-9.041315,-6.958016,-4.165761,-5.078026
1005.761719,-7.726325,-5.909109,-15.369349,-7.018477
1005.765625,-8.990087,-6.554201,-3.636309,-10.842758
1005.769531,-12.182043,-5.661429,-13.306781,-4.676593
1005.773438,-5.885129,-9.962980,-9.913374,-9.143422
1005.777344,-9.388980,-11.668024,-13.173379,-8.964284
1005.781250,-0.961304,-13.025764,-10.364408,-9.740695
1005.785156,-6.325769,-4.942844,-8.185810,-6.662285
1005.789062,1.738825,-13.799849,1.620463,-4.201065
1005.792969,-2.174701,-2.177869,-6.206770,-5.510374
1005.796875,-4.659792,0.321860,2.219951,3.593301
1005.800781,0.145896,9.531174,7.133847,-2.107530
1005.804688,1.230841,3.357267,-2.698238,2.312629
1005.808594,3.793350,13.189455,12.079495,3.935819
1005.812500,10.581975,1.390667,11.230509,4.195783
1005.816406,-0.272399,3.827375,2.639738,13.091963
1005.820312,3.694801,4.040629,8.222517,11.131943
1005.824219,11.251287,12.004602,15.387388,5.512962
1005.828125,8.988034,6.532241,11.523610,11.957332
1005.832031,-3.080564,9.452163,9.280086,10.065323
1005.835938,14.521852,8.050844,7.480727,1.764394
1005.839844,4.141959,11.209823,4.247305,7.684802
1005.843750,3.264978,0.388776,7.513842,12.041784
1005.847656,3.246627,5.149807,8.130127,-4.587621
1005.851562,1.817235,1.213499,2.476504,-3.315855
1005.855469,-1.598204,-6.194373,-6.324737,-3.291769
1005.859375,0.834693,-9.356289,-7.069246,3.851077
1005.863281,-4.866554,-3.235523,-3.585851,-5.032624
1005.867188,-14.065503,-2.357992,-10.910960,-10.395619
1005.871094,-13.184055,-3.430906,-10.846151,-9.761795
1005.875000,-11.607173,-17.684470,-8.894013,-8.990965
1005.878906,-9.645822,-13.709947,-9.250951,-6.813461
1005.882812,-13.053057,-8.575289,-6.414062,-14.809587
1005.886719,-9.831919,-13.020414,-10.946105,-8.806295
1005.890625,-3.825313,-4.183947,-14.597089,-5.180332
1005.894531,3.951890,0.784474,-4.681409,-8.970450
1005.898438,-7.891322,-1.121988,-11.896810,1.398359
1005.902344,2.716662,0.597384,-1.488401,1.770532
1005.906250,0.671608,2.349943,1.957725,5.217688
1005.910156,1.949794,9.229053,8.518012,7.817636
1005.914062,6.133798,15.641514,11.813496,11.087966
1005.917969,10.231171,9.471380,10.029578,8.070772
1005.921875,8.954034,12.615941,11.730391,12.488503
1005.925781,13.593634,12.882276,10.823971,10.597985
1005.929688,18.081323,10.480820,7.386456,13.606642
1005.933594,7.512958,1.470162,3.268038,8.141810
1005.937500,4.464296,1.122294,5.520356,5.555252
1005.941406,5.603737,3.831106,6.266181,13.667777
1005.945312,5.173547,6.684970,-1.633971,5.934773
1005.949219,-0.418742,-1.260084,2.453282,1.059490
1005.953125,-4.190232,5.582455,-2.055249,3.951588
1005.957031,-2.476007,-5.362205,-3.769394,-9.010074
1005.960938,-4.428286,1.295515,0.619669,-8.112326
1005.964844,-7.631789,-13.276547,-6.794958,-6.994700
1005.968750,-7.294010,-9.866543,-12.463193,-8.667524
1005.972656,-7.261288,-13.049197,-1.555853,-8.637229
1005.976562,-8.226970,-7.350791,-10.832156,-12.458247
1005.980469,-3.453424,-11.358799,-5.891048,-6.277216
1005.984375,-5.456319,-7.129305,-5.059049,-13.343197
1005.988281,-5.169589,-1.011320,-11.124928,-2.882664
1005.992188,-2.088626,-10.801804,-1.374027,0.577230
1005.996094,4.429866,-0.635688,-2.525644,-5.857324
1006.000000,8.408788,0.874348,-3.056855,-3.876795
1006.003906,1.995312,0.222402,-6.906766,3.960582
1006.007812,11.171314,-5.326943,6.773633,4.787645
1006.011719,1.993059,6.910718,5.164603,7.216748
1006.015625,4.816299,8.455093,11.622969,2.220244
1006.019531,7.923201,7.831901,1.777876,8.606422
1006.023438,12.142469,7.366220,11.993400,13.404129
1006.027344,13.636814,15.118541,8.209304,13.700325
1006.031250,10.522461,3.673662,11.887613,5.413171
1006.035156,3.832317,-0.321758,12.544669,13.665011
1006.039062,7.487157,11.637339,6.259123,13.929425
1006.042969,4.418574,2.800361,2.012201,5.818047
1006.046875,1.817280,2.196883,5.575948,1.570719
1006.050781,9.421330,-2.629837,2.002556,-0.354728
1006.054688,-2.180304,-7.166350,1.619718,-3.671391
1006.058594,-0.993501,-8.718855,-2.018199,-7.214035
1006.062500,-4.009953,-7.615820,-9.512453,-9.115954
1006.066406,-10.104258,-14.991776,-5.841640,-9.033771
1006.070312,-4.098623,-8.353464,-11.746970,-11.171250
1006.074219,-7.560263,-8.989969,-9.629567,-3.688980
1006.078125,-5.787800,-6.966466,-10.995434,-15.605607
1006.082031,-16.056561,-6.539909,-14.342777,-8.460970
1006.085938,-7.945270,-8.350019,-2.682061,-6.488526
1006.089844,-9.969558,-3.069986,-6.441643,-5.305055
1006.093750,0.610150,-3.089432,0.194227,-2.038383
1006.097656,-7.522642,4.719395,5.352344,1.131673
1006.101562,3.080076,-4.380223,4.945686,3.404556
1006.105469,-3.279785,-0.448310,6.410907,3.183866
1006.109375,4.483593,-0.274216,6.177147,9.210817
1006.113281,3.998734,13.651053,11.991220,2.317218
1006.117188,4.165228,-0.085342,2.714930,5.013908
1006.121094,10.349138,18.508040,4.764312,11.328314
1006.125000,6.890541,9.210868,15.144606,10.675109
1006.128906,7.745529,11.123680,17.701953,6.157777
1006.132812,3.130686,2.935223,3.090010,8.721426
1006.136719,6.220866,10.181011,14.030652,6.857478
1006.140625,5.720097,3.934917,-1.565835,8.356642
1006.144531,0.456961,0.189647,-0.409818,1.860380
1006.148438,2.135601,1.542250,2.222656,2.751436
1006.152344,-5.015656,-1.243632,-2.500578,-0.411609
1006.156250,0.884645,-5.414726,-3.998771,-3.767532
1006.160156,-11.226027,-9.286144,-7.430534,-5.431677
1006.164062,-8.380901,-5.093615,-10.438641,-4.589307
1006.167969,-10.548698,-7.766502,-13.466284,-7.790878
1006.171875,-7.189768,-5.755427,-8.759752,-6.779555
1006.175781,-8.755093,-10.027829,-15.475769,-1.235694
1006.179688,-16.262878,-21.081572,-10.397800,-11.367303
1006.183594,-11.152133,-6.026035,-4.014590,-3.028728
1006.187500,-8.472883,-5.338610,-12.484773,-4.161416
1006.191406,-8.912517,-1.991612,0.651079,-4.028339
1006.195312,-5.775740,-11.510100,0.222038,5.064654
1006.199219,2.018836,-3.913975,-4.745754,-1.065435
1006.203125,-1.103462,-1.131009,2.105141,4.069048
1006.207031,1.728708,4.672203,2.995463,-1.228204
1006.210938,-4.078239,5.773611,7.072702,6.078483
1006.214844,1.988998,-1.472847,10.737973,11.244529
1006.218750,15.139289,9.012137,11.579469,6.695470
1006.222656,7.675610,8.326219,6.567199,10.286064
1006.226562,10.820835,14.710601,9.534896,15.485246
1006.230469,7.938823,12.999508,6.741000,13.073169
1006.234375,15.174925,-1.629458,5.517062,9.086102
1006.238281,3.844838,10.249846,6.490875,9.459233
1006.242188,6.484468,4.575606,5.515732,2.291970
1006.246094,6.480159,1.058321,-4.300023,-4.047011
1006.250000,3.185314,0.470587,-1.469154,1.626111
1006.253906,-4.516438,-5.524173,-10.978713,-0.429164
1006.257812,-11.849079,-1.566085,-2.178832,-7.473293
1006.261719,-8.337885,-5.248646,1.960831,-7.802308
1006.265625,-7.794680,-6.068661,-2.215476,-11.475668
1006.269531,-9.337109,-17.052768,-13.933889,-3.360170
1006.273438,-8.607219,-11.536137,-14.774777,-16.066570
1006.277344,-5.408900,-7.081705,-7.858381,-11.890423
1006.281250,-13.757505,-7.605216,-9.979092,-13.922695
1006.285156,-15.208829,-6.664356,-1.857320,-2.959588
1006.289062,-7.451594,-4.026418,-1.983148,-4.572295
1006.292969,3.107068,-3.109974,-2.418939,-3.539839
1006.296875,6.250569,-0.785052,2.157892,-5.506131
1006.300781,1.369129,-6.139691,2.625980,3.413782
1006.304688,-3.033710,-4.388202,0.464689,-2.252288
1006.308594,9.921553,6.600057,11.025221,7.331903
1006.312500,4.418524,9.515599,3.947758,6.439239
1006.316406,8.777915,8.387726,10.804303,9.115683
1006.320312,12.725192,14.407420,14.797508,6.868885
1006.324219,12.993828,7.480741,9.482733,7.482342
1006.328125,-2.270620,9.574247,8.857535,14.511322
1006.332031,5.671864,7.049250,7.618286,16.440386
1006.335938,7.554455,13.081633,8.308807,10.217437
1006.339844,8.910204,3.784546,5.140424,-4.915104
1006.343750,4.198374,8.971666,1.239663,-1.648763
1006.347656,-4.637329,3.958267,-0.059803,2.941292
1006.351562,-3.411404,3.461956,0.261243,3.202841
1006.355469,-2.727318,-4.359157,-1.573869,0.878985
1006.359375,-3.527154,-4.248381,-9.669783,-0.871083
1006.363281,-0.638526,-9.498818,-3.841671,-7.383917
1006.367188,-14.359617,-10.605231,-9.182643,-5.462456
1006.371094,-10.485708,-15.428822,-5.058709,-7.026165
1006.375000,-13.178935,-6.216364,-14.803046,-4.485691
1006.378906,-8.839457,-10.153774,-9.354421,-13.041594
1006.382812,-2.142249,-4.527011,-11.155844,-14.554812
1006.386719,-3.401140,-12.534450,-8.252191,-10.543651
1006.390625,-8.263300,-9.245275,-0.639465,-2.187958
1006.394531,-0.354892,0.549759,-8.525513,-2.966383
1006.398438,1.648593,1.853840,1.916348,0.506317
1006.402344,0.686034,7.018508,-0.689763,2.763746
1006.406250,4.871213,3.769207,2.550128,-3.602990
1006.410156,12.706233,3.278968,4.727572,4.443746
1006.414062,9.648561,11.468136,6.382031,8.142889
1006.417969,15.221654,12.715940,3.568606,3.315021
1006.421875,9.381408,12.122805,8.142903,17.915024
1006.425781,15.683893,11.481479,8.485121,1.971788
1006.429688,9.707823,5.135327,11.180552,9.008680
1006.433594,5.411321,8.870517,11.709312,6.822399
1006.437500,14.081057,10.243929,9.811658,6.878729
1006.441406,6.476239,-1.364825,8.237325,6.324840
1006.445312,7.072455,2.480060,-3.225191,3.552203
1006.449219,-7.539898,0.357164,-1.699850,-1.075469
1006.453125,-0.036309,0.378257,-8.484846,2.235367
1006.457031,9.384419,-3.442823,-3.960102,-6.450004
1006.460938,-6.281859,-3.885758,-8.354501,-7.919924
1006.464844,-6.650351,-5.441877,-5.361865,-5.160922
1006.468750,-8.038490,-8.026128,-4.496754,-5.067162
1006.472656,-7.718971,-12.041883,-13.366311,-15.173930
1006.476562,-9.307588,-7.941057,-4.274165,-8.239174
1006.480469,-9.117499,-10.317491,-5.441044,-15.696071
1006.484375,-10.426464,-10.212318,-12.121386,-10.706122
1006.488281,3.423735,-12.357356,-1.871065,-6.803678
1006.492188,-3.493772,-0.916437,-5.337750,-6.980864
1006.496094,-2.687382,-4.567218,-2.700095,-1.623882
1006.500000,-3.754408,-6.241045,-6.141525,9.871028
1006.503906,2.555354,3.704338,0.281535,7.379951
1006.507812,-2.926663,6.428917,4.419342,1.241999
1006.511719,5.217954,8.078815,-2.399466,8.633817
1006.515625,10.205129,11.890464,1.844939,6.833380
1006.519531,8.669626,5.483258,8.799000,15.482279
1006.523438,10.141198,9.779718,13.542313,6.744823
1006.527344,10.537115,14.138312,5.261685,8.910295
1006.531250,9.366531,15.593052,14.910012,4.457546
1006.535156,6.233554,0.958301,5.106941,7.889143
1006.539062,16.342582,6.931621,6.403008,5.710848
1006.542969,5.118883,3.698216,4.136235,5.313510
1006.546875,4.988614,1.877476,11.265852,7.936565
1006.550781,-6.855662,-0.867322,0.391443,6.256493
1006.554688,3.079939,2.247397,-2.840866,-4.657454
1006.558594,4.103188,-6.441737,-4.440314,-10.418812
1006.562500,-9.821538,-2.762032,-1.866156,-8.369792
1006.566406,-11.211983,-17.727649,-8.589659,-9.277666
1006.570312,-0.436998,-1.811008,-16.277512,-9.116172
1006.574219,-7.696450,-12.147729,-12.613134,-5.615637
1006.578125,-19.524735,-5.942155,-12.519111,-11.146795
1006.582031,-8.685969,-10.813214,-12.897406,-1.417801
1006.585938,-8.822157,-10.320472,-12.261098,-14.196568
1006.589844,-11.498942,-10.168346,-9.168012,-7.742342
1006.593750,-6.178881,1.352900,4.419111,-1.530510
1006.597656,-1.990250,-10.263018,-11.533404,-2.267410
1006.601562,3.591968,6.679792,-2.032771,0.953917
1006.605469,1.512757,0.394933,6.150465,3.125799
1006.609375,4.805553,-1.131977,2.621090,9.648404
1006.613281,11.491197,8.774321,9.619232,5.486242
1006.617188,4.514469,3.687174,10.254258,11.462232
1006.621094,12.181022,10.946794,4.926586,14.004939
1006.625000,10.402867,15.462229,19.407406,11.520936
1006.628906,13.181386,11.047359,12.552290,10.345808
1006.632812,10.501367,9.361855,8.775835,5.307384
1006.636719,4.841320,2.859033,9.719637,6.824002
1006.640625,9.907035,7.647229,13.244138,4.239273
1006.644531,0.261123,2.690813,8.627903,4.768131
1006.648438,2.109069,2.652566,-4.630733,1.486971
1006.652344,-3.729631,7.430447,1.357944,-3.911075
1006.656250,-8.300207,-6.210720,0.064667,-8.512228
1006.660156,-4.990349,-2.343896,-4.808711,-7.675351
1006.664062,-11.159491,-2.416256,-8.240391,-4.620171
1006.667969,-9.350173,-15.394143,-15.242736,-12.967170
1006.671875,-9.091479,-10.979884,-1.979079,-6.687548
1006.675781,-15.017768,-13.151912,-4.549562,-7.627470
1006.679688,-5.345326,-7.539168,-5.661583,-13.531436
1006.683594,-0.939623,-5.172567,-12.799242,-5.943392
1006.687500,-2.990195,-10.517036,-9.297617,-8.285456
1006.691406,-9.893649,-5.512005,-7.343370,-11.638406
1006.695312,4.860954,-2.215924,-2.758221,-1.620067
1006.699219,3.456870,2.412568,-9.362273,7.384890
1006.703125,-1.532434,3.313383,-1.466835,1.674664
1006.707031,0.668381,0.055101,-8.489120,4.159299
1006.710938,9.893466,10.327762,4.978265,5.376745
1006.714844,8.593537,3.815638,3.760504,9.822179
1006.718750,6.433343,11.152968,5.509626,8.991852
1006.722656,16.108202,11.690668,14.031907,11.661413
1006.726562,12.110403,4.546823,14.301489,11.733026
1006.730469,10.787780,11.041878,14.181703,9.691572
1006.734375,8.063646,6.605411,7.089418,10.125892
1006.738281,9.478152,12.442883,5.002878,7.445432
1006.742188,2.432693,-0.098930,2.839884,0.882486
1006.746094,4.329946,4.089844,-3.272788,8.331225
1006.750000,-7.675035,-0.569316,1.466912,-2.101278
1006.753906,-5.746838,1.341998,-1.167100,2.601335
1006.757812,3.792924,-14.928144,6.449285,1.912066
1006.761719,-16.670299,-10.708693,-11.255367,3.039778
1006.765625,-10.173097,-10.448243,-4.311715,-7.436503
1006.769531,-13.512847,-4.105385,-14.328773,-7.319235
1006.773438,-12.134448,-11.280460,-13.505465,-17.139241
1006.777344,-13.763299,-14.164280,-14.315560,-7.171908
1006.781250,-17.935626,-10.072436,0.633834,-12.095573
1006.785156,-8.912775,-0.379831,-12.072048,-11.942217
1006.789062,-2.717660,-0.733124,-8.085372,-8.210213
1006.792969,-7.873699,-3.986304,-1.351354,0.123420
1006.796875,-4.435995,-2.685162,-3.134559,-0.523109
1006.800781,5.113955,1.561935,7.011354,-0.462320
1006.804688,8.191056,3.962612,4.896487,7.890328
1006.808594,5.090372,6.046423,-4.267539,6.077024
1006.812500,10.925592,8.790323,11.552266,14.118967
1006.816406,2.352225,3.707143,6.685532,10.087014
1006.820312,13.307598,10.440697,6.544494,12.774344
1006.824219,11.740571,15.682161,12.449407,10.779403
1006.828125,7.632642,12.856373,7.856644,14.453693
1006.832031,9.469980,10.168483,12.319517,11.409871
1006.835938,-1.643774,5.731390,9.322485,8.979632
1006.839844,11.978982,1.672301,6.150432,8.779956
1006.843750,-6.365781,5.657757,9.940612,3.157332
1006.847656,0.868940,4.202985,6.336148,2.736520
1006.851562,-3.951968,-0.031085,1.651935,7.742768
1006.855469,-6.903797,-6.964229,0.376875,-4.548295
1006.859375,-1.477906,-8.176651,-10.790690,-4.677999
1006.863281,-5.286611,-13.428219,-17.256625,-4.262294
1006.867188,-5.332658,-4.568890,-7.523811,-2.832490
1006.871094,-2.773887,-3.484128,-15.050823,-13.277294
1006.875000,-8.381094,-5.123313,-11.014102,-11.664784
1006.878906,-9.985995,-4.497907,-13.663887,-10.419105
1006.882812,-5.428832,-8.619990,-12.675383,-10.422078
1006.886719,-6.202768,-5.567806,-7.699960,-7.953570
1006.890625,-2.684001,-12.527411,-10.928427,-9.267780
1006.894531,-5.619623,-2.095346,-9.664543,-7.127675
1006.898438,0.737735,3.954466,-6.052178,0.332774
1006.902344,-1.958997,5.900881,-0.084760,2.676098
1006.906250,1.365159,1.559888,4.086182,2.525086
1006.910156,6.140247,11.223652,8.195291,10.985922
1006.914062,2.463220,3.555592,5.674366,8.504337
1006.917969,10.499375,9.589186,6.928382,13.859650
1006.921875,7.483674,13.618419,17.553408,11.846545
1006.925781,8.867711,11.666715,11.057467,10.473010
1006.929688,16.195755,17.701557,17.692481,9.544294
1006.933594,5.809573,16.188366,6.416985,10.907669
1006.937500,11.934050,0.075172,8.731403,-2.035780
1006.941406,3.615560,12.539199,1.607536,7.270023
1006.945312,0.742569,-0.297611,5.384967,-1.736831
1006.949219,-4.812653,-11.957108,7.807728,2.704029
1006.953125,3.001713,-4.664273,-1.361793,1.292978
1006.957031,-2.979198,-7.928721,-6.562996,-3.236836
1006.960938,-4.775625,-5.112649,-6.351684,-15.256340
1006.964844,-6.805056,-6.122683,-2.632617,-4.108923
1006.968750,-0.714719,-6.802478,-9.700025,-13.398369
1006.972656,-14.749938,-3.200835,-9.937419,-11.014329
1006.976562,-10.716216,-2.668668,-18.854283,-14.672016
1006.980469,-6.812183,-15.844141,-12.508399,-6.468939
1006.984375,-10.217718,-5.827322,-3.038856,-12.013719
1006.988281,-7.191934,-15.565911,1.643538,1.315106
1006.992188,-4.485923,-5.055206,-4.512765,-5.476312
1006.996094,-2.213790,-0.066094,-0.606709,-7.242080
1007.000000,4.917834,-0.149555,0.739498,8.720506
1007.003906,7.764671,-2.746513,4.300948,3.901294
1007.007812,5.356569,6.547239,6.706030,4.705281
1007.011719,1.817720,11.477745,9.029801,-3.460498
1007.015625,9.793050,13.154492,6.213038,6.296198
1007.019531,8.527527,15.462767,14.658183,17.068218
1007.023438,5.672690,9.302234,8.856448,14.529196
1007.027344,14.147993,9.886471,13.044441,11.313492
1007.031250,10.210357,0.543634,10.278102,12.759483
1007.035156,7.676583,5.959622,10.554206,16.386914
1007.039062,1.626929,2.965861,5.656382,12.688150
1007.042969,5.786780,8.240767,5.696650,2.132979
1007.046875,5.109753,2.513479,1.323964,4.056925
1007.050781,-1.991329,-0.706920,-4.254517,-4.406838
1007.054688,2.517362,-1.792976,1.547502,-7.429238
1007.058594,-8.108915,-0.321268,-5.032881,-11.650015
1007.062500,-3.971700,-4.508135,-10.691456,-9.759437
1007.066406,-7.093200,-7.861009,-12.194913,-13.080349
1007.070312,-10.466526,-11.005709,-12.230060,-15.073180
1007.074219,-3.712085,-11.074488,-3.921276,-10.033814
1007.078125,-8.393640,-14.015519,-2.777362,-8.246426
1007.082031,-6.332554,-15.502742,-6.489645,-11.038203
1007.085938,-13.137067,-10.109648,-14.341156,-2.722886
1007.089844,-1.371202,-8.728014,-4.199500,-2.831602
1007.093750,-2.207071,0.088231,-4.903678,-1.560775
1007.097656,4.481415,-1.990539,1.587310,0.068783
1007.101562,5.394708,3.066012,-4.292349,-2.460059
1007.105469,5.701679,8.512488,11.166282,-2.768565
1007.109375,10.005456,0.623687,3.492203,3.526084
1007.113281,6.178050,9.744385,7.438328,-1.664854
1007.117188,2.500135,5.826865,4.987092,6.859220
1007.121094,14.152671,9.644129,7.295301,11.304463
1007.125000,9.795737,7.974661,11.341975,9.921218
1007.128906,7.603779,6.880189,6.293394,12.831295
1007.132812,11.041539,13.658317,7.475926,8.086843
1007.136719,10.286589,-2.777726,7.606597,3.601395
1007.140625,6.422203,10.633087,2.535031,4.386942
1007.144531,-2.246565,9.025250,2.682039,4.464833
1007.148438,3.904463,12.330080,-3.043200,4.655981
1007.152344,-6.893997,3.122600,-5.554493,-9.319464
1007.156250,1.922423,-2.852220,-11.368751,-4.541962
1007.160156,-9.862538,-7.266874,-3.716789,-1.025916
1007.164062,-2.558057,-7.884066,-5.508574,-4.301158
1007.167969,-5.559855,1.898198,-10.678505,-12.105797
1007.171875,-10.652383,-4.904129,-4.206038,-10.382648
1007.175781,-12.104000,-16.938587,-10.367158,-3.234532
1007.179688,-18.526420,-11.769451,-9.551592,-4.840335
1007.183594,-15.627943,-11.230473,-8.785337,0.558840
1007.187500,-16.876221,-9.617286,-1.210467,-16.907512
1007.191406,-12.136924,-8.021256,-15.020190,-1.203638
1007.195312,-4.974696,4.752390,-0.685059,-0.169434
1007.199219,4.172363,-5.537122,0.195636,2.820512
1007.203125,3.919283,8.178618,1.561835,0.572199
1007.207031,1.157747,1.235734,7.044625,3.317590
1007.210938,-2.884332,7.425701,5.582776,11.762909
1007.214844,9.271585,8.762501,18.927311,3.454592
1007.218750,14.922085,10.386678,15.047861,13.639454
1007.222656,8.382051,6.626399,15.877121,10.724196
1007.226562,10.478368,8.050256,3.809755,10.275250
1007.230469,11.783822,9.779795,7.590415,14.307576
1007.234375,12.122037,3.383717,6.069950,4.491129
1007.238281,-0.779236,7.746438,5.374185,11.886708
1007.242188,-0.084711,7.431545,-5.318808,-0.586022
1007.246094,3.941993,2.587984,-1.901999,2.307020
1007.250000,-4.186037,-1.456525,-0.992897,-1.251971
1007.253906,-1.867833,-3.345040,-13.790780,0.906024
1007.257812,-2.812062,-5.479458,-3.503458,-7.582087
1007.261719,-1.304977,-14.470012,-9.800590,-1.929549
1007.265625,-7.666727,-12.686858,-11.155230,-7.191462
1007.269531,-11.617622,-12.374006,-14.892912,-12.289873
1007.273438,-6.997107,-6.206217,-15.671328,-3.883095
1007.277344,-9.816639,-6.084597,-13.817558,-7.826273
1007.281250,-10.544997,-9.978862,-13.473578,-0.782381
1007.285156,-12.361030,0.348369,-9.576733,-10.567523
1007.289062,-9.157050,-4.592674,-5.030267,-1.892037
1007.292969,-2.222427,-8.372599,-3.891609,-4.265234
1007.296875,-7.118256,-4.611722,-9.848341,0.957605
1007.300781,-5.582587,2.670857,-5.014064,2.070595
1007.304688,0.377626,-6.397883,1.285440,-2.072422
1007.308594,8.028334,9.794531,6.804481,3.081095
1007.312500,5.336398,9.564039,8.114700,11.967795
1007.316406,10.078901,1.197511,4.159621,8.146737
1007.320312,4.840546,8.440655,13.326430,6.021641
1007.324219,11.135637,3.548925,7.955831,15.273238
1007.328125,9.805577,7.928456,4.093428,13.631914
1007.332031,10.314605,10.687716,5.135929,7.020431
1007.335938,13.417774,6.251982,6.800853,8.112357
1007.339844,9.341523,4.912043,11.564484,3.502543
1007.343750,4.925558,1.750331,6.449742,8.028387
1007.347656,-0.446102,-2.970359,3.324784,9.279669
1007.351562,-12.555916,3.381137,1.972332,1.411029
1007.355469,-3.209138,-0.159091,-5.216721,-1.454806
1007.359375,-5.266498,-10.098895,-14.738994,-3.280889
1007.363281,-5.663457,-3.664419,-4.690987,-5.303091
1007.367188,-11.113040,-1.662127,-12.580622,-4.817187
1007.371094,-18.506753,0.596685,-6.579725,-5.641882
1007.375000,-15.934171,-14.212245,-12.248845,-10.801588
1007.378906,-12.446430,-4.992383,-9.690894,-10.271086
1007.382812,-4.414782,-11.986717,-9.953579,-9.127421
1007.386719,-6.977441,-8.764085,-7.968024,-15.063720
1007.390625,-7.284387,-0.382415,-11.872912,-7.935087
1007.394531,2.340018,-3.161088,4.548671,-4.062415
1007.398438,-1.109080,1.600818,3.407026,-2.665667
1007.402344,1.682065,-2.634763,8.580756,3.325454
1007.406250,10.254568,9.317508,3.222573,9.625973
1007.410156,8.348159,2.356149,9.571906,0.586506
1007.414062,8.475639,11.287545,11.127596,6.103806
1007.417969,14.596525,4.391763,11.474429,8.981636
1007.421875,9.263385,3.521338,13.351413,7.027570
1007.425781,13.216202,10.294614,9.656818,13.815526
1007.429688,6.442693,10.191742,4.577321,8.280538
1007.433594,10.568920,9.968585,8.896119,10.463609
1007.437500,19.212890,10.265802,7.455834,15.788946
1007.441406,7.711084,3.557715,-0.275637,-4.487632
1007.445312,-0.225421,3.177453,-3.527508,1.765311
1007.449219,-1.800292,0.356455,3.702768,4.076669
1007.453125,-10.407271,-2.943086,-1.180735,1.375968
1007.457031,-1.844878,-10.910806,-0.580476,-0.582331
1007.460938,-6.523090,-1.732531,-15.684466,-9.261900
1007.464844,-6.089859,-4.808863,-0.136787,-8.688369
1007.468750,-8.839286,-0.474465,-14.480860,-14.552341
1007.472656,-2.770868,-14.531394,-5.846877,-9.912133
1007.476562,-4.862529,-16.328978,-8.292270,-15.379060
1007.480469,-7.910739,-6.547630,-17.770703,-7.810055
1007.484375,-0.368921,-6.654966,-11.258251,-8.248744
1007.488281,1.504970,-10.450339,-13.911786,-4.635271
1007.492188,-12.010483,-4.289473,0.236787,-6.343173
1007.496094,-6.022928,-5.859814,-1.662618,-2.808712
1007.500000,-3.592401,4.180395,-6.218610,-1.510499
1007.503906,9.291100,11.041035,2.985886,-4.534449
1007.507812,6.416683,-0.182736,5.592230,10.687781
1007.511719,1.268358,15.942117,2.601766,7.950146
1007.515625,7.754090,12.492041,14.100636,9.928458
1007.519531,4.791990,14.591723,12.756283,5.749925
1007.523438,4.277448,12.131884,18.168943,7.208310
1007.527344,11.055117,14.911873,5.338870,6.410841
1007.531250,9.558703,11.847524,3.895820,7.055395
1007.535156,10.157107,15.269824,4.620541,5.643653
1007.539062,6.239304,2.748012,8.372550,6.344944
1007.542969,2.728100,4.494002,4.491165,6.988882
1007.546875,7.787056,-3.425525,3.468377,4.974662
1007.550781,3.783610,-0.075486,-1.274036,3.110851
1007.554688,0.710868,-2.255805,-6.913250,-2.751017
1007.558594,3.576350,-8.177494,-11.705045,-10.177976
1007.562500,-5.599757,-6.822715,-4.642665,-5.290961
1007.566406,-7.590125,-13.441326,-3.621837,-4.844447
1007.570312,-12.093289,-10.396826,-14.973203,-6.899515
1007.574219,-11.707439,-9.020915,-8.671304,-9.873707
1007.578125,-10.782353,-9.719652,-11.737250,-18.522429
1007.582031,-12.007041,-13.309418,-11.422591,-6.610242
1007.585938,-10.157361,-9.382174,-6.088044,-15.015188
1007.589844,-5.415044,-4.064941,-8.170554,-4.378241
1007.593750,-4.902197,-0.652116,-4.087367,0.197930
1007.597656,-1.275045,2.744485,-3.860209,-0.313753
1007.601562,-2.136391,5.081410,3.189492,0.353552
1007.605469,-7.403532,-4.334267,-1.122068,5.897164
1007.609375,5.603863,7.639842,8.867540,5.958914
1007.613281,9.448619,13.716845,4.792660,10.226587
1007.617188,-3.496613,6.330401,9.109929,6.155682
1007.621094,11.258577,11.594406,9.146784,10.034611
1007.625000,17.371127,3.714574,7.253827,14.182797
1007.628906,9.468943,8.894663,7.142359,5.507613
1007.632812,8.389259,5.335420,7.206730,10.276183
1007.636719,0.899589,6.154152,9.028732,8.851634
1007.640625,5.049237,4.532157,5.652088,7.439287
1007.644531,2.052510,7.199918,0.305962,10.874073
1007.648438,3.405687,7.395219,-0.761616,5.022559
1007.652344,-4.046079,2.932398,-1.163534,-3.865497
1007.656250,-4.215626,-7.391117,-6.939040,-3.432173
1007.660156,-11.521981,-9.062876,-1.895205,-12.334074
1007.664062,-4.551572,-9.219160,-7.595467,-9.143681
1007.667969,-8.312858,-6.702228,-9.347137,-17.020531
1007.671875,-12.786811,-9.222250,-14.511746,-9.566525
1007.675781,-10.315522,-12.452342,0.989553,-8.284062
1007.679688,-13.262669,-3.505842,-12.371743,-8.668620
1007.683594,-12.473719,-8.939719,-15.579840,-10.113019
1007.687500,-7.788122,-12.818201,-7.213205,-5.448878
1007.691406,-9.879967,3.428669,-1.925479,-10.756510
1007.695312,-0.436456,-6.025555,-5.120539,-11.462063
1007.699219,-3.813281,-9.143120,0.204563,-0.155653
1007.703125,-5.000263,2.733387,4.983390,3.183699
1007.707031,10.478587,7.040103,2.110431,9.260334
1007.710938,8.862883,12.955924,11.506975,5.374417
1007.714844,7.870643,-1.908913,12.163748,9.477550
1007.718750,14.258128,8.243701,4.162496,7.523855
1007.722656,10.439490,16.175294,10.267652,19.152738
1007.726562,10.196490,7.045266,2.898917,4.315218
1007.730469,7.129108,13.879799,11.971451,-2.776170
1007.734375,13.116724,9.264988,6.348563,8.916704
1007.738281,4.589127,3.618906,8.157629,2.987485
1007.742188,7.891943,-5.449226,-0.623946,7.216025
1007.746094,-0.688237,9.303976,-5.111990,0.034426
1007.750000,9.850435,-8.206429,2.379409,-0.881563
1007.753906,-4.838029,6.906573,-1.812475,1.077258
1007.757812,-10.028546,-8.421719,-6.362169,-11.422043
1007.761719,-11.305261,-6.178066,-6.093632,-8.091853
1007.765625,-8.696545,-14.603216,-8.761339,-10.472826
1007.769531,-9.331376,-7.539241,-7.115391,-9.379584
1007.773438,-16.347485,-11.840801,-5.047490,-14.277066
1007.777344,-10.578712,-15.437963,-14.883766,-6.060858
1007.781250,-9.686962,-6.498867,-7.128493,-13.244050
1007.785156,-11.177144,-16.539571,-6.734260,-5.073678
1007.789062,-5.476422,-5.807111,-14.239800,-10.310361
1007.792969,-2.901190,-10.888732,-12.144847,-7.372787
1007.796875,2.739438,-4.505454,5.474027,-8.208539
1007.800781,-6.660880,1.495393,0.040098,-0.168154
1007.804688,3.923919,2.285872,7.738961,8.046781
1007.808594,6.547867,5.368840,5.885427,5.881386
1007.812500,6.277380,0.502755,9.158800,5.535595
1007.816406,13.936091,13.971726,10.669028,10.245112
1007.820312,11.317354,8.855796,3.546398,3.279038
1007.824219,5.280402,8.465914,12.291865,10.462400
1007.828125,5.584558,10.568545,7.983567,2.743535
1007.832031,10.473045,11.834911,10.095301,10.616833
1007.835938,0.453243,10.262283,9.891500,12.338120
1007.839844,12.609288,1.341465,4.006421,13.404489
1007.843750,2.148974,3.751346,1.683331,2.956310
1007.847656,-1.219566,6.662940,4.640977,-0.509435
1007.851562,-3.245391,3.753062,-3.076282,1.270783
1007.855469,1.064011,-1.074410,-1.375407,1.598433
1007.859375,-4.241993,-11.707957,-8.204843,-8.918841
1007.863281,2.372408,-11.820360,-1.767245,-12.942549
1007.867188,-10.334560,-7.650612,-11.108821,-6.827317
1007.871094,-14.366475,-10.663388,-8.177769,-0.583132
1007.875000,-2.708268,-7.317670,-11.201419,-11.495565
1007.878906,-4.664622,-14.298357,-13.370265,-4.123463
1007.882812,-6.120686,-10.687236,-6.037288,-4.433792
1007.886719,-3.347884,-8.985649,-5.574873,-10.222181
1007.890625,-4.562812,-1.185076,-5.609016,-8.699132
1007.894531,-6.808809,-8.225217,-4.712178,-9.780696
1007.898438,1.780550,-2.834482,-0.508815,-3.401013
1007.902344,0.409793,4.433336,4.487173,-2.379368
1007.906250,9.990212,8.424333,-8.557296,-1.193649
1007.910156,9.959189,7.295531,5.700297,3.006575
1007.914062,5.507681,8.006154,7.431814,8.259810
1007.917969,0.011431,12.738456,7.140206,10.043753
1007.921875,7.705144,11.202439,6.665056,15.958601
1007.925781,11.774771,10.652371,13.516790,14.891716
1007.929688,6.332491,11.191668,9.844080,14.925086
1007.933594,8.278009,7.249491,6.100048,11.663492
1007.937500,15.173353,8.119560,4.456883,2.671763
1007.941406,9.939885,1.444372,4.422247,5.850937
1007.945312,0.349062,6.715304,-4.725463,2.880259
1007.949219,5.897053,7.582552,8.672425,1.898848
1007.953125,-0.907329,3.495783,-15.890461,-0.254398
1007.957031,-2.338799,-8.054354,-9.947539,-10.913371
1007.960938,-8.175825,-7.009843,-15.970253,-10.360962
1007.964844,-8.304494,-10.037662,-1.227433,-5.986010
1007.968750,-8.196704,-4.065445,-8.281938,-0.788696
1007.972656,-17.927552,-17.280107,-10.331764,-9.366731
1007.976562,-9.143922,-10.794658,-11.527454,-12.671764
1007.980469,-4.739016,-9.347529,-10.613046,-12.995053
1007.984375,-14.553217,-3.063964,-10.419561,-9.190075
1007.988281,-6.406877,0.023906,-4.949936,-9.409598
1007.992188,-7.879517,-6.820642,1.535464,-4.533057
1007.996094,2.549728,-1.116653,-1.216805,-5.095848
1008.000000,-5.445920,-5.296208,0.312605,-6.524057
1008.003906,2.080268,-6.620558,8.966324,-0.896108
1008.007812,5.111307,1.070576,3.611616,8.123643
1008.011719,-5.621541,7.874681,5.661180,-2.141026
1008.015625,11.448977,3.705258,16.986420,4.211796
1008.019531,11.383872,7.257075,7.107696,10.611939
1008.023438,17.341443,12.697944,9.989998,7.181697
1008.027344,6.188811,7.663139,9.425579,11.477896
1008.031250,14.311848,8.959667,4.798682,7.557627
1008.035156,11.272099,6.950619,7.579257,9.558029
1008.039062,7.039393,5.325405,7.854178,9.769087
1008.042969,12.173145,0.611235,4.926295,5.287610
1008.046875,-4.910506,3.181475,5.495581,5.943306
1008.050781,3.038045,-4.981872,1.016008,-2.546381
1008.054688,1.794658,-7.227011,-5.708588,-1.963938
1008.058594,-5.665584,-5.742443,-5.676307,-4.861049
1008.062500,-11.299772,-7.132074,-8.293133,-5.955475
1008.066406,-8.888342,-10.316886,-2.860327,-3.397104
1008.070312,-7.822614,-8.696920,-17.494816,-10.915399
1008.074219,-13.117206,-7.791449,-9.086990,-12.563065
1008.078125,-10.977411,-4.554178,-4.760984,-14.955198
1008.082031,-8.570424,-10.009530,-8.330418,-0.610398
1008.085938,-15.673335,-8.731985,-3.411891,-9.453655
1008.089844,-4.414432,-6.046997,-2.271817,0.745683
1008.093750,-4.937288,-4.022570,-5.798859,4.532099
1008.097656,1.449449,0.880180,-0.760137,1.901100
1008.101562,-0.557969,1.577407,5.454236,-1.274038
1008.105469,-0.104606,6.226807,4.020036,11.199881
1008.109375,6.829033,6.743950,8.296241,2.435158
1008.113281,5.798835,8.664804,5.365647,5.209205
1008.117188,6.570934,9.682988,5.238008,7.867190
1008.121094,10.589964,14.220093,16.844569,7.109865
1008.125000,7.154555,15.281368,9.689888,10.700452
1008.128906,1.006792,11.844868,9.766340,8.718763
1008.132812,8.508822,2.193989,8.901471,7.972155
1008.136719,1.722413,2.635002,7.562788,2.151047
1008.140625,15.538686,3.826958,6.912821,9.443888
1008.144531,2.794608,10.064810,0.713709,0.269075
1008.148438,4.392925,1.266572,-0.034657,1.035501
1008.152344,-0.654200,5.631247,4.047305,-2.724220
1008.156250,1.980367,-5.328600,-6.725064,-8.884240
1008.160156,-2.664879,-10.208603,-12.271265,-1.126006
1008.164062,-9.080710,-13.461783,-9.451350,-11.088509
1008.167969,-9.677360,-1.501093,-10.285664,-14.020428
1008.171875,-10.918086,-6.158363,-2.576032,-13.167662
1008.175781,-9.676259,-6.531275,-13.026552,-9.979450
1008.179688,-10.407423,-15.100235,-11.957920,-6.843007
1008.183594,-14.162952,-5.049972,-11.514240,-9.713206
1008.187500,-6.740538,-12.225909,-10.956546,-8.003426
1008.191406,-0.635367,-1.447443,-5.941292,-3.986504
1008.195312,-7.544697,-8.554543,-15.486181,1.268850
1008.199219,-0.358360,-3.054892,0.823959,2.437894
1008.203125,-5.821089,3.803796,10.169632,-2.343678
1008.207031,3.150470,7.087151,9.681052,-0.827707
1008.210938,8.005207,-0.068708,5.122402,5.425659
1008.214844,10.806479,5.795125,8.464671,8.489796
1008.218750,12.877831,9.553556,16.137941,6.415452
1008.222656,10.955283,9.063041,11.642716,7.357237
1008.226562,9.094394,5.876918,14.799073,14.182779
1008.230469,11.365567,14.697378,3.318788,6.949580
1008.234375,2.120375,12.924961,11.389179,11.976746
1008.238281,4.147014,8.920707,8.609716,4.677098
1008.242188,10.039767,0.856249,0.606652,1.676770
1008.246094,3.065742,9.304530,4.200230,5.594111
1008.250000,5.926276,0.084096,7.095687,1.480775
1008.253906,-10.062013,-3.958124,-0.158316,-2.111524
1008.257812,-3.031293,-7.327165,-11.112371,-3.614866
1008.261719,-10.671823,-3.645483,-9.961443,-2.527028
1008.265625,-4.832949,-12.006829,-15.983170,-12.576866
1008.269531,-9.408533,-5.956993,-8.501298,-10.220550
1008.273438,-8.117402,-8.323040,-7.857941,-12.516980
1008.277344,-15.788037,-6.541885,-4.487388,-9.759575
1008.281250,-11.229023,-6.147914,-14.821073,-8.141926
1008.285156,-8.977044,-7.743870,-10.989100,-3.633977
1008.289062,-10.461924,-5.096835,-4.982829,4.608181
1008.292969,-3.283267,-6.183247,-3.524620,-3.848088
1008.296875,-1.066999,-0.150865,-6.546573,1.820205
1008.300781,-8.965424,-3.200123,-1.262236,4.372876
1008.304688,8.187658,8.902676,10.440473,-2.053200
1008.308594,5.699949,2.694438,5.110610,6.772052
1008.312500,10.654029,12.870720,5.213534,9.606418
1008.316406,16.110929,4.857732,3.414631,16.484143
1008.320312,10.991872,6.357387,8.649917,10.637140
1008.324219,13.943378,6.468229,10.379554,7.460481
1008.328125,5.954118,11.188862,5.162779,4.444282
1008.332031,10.568127,8.679531,10.725831,10.882194
1008.335938,5.829799,-2.277758,9.563260,3.413651
1008.339844,8.231134,1.448446,15.585545,4.718063
1008.343750,0.020138,3.078649,7.723573,-0.563719
1008.347656,1.870935,-1.076691,-0.120864,-0.579249
1008.351562,-2.381668,0.508368,-2.158092,4.156845
1008.355469,-1.514963,-2.513678,-0.058231,-5.815551
1008.359375,-6.693504,-2.722554,-6.701510,-4.523939
1008.363281,-5.786069,-0.764927,-6.353500,-8.474279
1008.367188,-7.278057,-15.147520,-14.549344,-18.431002
1008.371094,-11.989631,-14.379732,-6.674558,-6.062723
1008.375000,-11.231138,-10.656796,-14.133243,-1.044949
1008.378906,-6.862125,-5.527077,-10.756181,-8.082173
1008.382812,-10.382659,-7.264719,-10.627302,-6.322476
1008.386719,-3.835827,-9.532124,-1.599932,-10.289257
1008.390625,-1.837688,-1.214654,-8.034547,-4.089405
1008.394531,-3.617479,-9.430102,-8.424682,-3.689010
1008.398438,-1.923294,2.752383,-0.401133,-1.580031
1008.402344,-2.779294,2.390195,5.550791,8.915555
1008.406250,-0.822103,0.170352,5.417293,4.877659
1008.410156,6.025730,8.727289,5.910729,4.986339
1008.414062,8.591400,10.955878,11.363266,10.194003
1008.417969,1.882142,8.719262,8.022695,5.029283
1008.421875,8.221718,8.994960,5.001456,6.533167
1008.425781,14.709287,9.486231,14.809047,4.045092
1008.429688,0.149774,9.963990,9.264800,8.537931
1008.433594,17.052128,11.620419,13.955642,10.578629
1008.437500,-1.725533,0.466983,5.547861,7.241256
1008.441406,4.262171,6.870328,0.038358,8.924332
1008.445312,-1.650276,5.226834,-4.774500,1.474948
1008.449219,2.762810,0.446828,2.406659,-7.341424
1008.453125,-1.226956,-10.793851,-3.130573,1.582283
1008.457031,-3.982034,-3.891190,-0.390633,-5.447265
1008.460938,-0.372394,-6.088930,-7.212294,-3.657878
1008.464844,-2.867426,-4.301932,-8.631196,-14.941053
1008.468750,-7.863835,-12.299193,-7.441241,-15.869671
1008.472656,-13.694988,-7.599669,-11.155644,-0.559661
1008.476562,-2.668990,-7.102311,-20.648363,3.198895
1008.480469,-8.218988,-11.743350,-12.627011,-15.361448
1008.484375,-10.657032,-17.125455,-11.547769,-11.577046
1008.488281,-9.446182,-7.271680,-2.234503,1.563389
1008.492188,0.334262,-0.948137,-9.612694,-10.627221
1008.496094,3.652542,-7.597805,-0.634229,-9.036368
1008.500000,2.941181,2.957174,-3.714063,-10.885119
1008.503906,-3.716291,3.324038,4.422505,5.714878
1008.507812,6.941448,5.165475,5.384700,0.192427
1008.511719,9.094396,7.008564,8.324715,1.238692
1008.515625,15.211643,0.342267,11.299748,12.965500
1008.519531,10.436970,8.139923,7.340865,13.323465
1008.523438,2.967606,2.583015,4.976673,8.653654
1008.527344,16.584494,8.113348,10.011890,8.728499
1008.531250,7.284533,10.227916,13.858094,8.737351
1008.535156,10.589315,11.244943,1.129337,9.936257
1008.539062,13.483411,9.042502,6.478199,11.902275
1008.542969,1.280521,6.302552,3.921250,6.758336
1008.546875,-0.566076,8.846871,2.258163,3.163334
1008.550781,0.414480,-5.529920,0.507867,1.034625
1008.554688,-11.106478,-5.941509,-0.939121,-2.112643
1008.558594,-7.317910,-6.819245,-0.399458,-4.733689
1008.562500,-10.016301,-9.750150,-4.399705,-4.930633
1008.566406,-10.322920,-15.086022,-10.415617,-11.030171
1008.570312,-12.432003,-7.414759,-10.101339,-10.120971
1008.574219,-5.243402,-8.911880,-12.171519,-5.761773
1008.578125,-13.567063,-2.208624,-8.027624,-10.285898
1008.582031,-8.105980,-7.588380,-14.743048,0.988495
1008.585938,-10.664270,-9.112240,-4.437516,-5.826846
1008.589844,-2.575021,-4.943308,-6.826030,-3.456777
1008.593750,1.959636,-1.734476,-1.150042,-3.660294
1008.597656,-5.616477,-1.763028,0.097639,-3.755736
1008.601562,6.130651,7.213144,-1.102880,5.498302
1008.605469,-0.594070,3.829369,0.390807,-1.054897
1008.609375,0.002700,4.960369,4.297036,-5.918396
1008.613281,12.015235,11.097552,8.089161,4.507247
1008.617188,14.522045,6.898420,12.632378,8.417794
1008.621094,4.175571,10.527515,11.656132,11.045759
1008.625000,10.393864,12.085344,12.654410,2.370921
1008.628906,12.494652,9.531058,4.891937,15.058939
1008.632812,9.622545,12.727209,9.872376,1.471628
1008.636719,8.691658,6.868333,0.874455,7.906579
1008.640625,8.590488,8.834654,3.279417,13.352394
1008.644531,-1.408150,3.905535,1.922412,-2.586061
1008.648438,2.537747,0.112608,4.189622,3.116655
1008.652344,-3.383574,-0.342430,-1.231880,4.879414
1008.656250,-1.762969,-0.808531,-9.950134,1.184489
1008.660156,-3.991325,-11.116143,-3.806032,-1.996354
1008.664062,-5.465890,-4.514460,-4.679008,-10.861760
1008.667969,-21.376418,-5.686758,-12.523632,-10.873751
1008.671875,-4.923793,-4.657641,-13.578587,-11.106844
1008.675781,-10.978283,-8.345622,-3.322379,-13.096985
1008.679688,-9.168627,-6.610061,-7.842020,-11.026064
1008.683594,-9.200672,-5.726138,-8.737481,-12.474873
1008.687500,-8.064363,-4.725735,-7.199393,-13.642228
1008.691406,-4.928063,0.734031,-4.121667,-7.034392
1008.695312,-3.987388,-4.338121,-6.670347,-0.248706
1008.699219,-0.820216,0.352237,-3.361946,-2.038902
1008.703125,3.388540,7.385712,-8.136226,1.541502
1008.707031,-0.254798,8.622782,-0.012247,7.832772
1008.710938,4.241171,3.554197,10.045013,9.998870
1008.714844,16.959431,6.959353,6.219127,7.540400
1008.718750,10.150706,8.719739,11.366166,10.742519
1008.722656,3.389955,17.310405,13.574917,0.218944
1008.726562,7.745997,10.707489,1.123774,9.478613
1008.730469,13.383754,17.890230,3.475899,12.500548
1008.734375,7.215728,8.971793,8.938932,7.068115
1008.738281,1.423277,7.107815,9.843420,3.122165
1008.742188,7.984362,7.513934,0.085385,2.592534
1008.746094,6.847759,-1.427864,-4.578762,-1.982365
1008.750000,3.577452,-3.250834,4.248998,2.666115
1008.753906,-2.347277,-0.229809,5.109765,-9.067652
1008.757812,-2.125989,-10.406829,-1.994373,-6.557636
1008.761719,-7.500997,-8.555676,-10.057915,-6.524252
1008.765625,-8.818191,-9.374612,-2.814145,-6.444181
1008.769531,-7.519567,-12.033627,-12.870227,-10.486213
1008.773438,-4.297744,-4.863889,-8.879612,-15.072525
1008.777344,-14.626848,-11.828142,-10.890012,-14.150951
1008.781250,-5.237831,-3.818905,-4.875655,-14.928151
1008.785156,-3.786704,-7.197077,-8.054268,-9.820880
1008.789062,-6.016216,1.394970,-8.925626,-11.272852
1008.792969,-7.923381,-2.574935,-0.906542,-7.926676
1008.796875,4.864988,-0.171080,2.471246,-7.035655
1008.800781,1.375523,-3.880827,-0.261394,1.705012
1008.804688,5.087794,5.472269,0.495031,3.597252
1008.808594,3.467077,4.561963,0.174850,4.834750
1008.812500,4.788531,3.975943,0.857927,0.571300
1008.816406,12.190765,10.615798,7.292371,10.467505
1008.820312,11.432681,12.151696,4.900427,10.365403
1008.824219,8.188144,1.694211,8.203387,9.633592
1008.828125,4.070021,9.580437,10.942138,13.585040
1008.832031,10.571458,19.170422,7.607679,19.010450
1008.835938,7.009138,6.593366,6.045005,2.745584
1008.839844,7.422545,10.920535,0.170399,2.046335
1008.843750,2.411577,2.043715,5.805142,2.597801
1008.847656,2.250082,0.100287,6.755480,0.647109
1008.851562,5.017068,0.749458,-4.183834,8.822811
1008.855469,-5.622785,-9.665106,-6.599634,-11.124010
1008.859375,-2.787505,-7.105826,-6.958828,-4.535492
1008.863281,-6.117931,-7.662415,-10.354585,-10.998226
1008.867188,-5.582146,-7.451201,-9.141939,-14.231881
1008.871094,-6.855944,-13.743877,-13.314845,-7.238118
1008.875000,-10.301015,-9.494010,-6.628073,-6.766357
1008.878906,-13.813455,-11.850439,-7.994312,-4.829586
1008.882812,-9.706705,1.241196,-6.723440,-0.698837
1008.886719,-4.889550,-7.910634,-8.563713,-10.614143
1008.890625,-7.579714,-6.505433,-0.628106,-12.906380
1008.894531,-1.023568,-4.254144,-2.566901,-4.073490
1008.898438,3.757564,-2.118136,-2.431861,-2.474616
1008.902344,8.589145,-4.791185,3.690201,6.849741
1008.906250,1.732663,0.548910,-0.563162,5.450015
1008.910156,8.181307,5.734049,2.024253,4.832424
1008.914062,8.544845,1.168062,5.649494,12.263812
1008.917969,5.812529,15.676544,8.098056,9.102435
1008.921875,6.397450,9.994398,15.722681,6.902854
1008.925781,10.279369,3.567479,10.227293,10.950357
1008.929688,2.501871,10.949512,12.847790,11.377790
1008.933594,6.561465,6.208020,5.906075,6.362230
1008.937500,7.133040,8.055279,10.420276,0.270090
1008.941406,2.242659,9.193038,8.001373,12.734723
1008.945312,5.492665,5.085483,-0.195591,2.738531
1008.949219,-1.532755,-4.643775,4.821296,-2.835052
1008.953125,-3.449198,3.689334,-0.779631,-2.360617
1008.957031,0.911053,-8.773910,-3.161351,-12.145530
1008.960938,-2.815850,-12.457382,-11.212904,-12.178262
1008.964844,-12.776754,-7.710046,-10.440295,-3.182089
1008.968750,-10.251492,-12.209243,-8.988809,-12.662672
1008.972656,-12.710631,-7.245365,-7.198331,-8.839236
1008.976562,-8.450772,-6.197554,-15.076702,-2.668735
1008.980469,-3.668390,-12.571672,-12.065361,-7.138952
1008.984375,-3.154226,-12.838058,-3.449261,-9.725323
1008.988281,-4.150162,-10.401383,-9.912705,-4.583881
1008.992188,-2.321547,-5.428195,-8.267244,-0.669579
1008.996094,5.305974,-1.212104,-4.086544,-2.727395
1009.000000,5.881438,1.349296,3.359148,0.147728
1009.003906,-1.291784,3.596393,1.668311,-0.153752
1009.007812,14.332944,8.022283,-0.942416,4.133691
1009.011719,5.910175,5.460209,3.877662,5.519963
1009.015625,14.538816,12.832217,8.897597,2.224962
1009.019531,9.842765,6.789852,10.423535,13.756776
1009.023438,9.478297,14.165774,0.344150,7.715544
1009.027344,9.272454,8.086624,10.576388,10.402828
1009.031250,1.330042,10.242093,7.600665,9.488241
1009.035156,10.964375,9.334129,5.914276,10.212320
1009.039062,1.386806,1.254118,3.480895,5.562283
1009.042969,0.955215,-1.647602,4.480566,1.572917
1009.046875,5.031208,-6.378226,0.330154,0.599971
1009.050781,1.836160,-5.777444,-3.850238,-2.895171
1009.054688,4.136382,-1.092647,-1.442358,-6.656714
1009.058594,-6.673792,-8.118499,-2.388024,-13.464627
1009.062500,-8.688304,-6.397057,-7.567642,-9.745153
1009.066406,-9.760623,-16.545472,-5.710734,-1.501730
1009.070312,-7.853195,-9.547833,-17.406958,-18.703093
1009.074219,-11.315340,-10.236628,-9.617125,-8.559881
1009.078125,-14.636220,-11.908332,-14.757361,-11.641512
1009.082031,-8.131012,-8.161069,-3.903085,-14.046985
1009.085938,-6.338178,-6.454410,-5.053798,-9.097342
1009.089844,-12.720634,-8.188321,-15.431926,-9.840887
1009.093750,-1.807160,-3.590875,-2.601290,-6.088039
1009.097656,-3.198929,3.322635,3.232059,-5.950080
1009.101562,-0.725399,0.763160,-1.603106,2.555221
1009.105469,5.773461,1.397904,4.525555,10.297657
1009.109375,0.036828,4.364977,7.890590,3.396763
1009.113281,10.204573,8.782823,7.932542,6.699674
1009.117188,4.988639,9.835922,6.372536,12.640845
1009.121094,3.888538,8.035424,13.521001,12.495595
1009.125000,11.957614,11.748202,16.286760,12.842769
1009.128906,10.434442,9.454752,7.725266,5.718992
1009.132812,12.870674,7.382412,15.964926,6.074252
1009.136719,3.126761,14.483639,8.277123,6.280759
1009.140625,8.242813,8.154637,7.089366,9.791209
1009.144531,5.446077,13.733706,1.225848,8.525521
1009.148438,-2.511827,-2.396606,-6.921616,3.574019
1009.152344,-6.280043,-1.195867,-4.834163,-2.976215
1009.156250,-6.033180,0.006824,-5.641749,0.194710
1009.160156,-4.652254,-10.794226,-8.114878,-1.686075
1009.164062,-9.167986,-1.901183,-13.637636,-8.062873
1009.167969,-10.634468,-10.797793,-10.671857,-3.405649
1009.171875,-15.713737,-16.528923,-16.082507,-9.347110
1009.175781,-14.654400,-15.170608,-10.857756,-13.310417
1009.179688,-17.135711,-10.400733,-9.620337,-14.479037
1009.183594,-3.920322,-2.938626,-5.589335,-6.447504
