timestamp,TP9,AF7,AF8,TP10
1000.000000,2.815368,-3.998725,-2.660269,-0.048977
1000.003906,-5.298120,1.945446,10.009227,1.652470
1000.007812,0.394173,3.437431,5.795403,-0.643656
1000.011719,4.820414,9.110903,9.011462,1.921114
1000.015625,10.312650,9.260437,11.915609,3.467763
1000.019531,11.879343,12.551087,15.624134,14.306315
1000.023438,13.699615,14.215093,7.053908,-0.341872
1000.027344,10.944734,14.734637,8.522300,7.757858
1000.031250,12.286887,7.653109,14.663363,7.931807
1000.035156,8.856323,7.936723,12.808149,1.254789
1000.039062,6.869565,8.509759,5.847878,-1.783785
1000.042969,8.955440,11.537725,0.843665,5.158871
1000.046875,-0.955783,2.352383,1.553330,-1.836388
1000.050781,-2.350032,-0.611462,0.698079,2.271009
1000.054688,-0.124458,4.890484,-2.227675,-2.660917
1000.058594,-10.299694,-4.117159,-5.650335,-6.950380
1000.062500,-8.942150,-7.127769,-10.898626,-6.413320
1000.066406,-4.132338,-17.037442,-3.500710,-6.599468
1000.070312,-7.019848,-8.811789,-8.111837,-4.111212
1000.074219,-13.650089,-4.795901,-9.450594,-5.645045
1000.078125,-12.817106,-2.901315,-11.626822,-9.276208
1000.082031,-7.757343,-10.658446,-4.273954,-4.307136
1000.085938,-9.691837,-9.787119,-7.503651,-4.948253
1000.089844,-6.418285,-5.690719,-4.644035,-8.581585
1000.093750,-5.818116,-11.979872,-4.535557,-6.487913
1000.097656,1.709240,2.692974,-0.432820,0.252597
1000.101562,4.280528,-1.179572,3.459869,6.987868
1000.105469,4.677520,5.903197,5.205040,7.486659
1000.109375,1.917528,2.303976,7.592390,11.173712
1000.113281,10.716693,11.173307,2.017443,8.874412
1000.117188,13.768489,2.762223,9.602394,12.624035
1000.121094,15.731703,11.514136,9.931567,11.720121
1000.125000,6.703169,17.844052,4.668924,9.346200
1000.128906,12.770515,15.708051,12.100738,7.505232
1000.132812,8.314430,8.581918,4.290368,4.414393
1000.136719,10.850656,10.266804,8.539047,8.731348
1000.140625,2.261429,7.078340,5.892300,10.387955
1000.144531,2.922127,-3.030548,5.580841,-0.161850
1000.148438,-4.844107,4.292587,4.345783,-4.477792
1000.152344,-9.479842,0.177889,-5.775079,4.454360
1000.156250,-6.550034,-8.541327,-0.142249,0.595736
1000.160156,-4.234290,0.225845,-4.897463,-1.344758
1000.164062,-1.766276,1.643478,-4.039808,-11.982464
1000.167969,-7.839119,-9.591494,-11.416775,-4.174205
1000.171875,-10.945473,-11.458700,-17.502557,-14.455313
1000.175781,-6.140207,-17.178579,-7.345030,-13.437050
1000.179688,-14.955087,-10.927630,-15.070138,-11.223713
1000.183594,-5.029984,-3.446147,-9.742274,1.226336
1000.187500,-3.906170,-7.636599,-5.968910,-11.047749
1000.191406,-5.741752,-7.854616,-5.374224,-2.962469
1000.195312,-10.261715,-0.440278,-2.242337,1.444377
1000.199219,1.970100,4.811974,-1.164977,-3.618194
1000.203125,7.236507,1.418417,-5.262016,4.608487
1000.207031,2.142957,3.123960,3.978696,0.815070
1000.210938,7.786919,-4.425178,-2.351082,6.608950
1000.214844,5.977964,7.406366,1.610683,7.388825
1000.218750,6.575291,4.718253,12.198233,11.768829
1000.222656,11.505262,9.680184,8.996836,19.657833
1000.226562,7.630434,1.229165,15.075794,5.454674
1000.230469,13.504233,8.406073,9.208760,6.415497
1000.234375,10.540267,10.759954,8.751780,8.807833
1000.238281,6.432422,6.927917,4.779336,2.549721
1000.242188,3.968376,2.502161,6.474820,11.391780
1000.246094,0.699234,-0.125188,-4.325925,4.941589
1000.250000,-1.248496,3.083738,-11.075135,0.644759
1000.253906,-1.712021,-0.588818,-0.596895,-8.377303
1000.257812,-7.582262,-3.711992,-7.816642,-2.822534
1000.261719,-10.395324,-12.010901,-5.886166,-9.413167
1000.265625,-0.101962,-8.851297,-9.189438,-11.426604
1000.269531,-3.188700,-9.269554,-5.667412,-11.665361
1000.273438,-7.477515,1.122710,-8.467794,-10.740614
1000.277344,-11.327531,-11.058361,-0.348901,-11.734654
1000.281250,-10.670407,-5.789411,-8.622841,-9.234163
1000.285156,-6.390761,-8.476598,-10.970338,-2.372109
1000.289062,-6.060320,-0.136903,-7.770700,-5.158572
1000.292969,-5.071307,-5.961404,-5.609324,-7.533991
1000.296875,7.447143,0.879025,-5.061335,-1.026745
1000.300781,-0.382419,-5.099217,-0.186394,3.890104
1000.304688,4.075484,3.705484,7.792911,0.072363
1000.308594,-2.221285,2.547856,-1.141856,9.340506
1000.312500,3.716793,7.185053,7.113808,10.195149
1000.316406,11.148725,10.347718,17.575399,10.545258
1000.320312,18.807224,12.475905,8.961422,15.729272
1000.324219,6.107084,17.679299,9.713668,13.169008
1000.328125,6.861776,14.467918,16.657799,16.341423
1000.332031,12.831717,9.157177,6.029573,9.598729
1000.335938,14.696804,9.326915,10.443464,9.654648
1000.339844,11.064135,3.962409,5.843528,-0.808047
1000.343750,5.288202,6.249322,1.919954,2.316930
1000.347656,1.770032,-4.608515,-2.913879,0.141018
1000.351562,-4.498366,2.014529,1.999612,-3.734771
1000.355469,0.597370,3.141598,-3.259892,-6.641897
1000.359375,-5.831489,-1.814348,-4.921789,-1.031551
1000.363281,-10.464110,-6.839656,-9.518566,-4.145857
1000.367188,-8.565405,-7.461328,-5.667213,-7.347189
1000.371094,-10.883039,-6.177481,-13.307989,-7.406036
1000.375000,-5.869259,-11.077743,-10.022915,-15.008000
1000.378906,-5.278862,-7.882445,-6.052609,-14.010390
1000.382812,-2.687404,-3.957291,-6.350927,-2.544578
1000.386719,-7.845344,-4.676734,-10.355012,-5.778388
1000.390625,-11.877678,-11.741208,-1.706776,-0.696690
1000.394531,-3.920488,-11.351119,-5.749993,-11.687898
1000.398438,-3.188124,7.078546,-4.399573,-1.133197
1000.402344,2.251927,2.844214,4.422895,4.035425
1000.406250,5.963918,2.342799,-1.113689,-1.870816
1000.410156,0.709041,7.032047,1.777261,8.115343
1000.414062,11.179110,2.838476,8.016024,7.262837
1000.417969,9.199133,5.571114,8.508969,11.621609
1000.421875,9.218844,3.807314,7.169328,11.023543
1000.425781,17.598265,13.544025,11.634392,10.290661
1000.429688,11.758108,8.372088,7.153520,13.347671
1000.433594,8.407036,14.959382,4.865773,4.874811
1000.437500,5.279739,8.456677,2.111181,1.075392
1000.441406,2.584739,0.679371,2.544964,4.256624
1000.445312,1.632888,0.912549,-2.666667,0.378065
1000.449219,3.910990,5.921846,2.079393,3.856602
1000.453125,-3.199607,-4.264903,-1.342257,-10.463302
1000.457031,-5.253492,0.281480,-1.050848,-1.644460
1000.460938,-0.882352,-11.423258,-12.732108,-8.277928
1000.464844,-11.698676,-9.510451,-2.301174,-9.139953
1000.468750,-1.886243,-4.472796,-7.648755,-9.494126
1000.472656,-13.791959,-6.927525,-6.678058,-6.739083
1000.476562,-14.657475,-12.617130,-9.827473,-15.814177
1000.480469,1.245972,-7.825519,-8.744036,-6.313614
1000.484375,-8.243982,-8.284376,-5.326196,-8.090606
1000.488281,-1.761984,-9.324571,-3.469554,-7.512854
1000.492188,0.875660,-6.812957,-10.384632,-6.157593
1000.496094,1.718696,-7.106896,-4.950559,1.281792
1000.500000,-1.895782,-0.777088,2.700189,2.566694
1000.503906,7.757456,9.541217,2.781926,3.730278
1000.507812,3.786467,3.087083,8.061468,6.528399
1000.511719,2.332987,9.486050,2.873345,1.021283
1000.515625,7.126060,12.470992,10.727755,10.104458
1000.519531,12.902410,5.733864,10.018366,5.261128
1000.523438,17.756680,9.115618,11.623399,5.895932
1000.527344,7.935642,4.745327,6.974817,9.717980
1000.531250,12.284601,7.071370,9.658205,6.736901
1000.535156,6.099894,1.368121,7.680780,11.664059
1000.539062,5.723714,7.255287,2.470102,2.457527
1000.542969,6.163847,3.780040,4.329479,12.739465
1000.546875,0.844442,-1.663290,7.158891,2.084673
1000.550781,-6.300314,-1.634340,-6.289968,-4.015733
1000.554688,-6.607501,1.040401,-4.790090,-2.853113
1000.558594,-7.322848,-2.671583,2.044271,-1.051525
1000.562500,-12.673706,-2.648594,-3.145212,-14.408972
1000.566406,-11.704398,-10.827306,-9.411282,-11.307297
1000.570312,-13.564377,-5.628774,-12.228270,-13.739163
1000.574219,-10.918301,-11.391139,-14.509855,-10.499497
1000.578125,-6.496749,-15.039074,-8.554669,-8.891203
1000.582031,-9.716618,-11.008188,-9.257243,-9.127934
1000.585938,-7.834552,-5.278134,-6.802000,-8.000192
1000.589844,-9.147017,-9.439132,-3.842411,-7.478634
1000.593750,-3.813047,-6.460066,-9.747869,-10.401545
1000.597656,-2.410595,-2.461078,-6.764993,0.764075
1000.601562,-1.038935,-4.698928,7.406192,3.733081
1000.605469,3.248896,-1.193769,3.402251,5.606074
1000.609375,11.054444,5.790109,6.736973,-0.365295
1000.613281,16.225492,4.640372,9.713637,10.588888
1000.617188,8.210930,6.132399,9.156558,12.365671
1000.621094,7.529604,13.802807,3.417347,12.846449
1000.625000,9.045770,11.331876,-0.337847,4.138717
1000.628906,11.284255,6.293360,9.272119,2.356527
1000.632812,2.628523,6.867078,8.490411,7.732420
1000.636719,3.566804,9.919205,9.598133,1.233706
1000.640625,9.535121,6.793403,4.332110,7.798760
1000.644531,2.661012,-4.320306,6.367462,7.480848
1000.648438,1.162952,0.253350,-4.758414,4.318707
1000.652344,0.946716,-1.779331,-3.989231,1.656129
1000.656250,-2.961098,-6.725562,-5.670111,-3.975034
1000.660156,-13.354276,-8.964144,-10.817831,-6.680382
1000.664062,-4.672902,-2.687500,-2.838150,-9.042170
1000.667969,-12.499668,-8.811004,-9.585181,-7.369573
1000.671875,-9.713177,-7.277862,-8.198800,-7.912631
1000.675781,-9.030632,-12.648632,-7.972968,-14.293294
1000.679688,-6.381420,-16.509774,-9.778913,-8.326452
1000.683594,-14.890979,-9.720850,-8.296444,-14.270592
1000.687500,-5.908268,-8.324258,-1.803507,-1.452193
1000.691406,-2.380706,-10.308357,-2.728798,-9.606564
1000.695312,-1.216558,-10.136420,0.287023,-3.395385
1000.699219,-0.247763,-0.927259,4.416719,8.004419
1000.703125,-5.284803,7.651107,4.600151,5.277034
1000.707031,0.251081,9.380455,7.664821,4.089659
1000.710938,15.908938,7.079206,4.939682,12.022067
1000.714844,5.095295,8.065442,4.579334,9.284951
1000.718750,16.139017,12.482461,1.572162,13.895569
1000.722656,12.792930,7.265749,7.622137,5.711270
1000.726562,12.882109,16.120492,10.700192,14.933346
1000.730469,16.850557,6.177977,9.158390,4.057187
1000.734375,7.690500,6.200245,11.025034,3.978424
1000.738281,7.246108,10.661499,7.108073,8.482092
1000.742188,7.218576,2.778540,2.786334,7.403412
1000.746094,7.243365,10.912030,7.039750,2.077776
1000.750000,6.503361,1.306047,0.429073,6.041316
1000.753906,-6.656490,-8.755916,-1.046510,-6.759720
1000.757812,-4.596686,2.602953,-1.992050,-14.054454
1000.761719,-12.659322,-13.332077,-4.792257,-1.479991
1000.765625,-6.015351,-7.155740,-10.524665,-1.926149
1000.769531,-8.810758,-15.586144,-16.378986,-9.762463
1000.773438,-11.934031,-10.782370,-6.746055,-9.737057
1000.777344,-16.605976,-8.682089,-8.211545,-8.931538
1000.781250,-11.480283,-8.770922,-9.567841,-9.472103
1000.785156,-9.637200,-6.378934,-4.444903,-9.176378
1000.789062,-9.443926,-5.994694,-2.464963,-6.465013
1000.792969,-3.284149,-8.800908,-4.074484,-2.699074
1000.796875,-1.409857,2.250818,0.371107,-1.586432
1000.800781,0.293217,-0.641009,-4.983317,0.844786
1000.804688,3.970322,1.889498,1.269562,5.678955
1000.808594,12.994891,2.424149,3.841100,-0.105421
1000.812500,8.188156,11.058828,4.684145,12.765656
1000.816406,1.317352,10.727850,5.761882,4.827604
1000.820312,12.134222,9.136115,9.125662,11.829149
1000.824219,9.943862,11.619444,12.337347,3.817694
1000.828125,11.114791,11.996505,12.580116,7.479985
1000.832031,8.639222,8.248411,6.984106,1.862042
1000.835938,6.072689,9.181807,8.850525,3.521423
1000.839844,2.182029,5.739627,9.636370,1.463219
1000.843750,3.094820,5.158712,-2.865965,5.338636
1000.847656,2.708572,-0.875137,6.208295,0.688988
1000.851562,-3.452002,-0.793782,8.288271,-0.042637
1000.855469,-7.432972,-0.050767,-0.760400,-3.452830
1000.859375,-13.210759,-6.293572,-6.159301,-3.523436
1000.863281,-7.004627,-3.543200,-7.276986,-11.008029
1000.867188,-13.991242,-7.485558,-10.443851,-2.662772
1000.871094,-4.692091,-2.167704,-17.424521,-6.330253
1000.875000,-9.689467,-4.974299,-6.349919,-16.623365
1000.878906,-5.176577,-7.437405,-6.041837,-10.378575
1000.882812,-4.518123,-10.376592,-8.785866,-5.537296
1000.886719,-13.433440,-11.829680,-10.042518,-2.696350
1000.890625,-7.260259,-13.745401,-4.753611,-5.914987
1000.894531,-6.569171,0.411050,-15.276199,2.618705
1000.898438,-8.219460,-1.061227,-3.417515,-3.313311
1000.902344,-3.710367,-4.881329,-2.728616,2.629354
1000.906250,7.595950,3.886799,0.730936,8.413220
1000.910156,5.581736,3.532829,11.766318,6.481629
1000.914062,7.328934,11.857074,5.535171,2.337059
1000.917969,6.883413,8.532667,6.059072,10.034570
1000.921875,8.246072,10.330367,7.981737,10.189491
1000.925781,11.468558,6.035871,6.931358,9.235135
1000.929688,11.885156,7.025739,13.025273,8.595009
1000.933594,10.442920,4.471432,5.277425,10.397297
1000.937500,8.213427,5.665979,4.572858,11.451686
1000.941406,1.997837,4.262893,7.746293,7.535850
1000.945312,-4.932243,1.188557,0.249263,1.573433
1000.949219,-2.081673,-1.659724,3.536395,2.405930
1000.953125,2.698543,-3.568558,-2.691361,-4.995253
1000.957031,-8.658041,-2.591101,-1.057535,-7.856078
1000.960938,-4.179448,-10.687827,-7.424259,-8.927267
1000.964844,-12.829049,-6.995913,-7.383386,-12.523425
1000.968750,-17.949148,-12.534020,-8.626477,-8.862576
1000.972656,-8.577093,-4.133471,-11.166384,-14.752667
1000.976562,-9.897332,-14.383309,-14.475574,-15.490370
1000.980469,-10.020681,-9.242642,-6.349736,-16.274067
1000.984375,-11.062542,-9.070653,-8.909219,-10.561229
1000.988281,-8.972526,-1.862630,-2.511249,-6.715399
1000.992188,-10.002615,-8.877432,4.069477,-1.189538
1000.996094,-3.341749,-3.704436,-1.986383,-13.669633
1001.000000,0.622540,-0.039162,-2.934278,-3.961809
1001.003906,5.716902,0.582779,7.627169,3.821593
1001.007812,12.634707,-2.936982,1.976858,8.048622
1001.011719,8.329966,9.522565,1.367177,1.496886
1001.015625,7.885808,12.461167,11.812686,8.416151
1001.019531,7.821346,13.455483,7.230074,11.575535
1001.023438,12.692826,8.880294,11.106094,12.697981
1001.027344,15.570359,9.169739,2.768907,7.109426
1001.031250,4.934906,7.899709,3.349008,12.210013
1001.035156,10.810494,12.203835,5.877388,11.352502
1001.039062,3.697739,4.788206,4.650869,10.600760
1001.042969,-3.549517,-0.026700,6.295373,5.874684
1001.046875,-4.805199,3.460064,-5.686579,3.905366
1001.050781,0.801070,3.360357,3.072119,0.939529
1001.054688,-2.252709,-0.151468,-6.477939,-6.066240
1001.058594,-8.441832,-0.518458,-7.392178,-12.400949
1001.062500,-8.144168,-2.080581,-6.496721,-11.902532
1001.066406,-12.930116,-4.393317,-6.367443,-6.897134
1001.070312,-1.569907,-12.634196,-7.893759,-12.376340
1001.074219,-12.712988,-12.156458,-10.541812,-8.564799
1001.078125,-14.275806,-12.851675,-13.118558,-4.921785
1001.082031,-11.084029,-9.286508,-14.277565,-11.320935
1001.085938,6.405726,-2.166005,-15.060764,-11.049023
1001.089844,-2.423045,-5.270540,-7.204104,-0.542237
1001.093750,-5.397989,-4.914384,-6.022491,-8.747066
1001.097656,1.281855,-3.927234,-4.828225,-0.163031
1001.101562,-0.250395,-4.618886,-5.882569,6.066316
1001.105469,-1.806263,6.609026,4.663181,6.258821
1001.109375,12.614340,-4.357696,9.998228,7.604712
1001.113281,0.985980,3.982826,10.615445,9.017758
1001.117188,10.407778,11.690009,7.585433,9.414480
1001.121094,14.135093,13.333877,12.636834,11.507546
1001.125000,4.135402,11.195261,11.594825,11.007168
1001.128906,13.461504,15.177354,14.033214,15.441113
1001.132812,10.114631,13.067379,13.844023,15.468329
1001.136719,6.596303,4.949828,11.387880,-2.242393
1001.140625,3.610223,9.496403,3.926310,8.863092
1001.144531,6.506060,7.916805,2.277675,-0.024789
1001.148438,3.920049,6.876035,5.227751,-3.662312
1001.152344,-9.283258,-7.269114,-3.582224,-2.211306
1001.156250,-8.679748,-6.188458,0.678568,-6.485096
1001.160156,-7.172473,-2.549500,-12.214500,-5.795515
1001.164062,-9.616391,1.111056,-8.506138,-11.261830
1001.167969,-10.982414,-13.644614,-10.254908,-6.153348
1001.171875,-4.654978,-5.659101,-8.111418,-14.357190
1001.175781,-11.241564,-13.457038,-7.833645,-5.706600
1001.179688,-11.804799,-9.665140,-7.081665,-3.667164
1001.183594,-13.216107,-12.241103,-9.022601,-15.938035
1001.187500,-4.168283,-7.229945,-11.018902,-9.921659
1001.191406,-4.283093,0.546692,-4.052749,-9.979254
1001.195312,-8.490925,-1.475923,-6.108442,-2.565972
1001.199219,-3.466397,-1.107117,-2.124282,-10.853852
1001.203125,-2.316619,-0.272601,6.820735,-1.677063
1001.207031,0.644856,10.931277,5.770993,4.529962
1001.210938,7.584600,2.400089,10.890615,-0.015241
1001.214844,2.814818,14.988479,3.387251,9.651511
1001.218750,10.588694,13.162681,13.377898,5.961312
1001.222656,8.046744,13.915028,12.311789,2.928992
1001.226562,8.257009,10.725784,9.776616,15.216971
1001.230469,9.972983,8.162927,0.381534,17.202201
1001.234375,6.560480,12.954723,6.595876,3.005126
1001.238281,22.333847,3.145650,3.553851,5.073765
1001.242188,8.239831,10.398272,-2.594178,5.646223
1001.246094,2.132808,6.343438,2.076571,5.631609
1001.250000,-4.530875,-1.659892,-4.762319,-0.887534
1001.253906,-5.247279,-1.191141,4.520970,-2.031597
1001.257812,-3.004072,-2.128284,-3.787924,-4.115020
1001.261719,-5.831229,-6.771382,-11.346000,-0.854453
1001.265625,-5.105805,-3.161969,-8.228027,-10.432709
1001.269531,-11.329063,-12.728547,-6.499834,-9.655002
1001.273438,-14.181117,-5.921866,-7.648358,-9.602479
1001.277344,-8.323430,-12.363159,-15.374130,-8.082047
1001.281250,-10.134718,-8.970480,0.401718,-14.274049
1001.285156,-11.793947,-12.207379,-8.748485,-5.996203
1001.289062,-6.711614,-4.092411,-12.830507,-6.708302
1001.292969,-8.616676,-7.667068,-4.483212,-3.165370
1001.296875,-9.261391,1.535795,-4.677496,3.513456
1001.300781,-3.572677,-0.615627,3.979438,-10.283876
1001.304688,9.533101,1.263534,11.832809,-2.682423
1001.308594,3.724370,10.239168,3.674267,4.190805
1001.312500,3.447337,3.641298,4.894068,5.046961
1001.316406,10.457030,10.140105,4.068943,8.752210
1001.320312,6.886824,3.807450,4.772307,4.551944
1001.324219,10.610426,10.734634,14.178679,12.175374
1001.328125,3.300054,8.114580,7.236267,4.709850
1001.332031,10.766312,15.996323,15.822323,3.028092
1001.335938,3.392086,9.051756,5.923777,9.108536
1001.339844,2.371386,13.156853,4.804504,13.504135
1001.343750,5.195571,1.990809,-0.268749,2.191973
1001.347656,1.760621,2.798706,0.783106,8.532319
1001.351562,3.153278,2.100468,3.121094,1.286874
1001.355469,-0.761868,2.726494,-2.184780,-1.725280
1001.359375,-9.653525,-4.936605,-3.829342,2.438458
1001.363281,-10.613766,-16.297944,-3.478505,-12.107030
1001.367188,-12.742146,-5.058423,-12.316797,-7.802835
1001.371094,-7.662941,-4.776285,-9.507812,-12.610696
1001.375000,-11.045889,-7.646943,-13.717129,-8.047597
1001.378906,1.158537,-3.873923,-10.327308,-14.177931
1001.382812,-10.466088,-1.232319,-11.639025,-4.440831
1001.386719,-8.747793,-2.925687,-12.453736,-7.349974
1001.390625,-5.674308,-7.635200,-2.383612,-1.167130
1001.394531,-2.251145,1.095779,-10.796286,-4.137102
1001.398438,5.661772,-10.577476,-7.361350,4.094741
1001.402344,1.154352,-1.412125,8.765990,-0.123333
1001.406250,-2.154003,3.843909,-3.138126,0.468791
1001.410156,3.136551,6.136281,2.387996,-0.040231
1001.414062,5.974750,10.973206,7.694973,3.911716
1001.417969,5.876548,8.626890,9.484478,13.420333
1001.421875,10.929368,15.345444,9.268495,13.805856
1001.425781,12.953428,13.923831,9.382127,8.971910
1001.429688,11.973354,14.748703,7.965249,6.829122
1001.433594,9.772960,10.881203,10.440952,5.748096
1001.437500,16.737863,6.574240,4.727269,8.187186
1001.441406,-2.191774,4.513504,-2.598734,9.573005
1001.445312,11.025679,-2.957592,5.184232,2.426849
1001.449219,-3.771433,1.003959,-0.867912,-5.575896
1001.453125,-1.720220,-2.264471,-4.649523,-0.874417
1001.457031,-3.812532,-2.543480,-0.859176,-5.420629
1001.460938,-2.444204,-12.121011,-7.887684,-7.776508
1001.464844,-8.695963,-3.157439,-13.622023,-9.530093
1001.468750,-10.029873,-14.098818,-12.885981,-10.133831
1001.472656,-16.791658,-13.267817,-10.080009,-14.505863
1001.476562,-0.102186,-12.975416,-8.488795,-12.748010
1001.480469,-11.764234,-9.680143,-8.183161,-13.525668
1001.484375,-4.190019,-7.651782,-9.301268,-14.237779
1001.488281,-7.632549,-7.288069,-0.655623,-5.638923
1001.492188,-6.063607,-2.988326,-11.142372,-5.977959
1001.496094,-4.580171,-6.225688,-0.997702,-3.133927
1001.500000,2.222826,-3.075535,0.701813,4.615656
1001.503906,4.590607,12.368634,9.238028,1.397663
1001.507812,12.967974,6.621120,7.346517,-1.075585
1001.511719,4.869576,2.749226,6.708334,4.396536
1001.515625,13.385149,7.481589,9.282075,8.702651
1001.519531,10.507159,11.233750,8.827069,11.011346
1001.523438,14.567438,13.548616,9.042823,18.997925
1001.527344,7.671194,15.638842,11.404488,12.601353
1001.531250,3.973113,6.745417,11.326115,8.656344
1001.535156,10.016300,16.504031,9.476618,7.204314
1001.539062,9.249055,0.012648,5.782700,5.627061
1001.542969,6.458752,-2.804252,4.865130,7.633790
1001.546875,1.249572,0.969251,-7.168491,5.928200
1001.550781,5.741475,2.338336,-3.337711,0.490427
1001.554688,-6.282094,1.465021,4.080226,0.768230
1001.558594,-13.365803,-8.055169,-12.829094,-3.422358
1001.562500,-0.589444,-8.455581,-10.252194,-14.094219
1001.566406,-10.829358,-11.226235,-10.057577,-7.602994
1001.570312,-6.929917,-4.920485,-13.765115,-8.004967
1001.574219,-9.286269,-3.521230,-6.682301,-11.660249
1001.578125,-24.611403,-11.646053,-9.099760,-12.454701
1001.582031,-8.308762,-10.749037,-12.966644,-15.174987
1001.585938,-12.955669,-6.828962,-4.641611,-3.268674
1001.589844,-3.113197,-4.312205,-10.921370,-4.503463
1001.593750,-2.047211,-1.557574,-0.154570,1.610939
1001.597656,-6.099099,-3.095680,-2.788494,-5.885655
1001.601562,-2.417283,-4.138869,1.106514,-0.489576
1001.605469,2.196123,4.656982,0.195604,6.328601
1001.609375,8.082450,9.590683,4.635086,7.794336
1001.613281,1.901177,12.935719,4.964770,7.568990
1001.617188,9.931038,11.421391,7.724941,10.514714
1001.621094,15.112871,10.873658,11.003478,12.986654
1001.625000,11.071414,14.126991,10.438142,5.221171
1001.628906,6.732443,0.587957,13.282517,15.590146
1001.632812,11.652716,0.874239,7.269322,8.797385
1001.636719,5.589172,9.326934,8.349534,10.480910
1001.640625,11.562814,5.510470,8.769270,-2.583425
1001.644531,3.631923,11.296090,5.102485,3.136015
1001.648438,3.062809,-0.833034,-3.045820,1.797419
1001.652344,-6.798273,-0.305766,3.116042,-8.453223
1001.656250,-1.962255,-11.736353,-0.396659,-2.854108
1001.660156,-6.988438,-5.725228,1.551023,-7.249371
1001.664062,-10.146183,-10.563185,-4.968695,-16.806902
1001.667969,-4.641673,-19.888416,-9.197102,-3.330569
1001.671875,-6.629681,-16.274569,-21.115768,-8.840623
1001.675781,-0.267192,-10.986351,-14.889795,-9.976609
1001.679688,-11.688262,-12.117886,-6.872354,-12.269437
1001.683594,-11.201502,-7.064390,-6.169364,-2.482751
1001.687500,-1.796649,-10.471665,-6.537972,-11.179451
1001.691406,-5.026932,-10.596502,-9.640326,-4.606279
1001.695312,-5.923968,-9.671617,-1.188196,-0.930625
1001.699219,-1.391423,-1.923992,2.329884,-5.135516
1001.703125,-3.682080,11.501799,2.565889,3.531459
1001.707031,9.394749,9.434193,3.660574,2.053953
1001.710938,12.118452,9.014129,5.360359,7.774877
1001.714844,7.473624,9.078769,12.406097,6.609947
1001.718750,12.290289,11.362002,4.240617,10.236161
1001.722656,5.321289,11.948843,10.093794,-0.290603
1001.726562,4.903094,12.460947,7.605218,10.835349
1001.730469,7.089590,6.632171,12.713142,13.101949
1001.734375,8.925238,4.881990,12.447393,5.738608
1001.738281,11.054662,13.486072,16.993859,9.533951
1001.742188,12.344992,5.663501,8.015071,2.403375
1001.746094,2.361780,10.135693,4.796799,1.626998
1001.750000,-2.030519,0.488372,-0.393110,-11.415842
1001.753906,2.201411,-1.294509,-5.739024,-8.034533
1001.757812,-5.835777,-4.107839,-7.730241,-8.281708
1001.761719,-6.697732,0.858893,-10.910645,-6.579911
1001.765625,-5.828811,-6.648385,-5.736785,-6.229607
1001.769531,-4.740927,-8.006225,-4.727237,-8.406492
1001.773438,-12.486073,-17.591446,-9.212738,-15.154507
1001.777344,-13.045683,-9.493630,-15.273598,-8.766823
1001.781250,-6.206250,-10.489815,-16.609697,-9.603333
1001.785156,-9.484581,-3.105502,-10.356762,-10.499100
1001.789062,0.040629,-5.602468,-6.583280,-6.588881
1001.792969,4.176204,-5.666587,-12.811053,-2.690212
1001.796875,-0.237100,-2.574309,-3.354686,-6.316253
1001.800781,0.144134,0.016049,-0.112062,-5.223262
1001.804688,4.269276,1.260355,7.440478,2.424982
1001.808594,7.837172,6.338467,4.488701,2.796277
1001.812500,4.288857,11.654198,0.477150,7.613225
1001.816406,4.043304,13.644821,5.191216,10.081307
1001.820312,9.458705,3.896067,4.454000,18.612632
1001.824219,12.220378,7.113824,11.666865,9.997360
1001.828125,18.740491,16.391652,12.019246,3.693458
1001.832031,9.606644,7.929046,8.541911,8.959248
1001.835938,8.914964,13.720338,6.054393,6.975008
1001.839844,9.085865,7.960575,10.144699,7.883383
1001.843750,-0.134365,7.068033,2.457379,5.135643
1001.847656,-3.823882,0.806426,0.432921,2.405585
1001.851562,-0.667941,2.527124,1.773942,-0.741440
1001.855469,-7.513906,1.839373,-2.137526,-9.616507
1001.859375,-7.722049,-1.911986,-4.442845,-6.940689
1001.863281,-10.749291,-9.443473,-4.692128,2.310271
1001.867188,-3.980253,-11.792489,-3.817354,-8.672569
1001.871094,-9.312599,-12.303170,-9.512272,-5.538611
1001.875000,-2.231227,-10.383028,-10.122710,-9.623562
1001.878906,-7.445411,-13.621964,-8.324657,-4.638179
1001.882812,-8.134403,-9.257234,-13.116929,-17.003588
1001.886719,-7.868590,-14.077803,-9.814520,-3.866710
1001.890625,-5.254627,-8.895763,-7.954062,-9.301110
1001.894531,-4.145123,-9.242033,1.238148,-2.955748
1001.898438,3.276950,6.274964,-9.548975,-2.998748
1001.902344,2.207035,-0.788008,8.724901,2.598530
1001.906250,4.303210,5.053961,3.111577,0.514862
1001.910156,0.853228,-1.258264,2.474550,6.026436
1001.914062,5.469846,9.685366,8.436345,11.461574
1001.917969,11.499153,6.421147,9.623586,9.295902
1001.921875,11.507355,6.014826,11.791769,4.144168
1001.925781,10.100645,9.631982,6.322036,8.503205
1001.929688,9.089402,11.048595,6.958216,7.720982
1001.933594,13.129233,4.878409,6.135679,9.608529
1001.937500,3.098731,6.802619,9.195809,-0.944213
1001.941406,5.526868,8.837500,12.488933,6.629364
1001.945312,6.833310,6.241039,4.801752,4.570525
1001.949219,2.365136,1.419785,2.875937,-0.848748
1001.953125,-6.898360,-5.528292,-3.594961,-8.952498
1001.957031,-2.715521,-11.679286,-7.297281,-0.051055
1001.960938,-4.228878,-1.812903,-5.469524,-2.646928
1001.964844,-9.897727,-1.152039,-6.157183,-11.822545
1001.968750,-11.082539,-7.791212,-10.096063,-14.168463
1001.972656,-11.510270,-6.613036,-15.849479,-7.871515
1001.976562,-13.065200,-7.226097,-5.063555,-14.990641
1001.980469,-8.414469,-6.936201,-8.970229,-11.604430
1001.984375,-5.441561,-5.576294,-15.586070,-9.798425
1001.988281,-9.326323,-12.615797,-3.605822,-4.990746
1001.992188,-4.351810,-11.084541,-6.976509,-7.875420
1001.996094,-4.894471,-3.753726,1.198216,-4.905761
1002.000000,-4.926044,5.757092,-5.741442,-5.202283
1002.003906,0.232277,-5.143775,4.794093,11.281321
1002.007812,6.380487,5.788505,7.134995,1.069432
1002.011719,3.259134,5.121445,6.290024,1.403337
1002.015625,12.770895,16.930151,17.894078,3.584088
1002.019531,10.400832,8.306880,8.743476,9.577358
1002.023438,9.838410,11.041835,8.989909,7.784536
1002.027344,13.362174,13.605224,17.014170,14.228097
1002.031250,6.542155,7.170864,9.942501,9.400622
1002.035156,5.970405,-0.076861,15.153113,9.597298
1002.039062,6.290262,-0.205432,7.070810,6.968353
1002.042969,10.359636,5.686763,4.332769,-2.935348
1002.046875,4.296956,1.092288,2.321517,-0.971581
1002.050781,5.395387,-1.708161,4.466509,3.634418
1002.054688,2.047010,-0.827379,2.206087,-4.983601
1002.058594,-12.199217,-6.320756,3.008137,-5.396325
1002.062500,-4.708066,-5.400007,-7.646581,-7.877512
1002.066406,-7.063165,-10.474312,-15.447917,-6.136867
1002.070312,-8.783327,-12.332237,-7.860719,-7.089784
1002.074219,-10.369514,-7.929560,-14.269198,-8.455596
1002.078125,-18.529502,-3.653111,-9.192868,-11.438933
1002.082031,-3.404287,-11.477269,-5.744781,-15.789409
1002.085938,-3.127741,-3.869833,-17.640422,-10.244346
1002.089844,-5.207330,-6.832231,-11.630602,-6.813960
1002.093750,-9.383167,0.935861,-2.335671,-8.760816
1002.097656,6.654597,-5.442016,4.322403,1.875550
1002.101562,2.749309,-7.217063,-1.016836,0.215498
1002.105469,2.956955,-2.431546,6.841831,4.227606
1002.109375,8.839681,6.280836,0.406832,6.165168
1002.113281,11.949448,8.594070,5.659918,-1.018921
1002.117188,7.254735,10.371046,16.163006,9.790691
1002.121094,5.758734,9.136005,4.056780,4.620461
1002.125000,9.429180,6.236895,0.864546,15.859482
1002.128906,8.811230,4.554383,10.684938,7.414111
1002.132812,12.290006,9.342270,3.738215,4.450388
1002.136719,10.705404,0.546414,6.136673,11.796322
1002.140625,10.299074,8.704775,-2.115553,10.783785
1002.144531,6.189431,1.410394,-6.832672,-0.610532
1002.148438,5.296008,3.403656,0.862012,3.014477
1002.152344,-6.552038,4.863235,-6.576018,4.783904
1002.156250,-6.342938,2.751347,-4.930087,-2.682166
1002.160156,-0.732099,-1.051308,-8.273582,-6.341834
1002.164062,-9.534843,-2.821811,-7.902396,-6.915505
1002.167969,-5.618263,-14.002792,-7.775580,-7.219482
1002.171875,-10.890544,-12.240659,-3.823756,-12.758739
1002.175781,-11.400023,-11.314669,-8.631202,-12.078605
1002.179688,-8.885140,-3.951066,-7.362851,-10.427581
1002.183594,-10.384189,-11.692906,-8.264576,-10.600350
1002.187500,-7.286248,0.761437,-12.173572,-6.321560
1002.191406,1.612353,-6.270132,-5.370958,-8.139430
1002.195312,-6.182720,-5.176368,-5.776065,-3.074061
1002.199219,-0.345886,-1.870429,3.890769,-4.423373
1002.203125,-0.089124,0.986075,7.536392,-2.058840
1002.207031,3.113511,4.543883,1.216578,8.738798
1002.210938,4.415302,4.587771,8.531154,4.544616
1002.214844,-0.223309,11.135584,3.334289,13.381897
1002.218750,4.207015,11.679697,10.119747,12.043806
1002.222656,12.929109,4.577521,13.103859,10.352823
1002.226562,9.548270,9.346489,7.494691,13.234876
1002.230469,13.003063,6.188153,5.518470,6.976891
1002.234375,3.167938,10.844936,5.249082,8.527404
1002.238281,5.515757,5.253386,8.267097,9.154959
1002.242188,2.382472,-0.507006,2.902061,5.784993
1002.246094,4.903435,5.083677,1.720088,2.416814
1002.250000,-7.678985,0.195177,-1.427806,6.274662
1002.253906,-4.169503,1.988031,-1.019291,-3.234723
1002.257812,-0.510410,-3.072217,2.862762,-1.124679
1002.261719,-12.430735,-0.265507,-9.706732,-0.779760
1002.265625,-6.853328,-7.391807,-6.130849,-5.530468
1002.269531,-3.224917,-17.570422,-17.023992,-4.533721
1002.273438,-7.793913,-7.144924,-6.511943,-8.226821
1002.277344,-10.285746,-10.792345,-7.329236,-13.072447
1002.281250,-9.241312,-9.604463,-11.273391,-8.101659
1002.285156,-8.563534,-9.558119,-1.610904,-3.007587
1002.289062,-6.872166,-11.558217,-7.592665,-8.093830
1002.292969,-6.672112,-10.615568,-7.579468,-5.708849
1002.296875,-0.644526,-8.084365,-0.344122,-4.834874
1002.300781,0.505450,-1.003253,-0.314841,-1.624418
1002.304688,-2.028073,5.047081,5.563775,3.472557
1002.308594,4.170059,2.591159,7.151263,1.804245
1002.312500,6.322032,4.673113,7.904968,1.124531
1002.316406,4.496686,4.470098,9.135810,6.679461
1002.320312,5.677958,5.286435,5.676458,9.586732
1002.324219,9.450783,9.487959,4.173504,12.399832
1002.328125,8.765984,11.135356,6.184431,7.811850
1002.332031,14.327377,10.102311,8.564758,5.863882
1002.335938,3.174025,3.644554,8.371669,14.171386
1002.339844,3.832009,7.423695,1.350070,1.819004
1002.343750,4.125243,4.671713,1.472507,5.770765
1002.347656,6.330410,3.068771,-0.173838,-1.065493
1002.351562,-4.686399,8.891310,-1.693188,-0.874439
1002.355469,-7.344917,-6.241401,-8.525256,-0.181146
1002.359375,-7.326595,-11.433192,4.079299,1.986708
1002.363281,-6.111493,0.769993,-9.885389,-13.162060
1002.367188,-12.875019,-8.500358,-13.294730,-8.564471
1002.371094,-9.502263,-13.616741,-9.335606,-7.394136
1002.375000,-10.633072,-6.423270,-10.874079,-2.617323
1002.378906,-9.177936,-12.680769,-14.267962,-11.337515
1002.382812,-7.248694,-13.999023,-8.110342,0.412092
1002.386719,-3.353411,1.114732,-7.130957,-10.538914
1002.390625,-4.135270,-1.218730,-4.746441,-5.390723
1002.394531,0.694461,-0.076795,-0.865568,0.716161
1002.398438,1.850214,5.070473,0.111756,2.997642
1002.402344,5.722519,-0.150415,-0.432242,-0.615764
1002.406250,9.605755,7.819145,7.166462,-2.992857
1002.410156,5.698097,5.580667,1.675384,7.432606
1002.414062,1.219434,6.714415,12.228734,4.836918
1002.417969,12.290713,9.193854,10.755929,12.318416
1002.421875,16.312135,6.278372,9.201556,12.217740
1002.425781,15.136885,15.310537,9.105619,14.847490
1002.429688,8.974087,11.586453,11.944107,5.729057
1002.433594,8.881225,13.430899,-0.344374,10.590562
1002.437500,1.425473,6.680213,6.423549,6.340597
1002.441406,3.356430,3.220614,1.219573,8.542342
1002.445312,-5.160487,1.469081,5.027273,0.074268
1002.449219,2.532855,-2.043438,-0.110992,8.574360
1002.453125,1.395509,0.550643,-2.909002,0.811909
1002.457031,-5.682626,-9.328515,-0.513833,-0.520512
1002.460938,-11.833678,-7.197803,-8.238606,-7.413742
1002.464844,-4.537311,-5.311677,-11.524393,-8.122862
1002.468750,-12.038790,-7.726064,-10.728572,-4.493264
1002.472656,-11.835954,-12.681479,-8.612050,-7.808467
1002.476562,-16.253188,-10.593535,-6.990389,-14.521732
1002.480469,-4.420372,-3.124765,-7.774622,-6.966597
1002.484375,-9.531277,-2.305067,-6.663466,-4.973153
1002.488281,-6.798959,-3.365004,-6.470600,-2.322717
1002.492188,-8.739314,3.009953,-6.819086,2.451455
1002.496094,-2.995158,-8.572887,-1.219795,-0.994309
1002.500000,-0.997656,2.575497,-4.036207,2.376571
1002.503906,11.475141,3.165748,7.365969,-0.431201
1002.507812,1.741536,10.285201,7.519881,7.117825
1002.511719,5.064812,13.254686,4.961377,10.069787
1002.515625,9.823987,10.699344,4.868255,5.561699
1002.519531,3.031695,7.333280,8.105455,15.483829
1002.523438,10.858604,11.634749,12.635424,16.765054
1002.527344,10.330745,9.191996,11.867783,9.616457
1002.531250,11.634682,5.976087,14.862664,-2.138627
1002.535156,13.249285,10.662488,6.561936,8.365831
1002.539062,3.415520,0.600024,9.800667,4.719849
1002.542969,11.053012,3.978846,3.641085,1.163028
1002.546875,1.147489,-4.604367,1.414125,-4.344411
1002.550781,-0.029206,-0.140602,-1.625812,-2.326179
1002.554688,-0.520587,1.650011,-9.322572,-2.767588
1002.558594,-4.011036,-7.546512,-1.229987,-4.544194
1002.562500,-8.795207,-12.747534,-7.227402,-8.390626
1002.566406,-4.759479,-19.542547,-12.721606,-16.641667
1002.570312,-4.410122,-13.232856,-9.865012,-10.621667
1002.574219,-8.912294,-10.980453,-18.461763,-18.464576
1002.578125,-7.542925,-8.117094,-6.506269,-9.842933
1002.582031,-13.099979,-5.113463,-17.813042,-16.846988
1002.585938,-10.832717,-4.890811,-7.210108,-9.191568
1002.589844,-5.908014,-7.573425,-1.063739,-5.539097
1002.593750,-9.380229,-4.126292,-6.918412,4.424513
1002.597656,-1.653973,4.352230,-3.564455,-4.384388
1002.601562,9.075650,-4.318639,-0.177585,1.314390
1002.605469,5.891838,7.790108,7.240728,0.539843
1002.609375,5.722845,1.550483,9.293816,5.502471
1002.613281,10.191840,1.137025,9.463733,5.969058
1002.617188,0.505716,11.483698,15.146879,8.517567
1002.621094,10.785028,9.950053,5.512993,9.466800
1002.625000,15.245380,10.311913,11.292306,8.590542
1002.628906,6.860408,10.504614,9.286605,5.644643
1002.632812,11.964725,8.124006,-1.803256,15.074029
1002.636719,7.616883,5.252984,10.949192,8.532129
1002.640625,6.910275,7.180853,7.988422,8.888685
1002.644531,2.304420,6.687474,-5.269034,3.897459
1002.648438,-0.518732,3.313707,6.876192,1.462560
1002.652344,1.802815,-3.074692,-7.875615,-3.431188
1002.656250,-6.503640,-2.759021,-3.720921,-3.460164
1002.660156,-3.605708,-6.791383,-9.828693,-6.002556
1002.664062,-14.529543,-12.744626,-14.817057,-8.866854
1002.667969,-8.356908,-14.058090,-10.969873,-12.770981
1002.671875,-20.222575,-9.702847,-8.548791,-7.092440
1002.675781,-11.932972,-11.836356,-6.260144,-4.015082
1002.679688,-14.098372,-9.325349,-9.926445,-3.864788
1002.683594,-8.809581,-5.152774,-8.471094,-2.867959
1002.687500,-6.615798,-12.085814,-6.913013,-11.298733
1002.691406,1.816728,-7.499162,-7.052265,-5.353027
1002.695312,0.911712,-2.237664,-1.984082,0.896290
1002.699219,-2.988831,3.114171,2.291713,5.242496
1002.703125,-3.730565,7.763480,-1.510696,5.793970
1002.707031,6.075380,-0.288228,-8.863606,-1.584739
1002.710938,7.574602,8.573705,6.151745,0.149152
1002.714844,13.690832,6.645624,19.796292,11.178871
1002.718750,0.473551,11.871281,10.649393,6.625069
1002.722656,7.748045,13.455283,7.232640,11.545334
1002.726562,9.301389,8.677757,6.498505,9.811184
1002.730469,6.698726,11.871958,16.803618,4.869425
1002.734375,6.632122,10.455993,6.883684,9.692902
1002.738281,2.377660,-4.108070,7.327354,8.540408
1002.742188,2.446885,2.236360,7.331595,4.618996
1002.746094,-2.238455,1.071250,-4.846000,-4.665041
1002.750000,-2.128626,6.061608,-2.658333,-4.832800
1002.753906,-1.359900,-10.941922,-0.068682,-3.930379
1002.757812,-4.497853,-4.532351,-2.879807,-8.802560
1002.761719,-3.819339,-7.555493,-7.347286,-12.501120
1002.765625,-13.069872,-6.834198,-5.048569,-12.266446
1002.769531,-5.732973,-11.764268,-2.692798,-15.918954
1002.773438,-10.101353,-6.313877,-12.868547,-13.236263
1002.777344,-12.572172,-12.126104,-14.586180,-8.326904
1002.781250,-10.170628,-6.194921,-9.079439,-10.951317
1002.785156,-2.824372,-5.767046,-5.644993,-15.873660
1002.789062,-9.500863,-5.836107,-6.029321,-7.063510
1002.792969,-3.502324,-7.981215,-5.324551,-5.089596
1002.796875,0.200622,1.175866,-7.216062,-1.500551
1002.800781,-5.602479,2.572250,3.270238,-5.774230
1002.804688,5.004250,3.693612,4.750387,1.998898
1002.808594,8.078443,1.776256,4.165889,7.908410
1002.812500,6.416885,5.142350,7.429761,8.932853
1002.816406,8.348174,1.325951,7.446252,9.622517
1002.820312,11.004162,12.316622,17.120003,3.190452
1002.824219,8.319353,6.790182,12.243246,10.178147
1002.828125,10.432171,13.810303,5.306912,7.200452
1002.832031,9.903102,6.695109,4.380647,7.394948
1002.835938,9.644496,6.759780,5.810095,12.032266
1002.839844,6.156102,2.438662,7.033077,10.692176
1002.843750,8.241533,7.962995,-0.646348,11.338292
1002.847656,-0.843757,1.117299,-1.896341,4.569065
1002.851562,0.784786,8.620902,-0.723666,-3.103954
1002.855469,-4.874839,-7.400731,0.688897,-3.515824
1002.859375,-0.489708,-4.271317,-4.098910,-4.863671
1002.863281,-8.716930,-8.255853,-9.184835,-7.883654
1002.867188,-2.584746,-6.235433,-9.587685,-2.321155
1002.871094,-11.925423,-13.955825,-8.523937,-2.502751
1002.875000,-19.217497,-9.985817,-9.881057,-10.185357
1002.878906,-10.372325,-6.054205,-13.514414,-9.159812
1002.882812,3.889601,-10.684506,-1.265780,-14.014464
1002.886719,-5.454046,-7.777676,-1.465979,-14.080844
1002.890625,-6.164051,1.814442,-3.351553,-4.077946
1002.894531,-3.267414,-5.742402,-1.346607,-0.234727
1002.898438,5.295130,-0.031060,-6.334580,-2.755778
1002.902344,0.290722,-4.065344,2.379847,0.650474
1002.906250,2.307445,-1.507249,-0.222671,3.331930
1002.910156,5.084112,9.910427,11.814989,9.720229
1002.914062,10.855447,1.871580,7.576800,1.683290
1002.917969,8.279674,6.735669,11.980353,11.011106
1002.921875,5.042618,6.309916,15.478579,2.809807
1002.925781,18.714314,8.927365,14.902191,3.610368
1002.929688,8.748747,17.870490,8.531111,4.055850
1002.933594,6.546990,10.890478,10.460322,7.161862
1002.937500,5.511576,4.828625,7.731224,-3.067819
1002.941406,4.540095,5.984082,7.745741,10.092818
1002.945312,3.881666,6.094579,8.706071,3.135799
1002.949219,-1.223249,-0.704213,-0.914039,1.886126
1002.953125,0.667965,0.961974,2.640964,1.505903
1002.957031,-0.755324,-7.058747,0.819863,-5.389684
1002.960938,-11.246178,-6.686964,-16.070000,-0.986120
1002.964844,-7.832984,-9.537977,-13.991199,-11.877272
1002.968750,-11.910789,-1.819137,-15.328417,-2.499353
1002.972656,-7.817156,-11.092507,-12.003931,1.119474
1002.976562,-13.056808,-9.103279,-8.241743,-12.979050
1002.980469,-3.762327,-13.157687,-7.294542,-6.222448
1002.984375,-16.749032,-6.103454,-7.357552,-6.194045
1002.988281,-1.803254,-8.598786,-6.766482,-9.584934
1002.992188,1.740640,-5.003779,-6.108416,-7.406635
1002.996094,-4.466324,1.571884,-2.583361,1.406515
1003.000000,5.140288,-1.078061,-8.795572,1.787629
1003.003906,11.237654,5.985554,0.309380,-4.389048
1003.007812,2.683528,2.252242,7.469535,4.297020
1003.011719,9.752492,9.147360,2.350629,17.607127
1003.015625,1.890064,6.924403,14.333497,4.653301
1003.019531,12.885313,9.453049,15.664452,1.897954
1003.023438,7.169999,8.330173,7.309484,10.550668
1003.027344,18.142213,12.206455,11.978731,4.865054
1003.031250,1.733099,6.214545,8.312193,7.232431
1003.035156,12.364352,9.672316,1.526812,-1.145831
1003.039062,9.016337,3.189612,2.064216,4.479262
1003.042969,-0.624094,4.456848,-0.593017,6.851325
1003.046875,-1.094122,-2.261881,7.126777,0.078669
1003.050781,4.351504,-2.619466,-7.388127,-4.528926
1003.054688,-1.270851,-7.149950,-5.411178,-2.335680
1003.058594,-6.257966,-11.495277,-6.022390,-7.243615
1003.062500,-9.076676,-2.318804,-6.814001,-8.917617
1003.066406,-11.545097,-5.679369,-9.519683,-9.634753
1003.070312,-7.670674,-7.613113,-8.952333,-8.393096
1003.074219,-6.185991,-14.134130,-13.150207,-16.592296
1003.078125,-6.845872,-9.882631,-16.551528,-17.967573
1003.082031,-8.074464,-12.775545,-16.019175,-14.101384
1003.085938,-8.073720,-10.085832,-10.291794,-7.127584
1003.089844,-3.152518,-2.234927,0.939129,-0.397518
1003.093750,-6.953570,3.437142,-13.312423,-1.383256
1003.097656,-0.139761,4.100643,-1.744021,1.788287
1003.101562,-4.557894,-4.513105,2.563106,-0.183529
1003.105469,3.066806,0.882442,-1.084013,9.880040
1003.109375,4.148589,5.726608,1.715069,-0.263649
1003.113281,8.705178,9.035849,9.260652,11.719222
1003.117188,12.035713,11.143310,12.216310,15.277322
1003.121094,10.925861,17.021034,10.819985,11.304919
1003.125000,13.704432,14.592387,10.465495,11.363028
1003.128906,10.249327,17.669806,9.378395,7.701827
1003.132812,17.244072,7.840819,5.711653,7.435418
1003.136719,6.623082,8.756228,5.789053,10.468329
1003.140625,6.160587,-5.886798,11.636663,1.613274
1003.144531,-3.828406,1.438780,1.435696,6.231019
1003.148438,-0.128031,-1.157087,-3.910117,0.627041
1003.152344,0.040552,-6.389621,-2.492419,2.930369
1003.156250,-6.636527,-5.764280,-0.038522,-4.737062
1003.160156,-4.709616,3.045996,-6.605280,-2.652342
1003.164062,-8.279528,-8.581871,-12.630871,-8.233321
1003.167969,-6.452518,-6.907900,-12.119295,-11.198370
1003.171875,-6.623793,-4.492684,-13.735399,-6.656273
1003.175781,-7.399971,-14.314644,-10.965689,-9.346972
1003.179688,-7.247141,-10.004877,-2.220069,-4.152823
1003.183594,-9.227651,-15.087188,-0.186840,-14.239244
1003.187500,-0.411642,-5.291244,-10.652996,-6.636274
1003.191406,-4.545389,-0.262715,-6.254217,-4.525065
1003.195312,-2.348680,-6.584748,0.013052,-6.716051
1003.199219,-0.881619,-0.445755,-1.619538,1.635202
1003.203125,3.558423,-0.435168,3.513419,8.052363
1003.207031,8.751211,4.737913,1.112355,-0.394581
1003.210938,9.128509,13.200115,3.510135,4.107538
1003.214844,5.344798,8.245398,7.883765,12.904042
1003.218750,13.189779,9.973225,11.046295,11.073442
1003.222656,9.590108,7.132191,2.750646,7.863228
1003.226562,6.834681,14.506798,5.825560,7.538233
1003.230469,11.764007,4.792898,5.100788,21.112093
1003.234375,7.529186,6.170551,-0.032855,7.521816
1003.238281,1.908840,8.477695,4.528262,5.150465
1003.242188,-0.011245,2.349830,9.541882,3.318678
1003.246094,-1.747631,2.388799,1.888392,3.173004
1003.250000,8.723454,-3.867056,2.799726,-1.314019
1003.253906,-0.190094,-0.654401,-4.346587,-4.708005
1003.257812,-9.114670,-4.984092,-4.516639,0.290704
1003.261719,-10.438999,-3.821883,-0.609683,-8.159938
1003.265625,-11.835229,-13.818635,-8.438131,-2.349594
1003.269531,-13.059648,-9.062903,-3.341798,-8.649688
1003.273438,-17.012353,-3.598299,-13.898519,-11.660517
1003.277344,-5.921797,-6.023854,-15.400329,-6.897806
1003.281250,-10.589648,-17.569357,-8.138726,-12.054291
1003.285156,-6.437703,-14.375284,-12.232548,-9.082435
1003.289062,-7.355495,-11.901942,-9.802249,-6.254332
1003.292969,-1.552164,4.533651,-4.107321,-5.229081
1003.296875,-0.455522,-8.556950,0.979470,2.007354
1003.300781,5.201884,5.424000,6.390896,-3.168656
1003.304688,7.475881,2.447134,7.755652,4.428543
1003.308594,6.935408,2.666941,3.518801,6.016078
1003.312500,7.151027,6.505687,3.427731,12.860047
1003.316406,3.415925,11.144445,6.398493,8.347209
1003.320312,14.696157,11.948001,11.578244,9.936452
1003.324219,6.571803,11.546190,14.248723,13.055461
1003.328125,1.153174,9.606549,6.500245,8.025101
1003.332031,9.448814,8.340738,1.700673,5.950115
1003.335938,2.609700,6.000734,8.460129,5.065153
1003.339844,12.341059,10.319293,15.704893,10.256219
1003.343750,4.559817,4.785257,-1.174389,11.669536
1003.347656,7.505044,4.951975,4.687000,0.573577
1003.351562,-3.054860,-0.199574,1.659293,3.745032
1003.355469,-2.268144,-12.316194,-10.603165,-9.250750
1003.359375,-5.084114,-7.518326,-8.050728,-1.314494
1003.363281,-10.567676,-9.560269,-11.071051,-8.921654
1003.367188,-11.526367,1.067482,-5.162737,-7.589050
1003.371094,-8.139594,-11.332608,-11.392989,-4.105783
1003.375000,-7.872564,-12.501565,-9.763156,-9.155273
1003.378906,-11.672299,-11.783827,-11.260766,-21.922765
1003.382812,-13.523323,-9.604625,-6.357164,-10.382843
1003.386719,-9.679485,-7.467056,-2.221067,-11.129526
1003.390625,-15.645471,-4.960385,0.911679,-3.266141
1003.394531,-8.089995,-1.062320,0.814836,-7.168179
1003.398438,-3.782883,2.775081,-5.190032,-0.407807
1003.402344,2.111737,-0.159792,5.058420,7.125147
1003.406250,4.617091,8.177553,4.430619,8.410784
1003.410156,16.080950,6.318213,2.263424,11.154263
1003.414062,2.136088,6.871169,4.241668,2.969121
1003.417969,-3.058719,16.100290,8.050775,12.931226
1003.421875,13.320838,10.921325,6.599936,16.669425
1003.425781,12.400351,7.101242,13.975953,13.873306
1003.429688,7.076973,21.666249,8.801221,12.204687
1003.433594,2.463408,11.084690,6.455960,11.429782
1003.437500,10.930726,4.596017,11.595157,10.640748
1003.441406,6.627877,4.378838,3.894124,-1.935710
1003.445312,1.043374,2.337517,-0.886236,3.611295
1003.449219,-2.734701,-1.810546,1.199178,0.918855
1003.453125,-8.901220,-4.832682,-1.615400,-10.990708
1003.457031,0.914097,-7.347456,-7.721993,-1.597310
1003.460938,-2.488284,-6.502390,-1.682317,-5.686824
1003.464844,-6.227394,-4.444028,-5.893655,-5.778411
1003.468750,-13.985627,-6.344763,-4.849884,-5.167136
1003.472656,-11.231147,-8.243126,-4.226930,-18.150989
1003.476562,-19.198925,-11.514873,-12.471356,-8.668054
1003.480469,-11.105408,-9.815140,-9.687681,-11.319548
1003.484375,-6.951913,1.048777,-6.984661,-14.584946
1003.488281,-6.196784,-7.068559,-13.892132,-2.063462
1003.492188,-4.337657,-5.028531,1.252740,-11.253840
1003.496094,-0.930071,-2.575331,-1.943447,-0.420807
1003.500000,-5.040657,-0.160043,3.222405,5.205141
1003.503906,3.504997,5.624033,1.901577,4.857952
1003.507812,3.074705,9.128680,9.544787,0.933966
1003.511719,7.501887,-3.112580,10.595988,8.258874
1003.515625,0.962411,12.773297,4.787840,3.830381
1003.519531,7.088555,16.685366,15.436347,3.632660
1003.523438,9.333536,6.747418,16.456738,10.175853
1003.527344,10.820467,13.474063,10.650988,4.302711
1003.531250,9.696911,13.789693,12.417866,10.915537
1003.535156,9.222112,8.416758,11.079614,15.795431
1003.539062,9.900524,5.478458,5.222689,6.753731
1003.542969,5.374509,4.261671,7.322053,1.565456
1003.546875,6.110300,1.401877,-1.776156,2.698613
1003.550781,-2.322557,-0.332348,-5.980865,-0.000905
1003.554688,-10.203401,-6.678089,-0.252987,1.549153
1003.558594,-12.577086,-1.598801,-10.771578,-4.574988
1003.562500,-6.602248,-5.809932,-7.382995,-1.601199
1003.566406,-5.105471,-8.631710,-11.860377,-9.182289
1003.570312,-7.069647,-9.118364,-3.440188,-7.231310
1003.574219,-15.983396,-12.884727,-11.016250,-4.611153
1003.578125,-13.369673,-12.433739,-4.789815,-8.517761
1003.582031,-11.443734,-10.931752,-5.146667,-3.805368
1003.585938,-11.825580,-4.938263,-10.036262,-3.470062
1003.589844,-4.750482,-5.398526,-13.888253,-1.394661
1003.593750,-4.359409,-8.605248,-11.826779,-6.798156
1003.597656,0.731660,-9.250838,-4.486824,7.997927
1003.601562,-4.455287,0.589865,-0.484125,1.106603
1003.605469,-1.591298,4.465319,2.737569,2.072207
1003.609375,5.397639,6.363422,9.029341,1.302694
1003.613281,4.983471,4.415594,4.743685,3.071142
1003.617188,7.452555,0.409762,8.809978,5.715319
1003.621094,13.732688,10.032005,11.724856,13.953277
1003.625000,9.308044,6.018847,7.960965,8.216596
1003.628906,4.439090,10.649142,2.633251,7.552995
1003.632812,15.904928,2.360072,12.799919,14.840667
1003.636719,3.945945,2.332607,7.643566,6.236322
1003.640625,4.339019,7.828550,11.549232,5.557470
1003.644531,5.936493,-2.003875,2.456848,7.779640
1003.648438,5.042319,2.006009,-2.631461,-5.319128
1003.652344,-0.691832,-6.751784,-0.095158,0.301662
1003.656250,-10.171878,0.286755,-3.117717,-3.749729
1003.660156,-8.932345,-5.258847,-13.474312,-9.120182
1003.664062,-11.538772,-7.334125,-6.707890,-4.421982
1003.667969,-3.015260,-8.348368,-8.316248,-10.977638
1003.671875,-6.185179,-14.852563,-15.030900,-7.071028
1003.675781,-12.691198,-12.018392,-3.037279,-2.521460
1003.679688,-10.833323,-11.080365,-14.790537,-13.304052
1003.683594,-6.710711,-1.110228,-7.777184,-11.268975
1003.687500,-8.989593,-2.298622,-16.336449,-8.345138
1003.691406,-6.546727,-12.714783,-7.586509,-1.908402
1003.695312,-1.595022,-1.026717,-1.773006,-5.095825
1003.699219,7.351021,-1.311469,1.352545,-2.666511
1003.703125,0.544671,6.443767,3.501692,-4.283332
1003.707031,-1.068969,6.823401,1.261253,3.758222
1003.710938,6.145346,4.554997,6.838765,6.882616
1003.714844,7.733456,6.970790,1.347398,8.317426
1003.718750,0.607780,4.924866,5.384223,10.852644
1003.722656,11.926486,12.966316,5.276146,7.836463
1003.726562,10.006765,9.410911,7.149486,16.953803
1003.730469,5.342130,13.457076,9.084361,8.013078
1003.734375,6.199917,6.033233,9.690074,7.330439
1003.738281,17.513420,5.116756,4.992795,8.117599
1003.742188,2.866791,6.931223,6.617534,3.829175
1003.746094,-0.935789,-0.772416,2.994398,2.460774
1003.750000,1.644972,-1.957672,1.583227,5.594769
1003.753906,2.303689,-1.030687,-4.730796,-1.748243
1003.757812,-4.881103,-0.787460,-9.471579,-14.763223
1003.761719,-3.482562,-8.252831,-10.504529,-12.737138
1003.765625,-10.182705,-12.617794,-11.520096,-8.453557
1003.769531,-10.589096,-6.839873,-4.788285,-13.317009
1003.773438,0.990687,-9.729992,-5.863005,-7.021983
1003.777344,-11.297911,-5.054379,-7.842389,-9.661154
1003.781250,-14.140560,-6.621380,-10.481973,-12.357524
1003.785156,-9.625669,-1.004448,-4.479552,-8.270532
1003.789062,-5.942409,-8.613607,-3.459620,-4.821326
1003.792969,-9.003779,1.483154,-4.553580,-6.026851
1003.796875,2.795935,-1.215558,-0.843720,-6.645635
1003.800781,5.575452,-0.879997,-1.584505,-1.475024
1003.804688,4.881914,9.608207,3.951769,-4.898389
1003.808594,-0.334534,3.295430,11.654954,5.518530
1003.812500,10.555750,9.253007,4.326555,6.332365
1003.816406,10.987137,12.735198,11.641722,2.864028
1003.820312,8.949557,8.925757,5.738827,9.092507
1003.824219,16.407239,10.842055,10.575550,13.801546
1003.828125,10.317824,16.249513,5.223431,3.340566
1003.832031,5.547119,2.935624,8.007921,12.526289
1003.835938,5.286922,3.862226,0.902884,7.958608
1003.839844,9.374754,11.693804,0.451684,8.683758
1003.843750,2.014015,1.969140,8.301642,0.711566
1003.847656,1.625456,-1.255531,2.471431,0.251303
1003.851562,7.940951,-5.500368,6.262891,-3.116181
1003.855469,-7.682274,-2.269310,-3.272906,-5.660099
1003.859375,-10.949584,-12.052412,-6.708853,-7.989901
1003.863281,-3.783014,-0.027691,-9.915246,-6.701804
1003.867188,-8.285069,-12.500222,-9.602172,-13.475637
1003.871094,-6.633324,-10.233699,-2.571412,-11.261518
1003.875000,-8.793025,-5.264979,-10.032359,-4.915138
1003.878906,-8.235331,-9.468024,-2.777807,-4.749814
1003.882812,-4.707354,-11.833842,-4.797833,-7.163375
1003.886719,-9.186616,-4.139972,-9.034227,-3.537909
1003.890625,-11.405802,-6.158937,-3.149419,-8.029696
1003.894531,-2.259423,0.933958,-6.062948,-7.766369
1003.898438,-3.733430,-0.773846,2.105677,5.246629
1003.902344,11.086388,5.613092,7.448260,7.838683
1003.906250,-3.742228,1.864362,-3.553996,0.827984
1003.910156,1.609030,15.654554,7.136445,11.534402
1003.914062,9.016132,4.729392,11.707427,9.347307
1003.917969,7.174524,7.662491,8.333682,2.128589
1003.921875,12.337206,3.906487,8.890230,8.178129
1003.925781,14.432414,17.934088,14.882179,18.143921
1003.929688,11.470632,8.013895,8.450638,15.351093
1003.933594,10.604126,7.397132,12.036532,2.992675
1003.937500,3.875497,-0.181048,6.309081,13.388799
1003.941406,2.151224,7.159685,7.308353,6.932272
1003.945312,3.145831,6.450548,1.422308,0.361068
1003.949219,4.826647,0.159598,4.037428,-1.259347
1003.953125,1.313819,-1.331286,-2.767578,-1.510654
1003.957031,-6.693213,-1.633455,-5.651322,-0.379647
1003.960938,-7.837302,-5.878810,-5.831953,-3.897558
1003.964844,-3.505038,-4.153326,-16.045418,-9.912561
1003.968750,-10.182285,-2.007395,-15.849483,-24.493456
1003.972656,-9.098013,-9.663467,-9.863220,-6.948017
1003.976562,-13.067401,-7.017532,-11.626757,-7.316717
1003.980469,-15.144852,-5.344656,-20.759091,-8.552021
1003.984375,-6.047409,-5.951989,-12.119456,-7.773438
1003.988281,-6.326830,-14.404803,-3.518696,-5.384090
1003.992188,-2.157547,-0.112602,-11.668799,-3.482673
1003.996094,-0.439028,-0.912996,-6.024255,5.544643
1004.000000,0.150686,-2.196787,-1.242373,-3.001313
1004.003906,7.138654,1.391629,0.311411,0.129616
1004.007812,2.003603,7.053886,-2.147353,6.949906
1004.011719,7.956623,6.996357,10.665945,13.908729
1004.015625,14.944441,8.989242,9.107059,11.806412
1004.019531,8.758673,7.967459,6.926100,11.847784
1004.023438,16.309649,14.349892,13.100483,17.855968
1004.027344,6.834741,14.980880,17.615872,9.037348
1004.031250,10.118864,8.723979,14.748070,7.659981
1004.035156,8.896135,8.017268,5.198043,1.388405
1004.039062,2.542529,9.175629,8.180681,5.808020
1004.042969,-1.051618,4.601285,7.524487,2.886264
1004.046875,0.345688,6.653838,5.740751,6.391311
1004.050781,-1.437120,-2.408434,-1.332633,-4.531888
1004.054688,-4.643296,2.081853,-7.722380,-0.320033
1004.058594,-12.985530,-6.537577,-7.905481,-0.912011
1004.062500,-8.244910,-2.137975,-7.996926,-4.512441
1004.066406,-4.886641,-12.727161,-21.310296,-6.553112
1004.070312,-10.008701,-13.955798,-8.418456,-8.604296
1004.074219,-5.751933,-8.408200,-13.191301,-8.811814
1004.078125,-9.017658,-5.119048,-5.811747,-15.054354
1004.082031,-9.804633,-5.920681,-8.321853,-10.721975
1004.085938,-6.979615,-8.857871,-8.674403,-6.856901
1004.089844,-12.822351,-6.339856,-4.940877,-13.867789
1004.093750,-2.355904,-10.181580,0.229117,-5.487062
1004.097656,-5.206232,-2.705638,1.493770,-0.297991
1004.101562,0.621977,-2.620016,-2.382517,4.877007
1004.105469,1.291316,2.989091,4.763829,3.926891
1004.109375,2.785346,5.338420,4.538349,3.586315
1004.113281,12.183272,4.489474,10.083097,3.376855
1004.117188,7.250994,12.547387,8.012211,10.580843
1004.121094,5.132950,11.873285,9.927620,4.687604
1004.125000,13.006359,6.634882,13.816780,16.432191
1004.128906,7.622008,9.843615,-1.633625,8.261508
1004.132812,3.658346,5.629058,5.733401,9.370593
1004.136719,5.948303,10.456919,8.190786,3.429594
1004.140625,10.976171,10.673647,1.343118,5.354418
1004.144531,1.677764,6.097938,8.314934,2.234221
1004.148438,-3.459407,1.846713,4.155255,0.352081
1004.152344,-1.023530,0.901772,0.754959,-3.007475
1004.156250,-5.435368,-5.356436,-4.155576,-3.549368
1004.160156,-15.050281,-10.018137,-4.540520,-11.157952
1004.164062,-11.845700,-12.435795,-10.394917,-20.418161
1004.167969,-4.788795,-6.010000,-9.773815,-4.412087
1004.171875,-8.355508,-4.397218,-13.009436,-3.765479
1004.175781,-9.988280,-7.009296,-16.074356,-13.052954
1004.179688,-6.203767,-7.212135,-13.475049,-14.901154
1004.183594,-8.748344,-6.471431,-7.806384,-5.769701
1004.187500,-6.124234,-9.351633,-13.487275,-6.892702
1004.191406,-7.623750,-7.791138,-11.376662,-5.111082
1004.195312,-6.257356,-8.188754,-11.152902,4.617025
1004.199219,-2.943091,-1.812466,1.696087,3.336347
1004.203125,2.355231,-1.748001,0.057734,-0.399953
1004.207031,8.641259,5.069088,2.053161,8.336541
1004.210938,2.763821,5.781999,4.678519,5.861629
1004.214844,12.412034,9.015350,4.217821,13.466272
1004.218750,7.548957,12.001430,13.502288,15.070628
1004.222656,12.812589,3.511547,9.056324,22.539218
1004.226562,7.791813,14.199882,7.404950,11.121797
1004.230469,11.384988,12.036849,17.684488,5.808394
1004.234375,7.206343,7.658973,7.156187,14.439771
1004.238281,8.428008,5.297956,-0.507477,6.314179
1004.242188,6.099442,4.951159,7.678072,-4.786658
1004.246094,-4.944026,7.626422,6.138762,7.619629
1004.250000,-0.168943,-2.281305,-1.065375,2.027594
1004.253906,-7.731052,-4.839445,-0.204555,-3.039078
1004.257812,-10.752566,-8.479373,0.712139,-10.815849
1004.261719,-5.293787,-8.149522,-6.776520,-11.152472
1004.265625,-9.091196,-13.532506,-6.037463,-8.288226
1004.269531,-18.607634,-6.462798,-7.993573,-8.512302
1004.273438,-8.409692,1.200939,-9.090439,-6.866804
1004.277344,-13.038827,-16.595909,-11.134155,-8.215487
1004.281250,-11.660602,-13.417817,-12.512037,-8.428783
1004.285156,-14.763022,-9.002940,-8.687082,-3.947779
1004.289062,-4.297337,-9.657175,-1.350310,-11.017410
1004.292969,-4.632767,-3.654954,-3.914494,-0.818898
1004.296875,7.773922,-0.493137,-9.984874,0.126615
1004.300781,-1.978873,-1.126251,1.276232,-2.309057
1004.304688,15.337661,4.585552,6.533918,5.712252
1004.308594,1.659271,10.577705,7.370072,-3.234216
1004.312500,11.318020,7.648074,0.989426,10.115993
1004.316406,9.998031,8.311828,6.821670,11.403143
1004.320312,6.488013,9.956011,8.275911,6.189068
1004.324219,15.374271,12.690386,7.082725,19.830940
1004.328125,12.949496,7.791793,13.078007,7.071438
1004.332031,6.389523,12.880740,2.469729,3.284724
1004.335938,5.941660,6.106597,9.904935,6.354439
1004.339844,7.969019,3.019825,7.053157,3.082730
1004.343750,0.282236,-5.034011,-2.371924,10.754505
1004.347656,-0.385121,1.869799,-8.807129,4.041470
1004.351562,-5.236869,-1.113667,-0.773085,-9.124650
1004.355469,-0.832115,-2.122207,3.659225,-9.416287
1004.359375,-6.905828,-4.095319,-7.719845,-12.977445
1004.363281,-8.680063,-4.638556,-6.706262,-4.388294
1004.367188,-6.223406,-7.030406,-6.856484,-9.360534
1004.371094,-12.712284,-17.199052,-2.422189,-15.037404
1004.375000,-13.734853,-16.043208,-10.593790,-13.336258
1004.378906,-9.463454,-1.797601,-11.687167,-7.380513
1004.382812,-12.939927,-2.534646,-5.925442,-10.864048
1004.386719,-10.213423,-6.007587,-12.749859,-8.310986
1004.390625,-7.614813,-10.193946,-8.375686,1.989750
1004.394531,-3.076792,3.908647,-4.594686,-1.214331
1004.398438,6.515520,-8.440953,-1.960324,-7.522103
1004.402344,1.110463,4.025334,5.664906,0.757548
1004.406250,2.340526,5.602011,-3.570949,3.508148
1004.410156,5.027065,8.676505,9.945337,2.005819
1004.414062,3.012890,9.114336,11.848439,2.476058
1004.417969,9.096662,10.092572,9.022671,12.881500
1004.421875,9.603835,16.709205,8.554068,8.444900
1004.425781,19.322367,9.683428,2.836014,3.190791
1004.429688,11.458560,13.400309,10.565066,10.590874
1004.433594,4.712810,13.161641,7.632441,5.537061
1004.437500,2.960321,7.670674,6.417945,15.021502
1004.441406,2.747267,13.919669,3.880659,2.962876
1004.445312,1.432973,7.815118,-2.935533,3.378664
1004.449219,1.109515,3.657335,0.617005,-3.972142
1004.453125,-3.704820,-2.086350,-4.269691,-7.591782
1004.457031,-7.534832,-9.481044,-5.187021,-1.377100
1004.460938,-9.837549,-5.728785,-11.890305,1.429977
1004.464844,-12.865251,-6.722030,-9.326614,-6.235207
1004.468750,-13.259284,-8.071831,-14.047345,-8.873733
1004.472656,-8.078483,-9.885122,-9.525092,-15.237466
1004.476562,-7.713797,-13.093783,-5.259477,-5.975266
1004.480469,-14.045632,-14.239389,-6.102253,-8.535201
1004.484375,-3.119842,-6.032048,-7.343221,-11.802291
1004.488281,-11.378815,-2.581056,-5.713543,-6.766946
1004.492188,-10.756301,-6.612195,-3.722799,-6.470044
1004.496094,-2.089099,0.223419,-1.016478,-2.324655
1004.500000,-5.414411,10.375142,-2.322436,-8.756190
1004.503906,5.377018,8.887582,-3.240209,3.576205
1004.507812,10.628665,0.398907,-2.139388,5.174778
1004.511719,6.889330,-4.989282,3.372541,1.163258
1004.515625,11.769851,9.248400,11.800282,5.168000
1004.519531,5.176715,12.860226,13.232282,9.962262
1004.523438,-0.947186,9.784805,5.715478,5.916824
1004.527344,8.028164,11.750613,8.107145,5.012805
1004.531250,10.840057,3.376371,6.386802,8.354510
1004.535156,6.432318,9.114695,10.878445,5.749993
1004.539062,9.018492,3.795863,-1.107698,1.760179
1004.542969,-1.086210,-0.151497,6.006201,1.377370
1004.546875,-1.273869,6.531403,-3.391062,4.269766
1004.550781,2.905367,3.919818,2.555852,-0.505362
1004.554688,3.425535,-4.624261,-8.344674,-11.770786
1004.558594,-9.699712,-12.797227,1.325991,-10.095471
1004.562500,-12.530391,-4.330873,-7.613373,-6.614928
1004.566406,-18.403272,-5.858668,-5.607977,-16.493818
1004.570312,-4.517139,-7.986470,-8.776452,-5.434852
1004.574219,-8.153097,-7.276392,-14.807842,-9.529970
1004.578125,-8.947680,-11.562027,-12.471043,-12.085890
1004.582031,-17.289397,-13.065414,-6.707874,-11.704100
1004.585938,-2.748711,-10.547841,-4.029230,-3.149015
1004.589844,2.076290,-3.885047,-4.493255,-6.532762
1004.593750,0.209432,-3.310299,-4.427495,-2.338367
1004.597656,-7.152455,-2.192517,-0.538340,-3.442744
1004.601562,-1.686921,-3.795921,2.709410,-4.821942
1004.605469,5.979010,11.106069,3.544828,5.456361
1004.609375,6.695776,6.940278,6.834852,12.453604
1004.613281,5.537401,10.062359,6.256542,-2.486811
1004.617188,2.956017,15.744984,9.911726,16.112018
1004.621094,5.490902,4.361985,8.516792,11.462579
1004.625000,10.880383,10.019897,15.576297,10.677973
1004.628906,5.639979,6.059601,16.365932,0.425670
1004.632812,10.480802,4.127887,10.776306,11.487049
1004.636719,15.417075,4.004646,8.824572,3.824516
1004.640625,-0.712337,-4.956442,9.094531,-5.357978
1004.644531,3.434207,-0.049234,5.801504,-7.771538
1004.648438,0.651998,1.496720,-1.777930,11.335742
1004.652344,-5.949119,-5.500557,-0.742982,-0.273323
1004.656250,-5.728459,-3.849253,-0.572761,-6.464128
1004.660156,-14.022988,-6.623833,-4.534315,-8.640841
1004.664062,-10.889291,-2.199828,-3.055634,-6.656300
1004.667969,-8.903064,-16.792118,-7.366599,-11.726657
1004.671875,-15.294431,-10.091686,-14.244346,-15.638041
1004.675781,-7.903880,-7.831313,-8.239093,-12.238067
1004.679688,-6.109908,-7.713811,-7.271785,-9.046489
1004.683594,-11.671453,-8.555999,-10.979301,-7.559372
1004.687500,-8.944240,-8.058440,-9.534683,-4.338672
1004.691406,-9.119865,-3.664641,-4.613103,-6.345832
1004.695312,-0.375654,1.650746,-0.601005,-0.478373
1004.699219,1.795386,-2.734827,1.774709,1.028272
1004.703125,-7.254713,2.639630,4.259337,-1.358563
1004.707031,3.049152,4.749462,2.200604,14.802004
1004.710938,7.071705,3.486661,2.982956,8.187012
1004.714844,11.684299,3.178061,9.100205,8.750851
1004.718750,7.530987,9.437185,10.167594,5.898310
1004.722656,8.973450,6.750088,7.869470,6.872323
1004.726562,3.960328,6.822293,8.003307,10.497477
1004.730469,8.589855,11.373673,2.314472,6.235389
1004.734375,5.486712,16.679650,15.423825,8.580588
1004.738281,3.202645,9.519945,15.275229,7.869008
1004.742188,-6.023995,-1.851824,6.875196,12.210403
1004.746094,2.490814,5.872695,-0.276238,7.099793
1004.750000,0.581998,0.015604,-1.643394,-5.876559
1004.753906,-2.649907,-3.351481,3.762896,-2.977752
1004.757812,-3.602215,1.048553,-3.313887,0.444360
1004.761719,-10.255220,-9.964045,-7.763769,-3.492260
1004.765625,-9.545731,-5.493384,-7.620497,-10.740843
1004.769531,-16.183453,-6.626166,-5.709552,-12.416104
1004.773438,-5.641250,-9.535568,-10.840594,-11.240710
1004.777344,-17.069310,-1.851443,-10.610597,-2.048826
1004.781250,-6.447222,-14.121593,-6.782891,-15.743314
1004.785156,-6.872970,-6.970766,-9.197009,-3.129583
1004.789062,-10.476825,0.186858,-3.078891,-8.611764
1004.792969,-6.068626,-11.158227,-13.395005,-1.809356
1004.796875,-4.792630,-1.396958,-3.461084,9.856079
1004.800781,1.089151,0.625279,0.437750,0.377116
1004.804688,2.686410,3.494201,10.668630,9.028304
1004.808594,9.304603,0.284617,7.121089,3.094304
1004.812500,4.003736,4.867402,9.318760,-4.819616
1004.816406,5.268015,5.172042,13.443630,7.544572
1004.820312,15.402228,11.650937,8.157293,5.189122
1004.824219,8.031962,11.397967,8.691276,3.510768
1004.828125,12.232236,3.318630,12.374627,6.573533
1004.832031,15.719202,10.968145,9.809794,9.052180
1004.835938,4.892561,11.296867,4.056388,9.679663
1004.839844,7.369014,8.912353,0.826241,13.348924
1004.843750,5.345511,9.494214,8.047150,10.636800
1004.847656,10.094616,8.467546,-4.256885,3.511439
1004.851562,-2.569508,-6.920871,4.401148,6.673335
1004.855469,-4.942859,-7.666426,0.020511,3.402147
1004.859375,-6.083007,4.981914,-4.376060,-5.082707
1004.863281,-4.141864,-11.372277,-4.132404,-8.264416
1004.867188,-5.491851,-6.452804,-7.066334,0.777554
1004.871094,-9.171702,-10.231967,-15.649811,-7.206129
1004.875000,-10.288117,-3.232385,-9.343248,-9.883448
1004.878906,-6.820390,-3.635371,-8.452557,-8.936901
1004.882812,-5.222498,-9.714012,-13.380701,-11.428846
1004.886719,-5.062952,-7.795443,-8.371185,-9.635325
1004.890625,-4.101710,-3.078069,-3.646750,-1.948963
1004.894531,-5.200244,-11.938972,-2.041305,-7.032912
1004.898438,-6.363840,-9.568747,2.091851,-0.927638
1004.902344,10.459450,-0.472207,0.785390,6.915808
1004.906250,4.268872,8.425765,-0.237063,1.574274
1004.910156,3.041110,4.639167,5.687517,10.809605
1004.914062,5.409551,7.119137,7.892843,7.037206
1004.917969,10.180519,6.860507,4.238971,8.034231
1004.921875,5.140276,13.541543,10.117843,9.342854
1004.925781,11.309974,10.908033,12.503025,13.420332
1004.929688,9.207076,9.504200,19.882973,2.802067
1004.933594,11.203827,12.098425,4.109904,17.058369
1004.937500,9.114550,7.274582,4.336022,0.385216
1004.941406,3.627315,9.646078,5.979787,10.849681
1004.945312,1.287171,0.518899,7.462474,-3.293024
1004.949219,1.068225,-1.513129,-2.390832,2.491262
1004.953125,-6.272504,-4.929761,-1.692646,-5.178810
1004.957031,-1.203385,-5.145603,-10.647231,-2.485894
1004.960938,-6.738522,-6.714266,-0.214212,-11.413789
1004.964844,-7.778718,-17.753498,-12.860848,-17.261213
1004.968750,-10.949503,-7.545113,-3.062939,-13.904850
1004.972656,-17.177377,-13.326300,-7.326651,-9.427572
1004.976562,-9.184856,-5.173041,-8.752086,-5.112028
1004.980469,-6.752293,-9.413550,-17.733822,-8.062183
1004.984375,-14.613690,-8.530890,-11.016768,-2.519013
1004.988281,-11.700255,-10.137405,-2.925436,-4.153387
1004.992188,-0.213254,-2.937860,-10.930841,0.145386
1004.996094,-0.028317,1.225004,1.172984,-2.644143
1005.000000,1.315879,6.075691,5.318089,3.682660
1005.003906,5.536029,9.056192,7.487887,7.001216
1005.007812,4.672573,10.085692,4.494907,4.158071
1005.011719,6.054710,3.120931,7.035921,7.185394
1005.015625,6.569540,4.585487,6.920922,9.462869
1005.019531,13.396772,16.116511,11.996839,5.983741
1005.023438,9.756880,13.038804,11.618747,6.616509
1005.027344,10.667950,11.805728,10.991868,14.379643
1005.031250,9.238823,14.007774,12.212171,11.170905
1005.035156,7.848556,4.675558,12.231014,8.881649
1005.039062,6.520999,1.948463,5.711069,8.973199
1005.042969,3.127913,0.241518,6.849712,4.793584
1005.046875,-1.093809,3.964744,1.656138,-0.820144
1005.050781,7.675098,1.159018,-0.072419,4.372850
1005.054688,2.112065,7.141021,0.250150,-7.417044
1005.058594,-3.291420,-8.626967,-3.175581,-7.369836
1005.062500,-0.566066,-9.877423,-13.502000,-12.943490
1005.066406,-2.673374,-10.988022,-11.832979,-6.126842
1005.070312,-15.030780,-9.671275,-8.582348,-6.908684
1005.074219,-11.770151,-5.076097,-9.259263,-10.487614
1005.078125,-14.104090,-15.859288,-13.388047,-6.919335
1005.082031,-8.276480,-8.493369,-3.864764,-3.181760
1005.085938,-2.696043,-9.648943,3.544763,-7.015414
1005.089844,-1.934351,-7.305658,-12.727440,-11.536918
1005.093750,-7.179452,-9.862973,-2.299997,-9.606786
1005.097656,-3.490446,-13.702018,-9.349969,-1.383003
1005.101562,-5.406760,3.713099,-5.304404,-0.302778
1005.105469,5.385364,2.338355,6.090001,5.946390
1005.109375,1.745974,0.085133,8.412285,5.426911
1005.113281,3.202928,6.861162,6.863353,0.335258
1005.117188,9.473963,5.391728,11.881941,8.375739
1005.121094,14.854746,12.292493,7.234555,5.073132
1005.125000,5.002692,17.753050,6.762619,8.666174
1005.128906,18.186352,7.105986,9.391680,9.023327
1005.132812,13.989377,6.866176,15.390130,5.712745
1005.136719,12.081142,8.133842,8.398775,8.960425
1005.140625,-3.937568,6.594634,-3.453686,3.666386
1005.144531,-2.291692,6.081870,12.439378,13.555290
1005.148438,6.009751,3.121640,4.460207,-0.523161
1005.152344,-10.700129,-7.592690,-0.557403,2.885686
1005.156250,-6.155396,-5.583978,2.631259,-0.303779
1005.160156,-1.921630,-7.125229,-5.123052,-10.391689
1005.164062,-9.388371,-6.361630,-1.480699,-6.869467
1005.167969,-6.883866,-0.209674,-11.540153,1.278695
1005.171875,-13.152342,-7.094767,-5.810118,-8.935389
1005.175781,-7.007397,-4.554371,-8.280554,-15.096047
1005.179688,-20.167502,-6.014516,-11.221882,-11.034444
1005.183594,-4.149066,-6.615068,-11.395580,-14.182090
1005.187500,0.001134,-4.376283,-9.357052,-12.731019
1005.191406,-3.651686,-5.739507,-6.381882,-3.121003
1005.195312,0.039472,-6.138741,-3.644384,-2.803962
1005.199219,2.843153,3.512614,-5.357597,7.167568
1005.203125,8.395893,5.704213,-2.900371,-0.492888
1005.207031,6.026097,4.239645,1.220878,1.357076
1005.210938,8.890167,6.002662,10.268188,8.293079
1005.214844,10.352837,13.305484,6.855516,16.603653
1005.218750,7.355925,7.011558,8.927193,11.485819
1005.222656,8.412934,10.230877,13.487111,8.284393
1005.226562,4.331877,12.930578,10.470773,16.451641
1005.230469,8.977975,15.254181,11.634903,12.631235
1005.234375,7.907301,1.539330,1.628387,6.842924
1005.238281,2.788669,12.609551,0.092401,0.034164
1005.242188,15.086033,3.964538,8.536505,4.708594
1005.246094,0.640020,4.035729,4.171526,-7.770248
1005.250000,0.382423,1.992674,-3.700480,5.265209
1005.253906,-5.506332,2.679064,-3.878996,-3.759725
1005.257812,-9.761748,-6.118790,-2.473796,-4.517403
1005.261719,0.208849,-18.866497,-4.090581,-2.491904
1005.265625,-3.844737,-3.860376,-10.137099,-16.473571
1005.269531,-12.833462,-9.115396,-11.798174,-12.220784
1005.273438,-9.658088,-8.298662,-0.427815,-8.914286
1005.277344,-9.016369,-8.909940,-8.276496,-17.131323
1005.281250,-18.219822,-8.599466,-17.121996,-9.393676
1005.285156,-7.298466,-8.421396,-2.865980,-7.685071
1005.289062,-5.889657,-5.204150,-15.079137,-8.234339
1005.292969,-4.949289,-6.040174,-4.340533,-2.145896
1005.296875,-2.101249,-0.509374,-2.840967,-10.665901
1005.300781,-4.113977,5.009768,-5.616821,-0.894321
1005.304688,0.324253,-1.933919,4.974693,-1.759994
1005.308594,11.859591,9.820718,-10.049658,8.446892
1005.312500,5.867103,5.818443,10.101743,11.061043
1005.316406,10.130007,6.574290,-0.121068,6.785489
1005.320312,15.689755,1.756698,13.498988,5.130093
1005.324219,7.573906,18.544718,7.812203,8.753170
1005.328125,14.186354,17.851968,8.216548,18.616856
1005.332031,9.325844,16.617102,8.732785,4.326274
1005.335938,7.233533,8.123867,6.471591,15.625715
1005.339844,7.023847,-1.138032,10.115561,9.438443
1005.343750,2.485093,7.828359,5.893195,-1.818186
1005.347656,0.565290,-0.994736,1.152842,0.723940
1005.351562,2.423026,-5.730956,-1.692229,0.221168
1005.355469,1.678955,-6.316986,-6.756257,0.291991
1005.359375,-11.559270,-7.591833,-7.674993,-5.592456
1005.363281,-15.591205,-1.889370,-4.052007,-13.194682
1005.367188,-7.811799,-13.175031,-9.182066,-9.481620
1005.371094,-14.894587,-10.754635,-8.221725,-14.936862
1005.375000,-7.078248,-8.447833,-11.726135,-17.860510
1005.378906,-10.791569,-11.842976,-6.265096,-8.466829
1005.382812,-8.349104,-10.325762,-7.770024,-10.025467
1005.386719,-13.228250,-10.224569,-4.477736,2.491669
1005.390625,-4.068869,-9.189275,-10.843243,-0.714255
1005.394531,-0.939232,-6.728755,2.178915,1.131242
1005.398438,-0.096654,-8.694780,-3.953163,3.042466
1005.402344,-1.910548,4.623462,4.167282,-9.490076
1005.406250,7.398029,9.184576,7.049460,7.625805
1005.410156,3.852369,13.579004,3.505436,4.437204
1005.414062,5.877314,5.427246,12.660937,6.710283
1005.417969,10.379231,3.447365,10.974703,8.267400
1005.421875,11.709249,14.188276,14.696386,6.987529
1005.425781,10.005401,12.003974,13.391871,9.652472
1005.429688,14.419352,9.862745,13.662483,10.043907
1005.433594,6.800889,11.383217,3.315925,8.412952
1005.437500,2.779010,5.833430,8.305326,5.514530
1005.441406,3.332640,4.202842,3.093283,1.554517
1005.445312,0.596266,4.785012,5.414741,3.788884
1005.449219,1.001341,0.052242,-5.852905,-3.542495
1005.453125,-1.688644,-0.965348,-2.251793,-7.903434
1005.457031,-9.010775,-10.424502,-2.859167,-1.053905
1005.460938,-5.941108,-9.881018,-1.000364,-12.748354
1005.464844,-5.826626,-6.477819,-11.808839,-6.840036
1005.468750,-13.097774,-12.049416,-4.353260,-14.590516
1005.472656,-6.692892,-5.898053,-6.051169,-8.117716
1005.476562,-12.311343,-8.463674,-6.563993,-12.331747
1005.480469,-8.499216,-10.044189,-7.466303,-2.413022
1005.484375,-7.113556,-8.152192,-7.997226,-4.305792
1005.488281,-3.382790,-9.340068,-7.923344,-10.232974
1005.492188,-5.708134,-2.294756,3.169509,-9.586141
1005.496094,-1.420271,-1.652696,-1.963812,-8.028609
1005.500000,-3.639780,2.040934,-5.608582,2.583426
1005.503906,4.310257,-2.114196,3.252868,0.021018
1005.507812,1.335639,-1.111528,9.807597,7.592965
1005.511719,8.257177,16.418899,-0.387215,5.827855
1005.515625,6.500781,8.083627,14.209332,0.243769
1005.519531,6.751790,15.518997,8.618529,2.791795
1005.523438,6.862774,8.612932,8.863520,12.276462
1005.527344,5.240934,6.444943,9.841931,16.029876
1005.531250,1.119696,13.489144,3.726626,7.879599
1005.535156,4.178372,3.635057,9.728035,9.568781
1005.539062,0.376271,13.794116,-0.214913,10.604096
1005.542969,6.301182,1.724398,4.941552,5.356321
1005.546875,2.445846,1.041307,0.430016,4.001953
1005.550781,-2.102460,-1.663226,3.168219,-2.542347
1005.554688,-2.228110,2.743539,-8.113653,-7.643197
1005.558594,-4.827496,-7.124786,-9.815467,-5.755275
1005.562500,-3.224434,-9.292704,-14.667284,-9.506200
1005.566406,-5.679617,-6.929642,-7.680521,1.523556
1005.570312,-5.848639,-16.862972,-13.095928,-8.234170
1005.574219,-7.747233,-14.055860,-12.774844,-11.226202
1005.578125,-12.394404,-14.850039,-4.217239,-1.491392
1005.582031,-6.655096,-9.368705,-7.692034,-13.966265
1005.585938,-10.249097,-11.289648,-3.137881,-6.433655
1005.589844,-4.315935,-3.218941,-1.329059,-3.545069
1005.593750,-7.119165,-2.216681,-9.052180,-1.003683
1005.597656,-5.844163,-1.580120,2.806735,-1.680527
1005.601562,8.212846,-0.940005,1.436593,1.675967
1005.605469,7.056948,4.746116,9.533350,0.499215
1005.609375,9.102419,-0.785768,6.586843,7.510873
1005.613281,9.472548,5.491051,11.977515,8.767866
1005.617188,13.814058,3.708492,7.528770,11.315080
1005.621094,5.056319,7.709530,5.654937,12.578695
1005.625000,13.166864,10.615677,9.781184,5.617255
1005.628906,11.638198,8.891881,9.555670,10.876029
1005.632812,7.387421,4.990457,7.282114,1.854805
1005.636719,7.598686,4.274081,1.253522,9.619022
1005.640625,5.631783,2.066119,5.183297,14.945063
1005.644531,3.837400,1.814661,3.505151,-1.246336
1005.648438,-2.104885,2.351754,2.183941,-0.864746
1005.652344,-6.137468,-3.572514,2.563900,-0.473917
1005.656250,-1.013238,-10.232343,-10.244749,-1.792803
1005.660156,-7.009409,-10.433342,-5.741337,0.283280
1005.664062,-12.962997,-7.098761,-13.349316,-12.524019
1005.667969,-8.340060,-1.977724,-2.719503,-15.106558
1005.671875,-7.448788,-15.273175,-13.658649,-12.943889
1005.675781,-11.250159,-12.347340,-10.929665,-9.848143
1005.679688,-10.757330,-6.548496,-10.860025,-11.046817
1005.683594,-14.960402,-4.183941,-4.651703,-11.370407
1005.687500,-8.817564,-3.334925,-7.359768,-19.653074
1005.691406,-7.626573,-6.947262,-8.659085,-1.568075
1005.695312,2.010159,-5.777722,-10.221917,-2.511255
1005.699219,6.635405,-2.533852,-4.684230,-4.902237
1005.703125,10.336216,-3.225781,-0.459981,3.806664
1005.707031,3.880078,3.586169,1.587765,3.949731
1005.710938,9.195861,7.281669,4.837126,3.438292
1005.714844,12.049706,9.542697,8.381431,9.263478
1005.718750,14.851820,-2.005870,9.779853,5.216814
1005.722656,8.812272,13.417638,1.524804,11.413196
1005.726562,6.583104,6.319813,11.144909,12.304162
1005.730469,8.278735,4.261226,8.485754,11.235030
1005.734375,12.309361,5.655346,8.012238,13.602683
1005.738281,4.683605,3.860519,12.869863,10.425004
1005.742188,6.273470,0.623960,3.567787,2.392658
1005.746094,2.006229,1.743405,-1.640292,-0.920530
1005.750000,-4.783614,-1.214029,-0.430279,1.383112
1005.753906,-4.462600,-1.491907,-1.065251,9.359645
1005.757812,-5.455251,-7.868063,-4.094900,-1.080431
1005.761719,-1.534803,-12.753514,-11.132724,-8.369463
1005.765625,-10.668672,-3.430884,-8.079756,-5.402732
1005.769531,-12.212200,-14.456436,-15.434107,-8.748990
1005.773438,-8.370150,-21.492206,-13.017669,-2.747118
1005.777344,-5.212713,-10.726631,-15.329457,-8.970453
1005.781250,-9.671428,-10.177858,-6.760255,-11.172717
1005.785156,-11.247918,-11.909346,-11.523516,-14.549907
1005.789062,-11.479735,-8.805056,-5.820878,-4.807623
1005.792969,-0.956351,1.820363,0.460006,-1.985518
1005.796875,-6.584562,-3.857699,-0.223419,-1.643461
1005.800781,10.187498,-1.743165,-1.398950,6.438355
1005.804688,-0.026975,-2.944235,4.722414,-0.041215
1005.808594,-2.470837,5.443416,4.151439,-4.582785
1005.812500,2.121218,10.790421,6.336220,10.249512
1005.816406,12.098708,1.749587,10.056288,11.684072
1005.820312,18.315667,7.850910,8.025385,13.901020
1005.824219,0.789003,7.129118,7.401813,14.200881
1005.828125,12.944800,12.004475,5.561426,6.272492
1005.832031,7.322428,13.492339,14.073269,9.278336
1005.835938,11.082035,10.447324,7.254595,6.157857
1005.839844,8.216420,4.017648,-2.055598,1.118474
1005.843750,3.647178,1.305307,6.913926,5.115969
1005.847656,-1.255294,5.061614,1.711979,4.964113
1005.851562,-3.869535,4.451348,-6.765695,3.005917
1005.855469,-2.276026,-5.033921,-7.894198,-4.171862
1005.859375,-1.546360,-2.678861,-2.703261,-4.255772
1005.863281,-8.485679,-9.985847,-4.848371,-0.202265
1005.867188,-8.659262,-11.083163,-10.388146,-10.796215
1005.871094,-4.207943,-6.552198,-11.246828,-12.838733
1005.875000,-9.236715,-6.980283,-6.591106,-10.162635
1005.878906,-4.447204,-17.557879,-11.203422,-13.723596
1005.882812,-12.085292,-9.125857,-11.113596,-8.622028
1005.886719,-3.076726,-7.129620,-9.853486,-16.797503
1005.890625,-0.754801,-6.781293,-9.717132,-10.153979
1005.894531,3.924851,0.491728,-1.938468,-4.350600
1005.898438,-3.799723,-5.321242,-2.172250,-1.222902
1005.902344,-0.151410,-3.432536,-0.492479,-2.515985
1005.906250,-4.404166,6.775473,4.746578,-1.215315
1005.910156,8.500733,3.477229,9.723778,7.603419
1005.914062,2.870042,10.272312,10.275291,15.213715
1005.917969,9.349502,8.614304,13.191764,6.597469
1005.921875,10.779400,14.275454,18.824203,15.037151
1005.925781,11.644059,12.171107,9.442785,5.419318
1005.929688,19.802224,16.268031,6.313243,9.988017
1005.933594,11.914116,7.238204,4.988899,10.651083
1005.937500,2.310488,15.301072,6.382496,10.231202
1005.941406,9.270673,7.615113,9.853270,7.918746
1005.945312,4.438128,3.174127,2.457725,0.796018
1005.949219,-1.043539,-4.523079,-0.880371,-6.020100
1005.953125,-5.737612,6.913013,-3.612900,1.212266
1005.957031,-4.525596,-6.659683,-5.423963,-4.905534
1005.960938,-5.476439,-3.709352,0.723428,-4.527460
1005.964844,-9.903464,-11.328015,-14.989010,-7.496152
1005.968750,-12.890886,-8.040955,-9.321889,-5.896914
1005.972656,-10.711811,-12.025782,-12.723858,-3.648136
1005.976562,-12.405825,-12.648038,-12.966299,-16.067837
1005.980469,-11.283837,-3.413242,-9.966705,-13.482210
1005.984375,-5.844894,-13.412935,-7.813027,-7.239668
1005.988281,-5.523715,-8.999727,-7.207541,-5.097041
1005.992188,-6.859659,-6.110415,-8.311548,-7.076522
1005.996094,-10.836680,-3.785333,0.507686,-3.950709
1006.000000,-7.485186,3.285980,0.504956,2.552410
1006.003906,2.055601,9.091114,3.843795,1.694379
1006.007812,6.308568,7.344400,14.023615,-1.113899
1006.011719,9.994818,7.990717,-6.544327,9.943117
1006.015625,10.166822,6.294551,10.674297,7.551546
1006.019531,9.974497,8.302955,9.835371,10.702700
1006.023438,14.518370,6.032373,12.559623,10.933540
1006.027344,4.397614,12.698269,12.572911,12.334964
1006.031250,9.803457,10.804648,8.926747,12.113398
1006.035156,6.973475,9.838984,8.750111,8.322194
1006.039062,8.614315,-2.657162,3.819434,10.197522
1006.042969,7.371590,1.041095,-2.210967,2.934419
1006.046875,2.290976,1.379187,1.539226,1.133045
1006.050781,1.451457,-1.447869,0.238468,-11.654213
1006.054688,-7.905100,-2.464491,0.505202,-1.087280
1006.058594,-3.904075,-3.564584,-0.362750,0.194803
1006.062500,-11.218653,-1.240879,-6.120506,-9.427710
1006.066406,-10.535897,-9.910697,-11.024585,-9.844014
1006.070312,-11.924037,-14.326455,-14.416738,-7.913811
1006.074219,-9.943247,-11.894742,-8.874839,-10.175699
1006.078125,-14.448333,-13.152569,-12.669063,-10.448183
1006.082031,-1.501065,-4.169828,-11.444839,-12.197976
1006.085938,-6.082484,-6.153350,-8.441282,-4.812867
1006.089844,-2.206650,-3.820329,-12.466161,-6.063201
1006.093750,-14.555706,2.070421,-1.865869,-0.034472
1006.097656,-0.101903,-0.185434,2.103879,-1.963736
1006.101562,-2.188577,-3.998867,-4.541464,-0.699025
1006.105469,11.222930,8.087954,0.582375,2.663403
1006.109375,4.256212,9.271935,3.812014,2.628593
1006.113281,5.274859,8.600550,6.077807,6.850576
1006.117188,7.343961,13.244296,6.053430,13.392596
1006.121094,9.490616,21.337545,14.872208,8.116592
1006.125000,6.366163,6.617449,8.039065,10.482892
1006.128906,10.789161,13.941848,12.301321,10.291593
1006.132812,8.124929,13.775458,-1.316538,13.066544
1006.136719,10.364764,10.164716,8.110158,5.672222
1006.140625,0.611385,10.545227,1.017311,10.039766
1006.144531,0.210378,2.935882,0.145729,10.844866
1006.148438,2.761835,1.819565,5.052859,2.583934
1006.152344,3.294313,0.007805,3.493696,1.096584
1006.156250,-10.584777,-6.491461,-5.768360,-10.668743
1006.160156,-9.043600,-6.615124,-7.479173,-3.264137
1006.164062,-0.072777,-4.455300,-11.641838,-3.531086
1006.167969,-5.176764,-9.368824,-12.382661,-11.709606
1006.171875,-3.119613,-14.476262,-5.584203,-12.380811
1006.175781,-14.298236,-2.739379,-10.227833,-12.869379
1006.179688,-6.280591,-13.994900,-8.529401,-12.481650
1006.183594,-10.748407,-8.149905,-9.572411,-15.149687
1006.187500,-9.028288,-9.229256,-10.908186,-5.428259
1006.191406,-11.877638,4.148231,-4.129095,-2.554544
1006.195312,-4.766300,-1.111136,3.153350,-12.116162
1006.199219,-0.125931,6.894385,-1.820343,5.399596
1006.203125,-6.070345,2.275972,2.849586,7.646334
1006.207031,11.142116,10.880908,2.436411,6.857887
1006.210938,5.080170,4.406738,8.808857,10.148729
1006.214844,5.112387,1.406567,8.115789,-3.142353
1006.218750,4.503167,2.817370,13.989072,8.709671
1006.222656,11.268705,6.931807,12.491693,7.178078
1006.226562,7.900535,3.227193,9.846743,7.938289
1006.230469,11.572150,12.113114,5.865280,5.615331
1006.234375,8.497879,9.621170,10.065866,13.713119
1006.238281,3.896133,9.325815,7.917229,8.871172
1006.242188,9.624833,7.650705,-1.871751,6.494185
1006.246094,-2.391594,8.465713,8.357883,4.617330
1006.250000,5.871948,-5.934086,-2.724934,4.717165
1006.253906,0.444099,-0.505905,1.974584,-7.818345
1006.257812,-12.277279,-6.598552,-5.897149,-3.512418
1006.261719,-4.751904,-1.642087,-6.807447,-11.284188
1006.265625,-4.279248,-8.904135,-10.037352,-6.778190
1006.269531,-7.627966,-19.235548,-7.738530,-12.844744
1006.273438,-10.726728,-12.106312,-6.867344,-12.603506
1006.277344,-10.429117,-5.854656,-5.206885,-15.476982
1006.281250,-5.305636,-12.413216,-11.244297,-15.735196
1006.285156,-14.084746,-8.523577,-5.918793,-10.360638
1006.289062,-12.180878,-5.290634,-1.895900,-11.371187
1006.292969,0.173699,1.239202,-4.275037,-4.760497
1006.296875,-1.503474,-5.857213,-1.737280,-3.085181
1006.300781,2.211814,-0.494304,2.395514,-1.350511
1006.304688,3.291573,3.929242,1.881314,10.532852
1006.308594,9.025549,5.880250,10.782678,8.997201
1006.312500,3.814508,10.299277,8.367266,7.572067
1006.316406,11.527547,10.082361,5.284301,7.829984
1006.320312,10.807149,9.409176,7.244784,10.079453
1006.324219,4.868907,13.122896,12.420534,9.329781
1006.328125,8.595031,13.566239,6.787173,10.763827
1006.332031,11.303464,6.359830,10.410618,4.596941
1006.335938,7.824084,11.061674,1.647376,7.057231
1006.339844,8.067756,4.846685,8.578916,6.175623
1006.343750,-7.031949,4.761929,0.704627,0.364741
1006.347656,7.520651,1.940695,-6.537324,4.838062
1006.351562,3.592015,2.332696,-0.964875,-4.126601
1006.355469,-13.068727,-14.486127,-5.788762,-3.686074
1006.359375,-5.456273,-4.028810,-16.621288,-6.992189
1006.363281,-2.228819,-6.890676,-11.367361,-11.153854
1006.367188,-7.723348,-0.379523,-4.393715,-16.964938
1006.371094,-7.090638,-8.770847,-6.461351,-7.514539
1006.375000,-8.174696,-8.114452,-7.373384,-13.111556
1006.378906,-8.689218,-9.788225,-21.107943,-17.348613
1006.382812,-9.670987,-17.632698,-10.029656,-6.266903
1006.386719,-8.367280,-10.364660,-9.119164,-7.787103
1006.390625,-3.961907,-5.974768,-5.436484,-7.246922
1006.394531,-3.713661,-6.659649,-1.955927,-5.921931
1006.398438,-1.755304,1.622868,-2.708563,-0.054493
1006.402344,-3.997116,1.674296,-2.700547,2.813699
1006.406250,7.926527,5.729822,8.883905,3.351147
1006.410156,-0.113854,9.324682,5.441216,14.815416
1006.414062,10.700563,6.788339,6.881505,9.393292
1006.417969,14.994144,5.937851,12.812173,5.989133
1006.421875,12.899759,9.601343,6.846925,8.834227
1006.425781,10.928636,8.006900,15.302332,12.034996
1006.429688,11.372904,7.766527,13.298066,8.867393
1006.433594,12.121151,9.957538,13.717926,15.465018
1006.437500,7.412465,18.636910,-2.818189,8.364763
1006.441406,2.252836,6.909525,6.316411,3.534946
1006.445312,1.034470,3.134062,1.741822,3.775012
1006.449219,-3.948754,2.024768,3.251052,-3.053366
1006.453125,-1.635817,-0.409970,-5.417911,-9.639468
1006.457031,-9.952690,3.491412,-5.369570,-4.966381
1006.460938,-7.931992,-10.019630,-8.873476,-1.948716
1006.464844,-11.148095,-16.897354,-4.605001,-5.374836
1006.468750,-4.633814,-13.427298,-10.063639,-6.406567
1006.472656,-11.655363,-11.823138,-8.552702,-14.854431
1006.476562,-5.344745,-13.886584,-1.060385,-7.276440
1006.480469,-7.798357,-3.545862,-7.691622,-6.102097
1006.484375,-8.850163,-4.394431,-10.370773,-4.079043
1006.488281,-14.969007,-2.086644,-2.676386,-9.758655
1006.492188,-6.106238,-4.940498,-10.279300,-8.580851
1006.496094,-4.509524,-3.532815,-2.549089,-6.222522
1006.500000,3.315631,1.414495,-5.747496,4.600899
1006.503906,0.230545,-0.431838,-4.910752,1.663198
1006.507812,1.604645,4.389299,12.306553,7.083955
1006.511719,-2.661886,15.463257,8.364981,11.956887
1006.515625,11.377835,9.023859,5.285034,10.668101
1006.519531,7.304142,19.523346,11.073686,13.100337
1006.523438,12.032261,3.702993,7.240909,8.404483
1006.527344,6.400121,7.255484,13.092685,10.672828
1006.531250,8.074467,19.966253,7.380405,3.523991
1006.535156,9.799787,0.033299,13.895150,5.215108
1006.539062,3.251657,-2.144486,-1.495437,6.028955
1006.542969,9.437117,5.706112,4.674143,4.964126
1006.546875,-2.565913,8.030206,2.918567,-4.398688
1006.550781,-4.320271,0.734121,9.614704,1.470634
1006.554688,2.707700,-0.709957,-2.598860,-7.913510
1006.558594,1.440988,-0.933194,-4.191318,-5.978415
1006.562500,-9.750279,-8.866704,-9.104747,-6.793557
1006.566406,-8.997728,-7.981689,-13.394957,-5.338105
1006.570312,-7.352268,-2.374467,-10.849945,-9.769095
1006.574219,-10.090854,-11.535077,-7.444455,-9.416229
1006.578125,-11.173720,-9.909883,-7.877635,-10.167895
1006.582031,-13.216706,-9.449987,-14.904716,1.399705
1006.585938,-8.499720,0.068330,-11.699020,-13.102658
1006.589844,-11.137355,-3.316429,-4.644553,-9.071059
1006.593750,-1.303963,-5.341644,-6.945334,-2.215820
1006.597656,-8.891845,0.999075,3.279448,5.908246
1006.601562,1.201533,5.872995,-4.073584,-5.335354
1006.605469,8.875341,2.375292,8.429949,2.681025
1006.609375,2.084374,6.541389,17.215441,12.247226
1006.613281,6.068051,0.500033,6.483573,-1.775085
1006.617188,9.876866,9.046883,7.537877,6.120543
1006.621094,4.686515,8.058849,5.615901,12.599734
1006.625000,5.639603,18.424946,9.650110,16.126570
1006.628906,8.478672,17.800364,9.776793,9.030993
1006.632812,9.241497,7.549627,11.424134,6.573290
1006.636719,5.945209,7.042035,1.675175,14.015378
1006.640625,9.724982,4.026385,-0.341361,4.948239
1006.644531,0.786929,-3.094163,0.117649,3.459223
1006.648438,0.338876,6.557286,-3.133879,-3.676752
1006.652344,2.264280,1.076954,0.953778,-4.081623
1006.656250,-4.494248,-3.269042,2.759406,-9.124176
1006.660156,-2.447658,-3.040346,-6.957913,-7.200445
1006.664062,-12.948321,-7.989620,-5.957932,-7.645605
1006.667969,-4.492262,-16.119858,-8.209891,-4.888292
1006.671875,-10.628231,-12.264407,-11.126317,-9.509245
1006.675781,-9.145596,-11.189894,-12.872752,-5.580398
1006.679688,-11.298237,-17.861779,-15.047435,-10.518122
1006.683594,-17.279633,-8.063715,-12.718601,-1.555033
1006.687500,-5.605564,-7.275341,-8.003082,-10.768644
1006.691406,-8.959289,-7.627983,-4.187303,-12.526478
1006.695312,-4.231357,-7.075467,-5.886964,-6.038354
1006.699219,3.273349,-0.604907,-1.533220,-2.400887
1006.703125,-1.284372,-1.175110,4.119710,2.035587
1006.707031,-0.397142,7.038035,-0.440615,3.736044
1006.710938,-5.571731,4.554154,9.712560,3.122188
1006.714844,16.809429,12.283685,8.544781,4.781360
1006.718750,8.026961,5.063361,11.422427,8.199894
1006.722656,2.068953,0.546728,5.146741,10.774505
1006.726562,12.826228,0.542893,7.689114,12.620166
1006.730469,13.722160,3.096298,14.342985,13.420268
1006.734375,9.195992,6.692773,0.763398,10.884458
1006.738281,3.990023,4.899851,6.569785,7.322970
1006.742188,-0.273802,5.500238,-0.601933,0.567838
1006.746094,-0.351131,2.201750,4.793385,-4.625772
1006.750000,-0.790878,-8.127101,2.422406,-0.708940
1006.753906,1.559637,-4.820125,5.232958,-8.239689
1006.757812,1.349836,-3.774005,-2.544580,-2.937591
1006.761719,-5.351455,-3.375774,-4.737262,-4.979336
1006.765625,-4.169700,-9.173842,-10.591140,-11.448190
1006.769531,-0.916864,-10.860478,-8.442940,-19.582290
1006.773438,-15.149356,-12.052870,-5.989259,-6.838514
1006.777344,-8.593480,-8.293833,-11.739965,-3.354267
1006.781250,-5.005161,-8.137318,-18.089904,-7.483432
1006.785156,-4.052652,-6.937898,-10.673399,-11.604952
1006.789062,-7.208380,-3.271255,-1.893669,-5.797732
1006.792969,-5.005494,-9.145667,-1.721733,1.598178
1006.796875,-1.378109,-1.368342,-3.730747,-8.389094
1006.800781,-1.407386,4.787761,-0.114479,6.065176
1006.804688,3.672596,-5.004478,4.762220,3.500013
1006.808594,7.939384,-3.772128,10.871925,3.265883
1006.812500,11.150828,9.447769,4.735606,11.989038
1006.816406,8.351969,7.381900,12.307912,1.399370
1006.820312,7.886918,11.225497,5.612552,10.113819
1006.824219,7.724521,10.756031,8.140535,14.090383
1006.828125,12.441443,11.700030,9.769101,11.885471
1006.832031,13.341821,10.643688,5.690088,4.464214
1006.835938,-0.938904,9.103061,9.892990,7.071547
1006.839844,9.622497,9.292170,2.845362,3.492782
1006.843750,0.836784,-0.048405,0.332201,3.498251
1006.847656,-2.157393,2.354595,3.605345,2.335793
1006.851562,-0.096244,-0.844485,-1.637162,-6.355657
1006.855469,-4.103952,1.056407,-5.845280,-7.125538
1006.859375,-2.771997,-5.131816,-9.475835,-13.444053
1006.863281,2.101383,-2.681552,-5.216578,-3.471407
1006.867188,-13.192430,-3.309110,-8.906184,-8.793733
1006.871094,-10.352410,-6.104493,-8.349961,-4.261763
1006.875000,-12.347743,-10.541726,-10.498015,-7.999713
1006.878906,-6.905125,-12.622165,-9.085372,-15.909787
1006.882812,-11.860463,-13.835486,-9.036770,-2.634414
1006.886719,-13.511512,-6.755208,-6.722566,-6.595308
1006.890625,-7.535428,-5.275588,-2.276434,-0.852009
1006.894531,-3.598005,4.425085,3.734902,-5.571206
1006.898438,-3.373072,-9.211443,0.937740,-2.697161
1006.902344,-0.730326,3.880931,4.830014,5.220286
1006.906250,3.133676,-0.635536,-1.737770,2.761501
1006.910156,11.511696,9.381226,6.186679,7.134935
1006.914062,4.897964,14.570253,12.959729,7.069953
1006.917969,6.789852,6.917705,2.577705,4.264991
1006.921875,9.231328,8.723377,14.326365,9.461924
1006.925781,9.526274,13.957734,8.009960,9.268822
1006.929688,2.986633,8.574304,4.317671,11.186325
1006.933594,11.864919,4.278048,5.765739,10.095098
1006.937500,6.875899,9.270315,7.242031,5.202140
1006.941406,7.146240,5.978145,-3.965991,0.961289
1006.945312,3.263106,4.954126,0.400094,3.564702
1006.949219,2.847312,7.654930,8.461488,-0.725455
1006.953125,-6.061348,-1.735431,-4.003222,6.033894
1006.957031,-7.742365,1.891984,-5.038321,-4.093715
1006.960938,1.442034,-6.048668,1.117677,-4.123990
1006.964844,-8.532589,-7.666937,-9.127331,-6.825346
1006.968750,-5.415414,-3.729261,-7.182570,-8.111002
1006.972656,-13.680881,-17.886794,-8.831895,-8.422811
1006.976562,-8.370590,-5.252681,-15.243870,-3.907116
1006.980469,-14.415900,-6.552295,-10.619556,-16.142984
1006.984375,-15.816857,-1.497958,-14.085932,-4.803729
1006.988281,-4.109962,-6.162972,-8.428564,-4.739213
1006.992188,1.117063,-0.786783,-2.465883,-2.011103
1006.996094,0.444328,-1.078673,-3.711740,5.831533
1007.000000,-0.413610,-1.949165,0.952878,-3.956813
1007.003906,3.120545,5.246380,4.644976,0.832361
1007.007812,7.985867,5.110895,-2.274683,1.409148
1007.011719,9.655940,5.952232,8.517089,6.382823
1007.015625,11.292682,-1.196448,12.774528,6.963769
1007.019531,12.982289,13.029015,7.994610,8.781633
1007.023438,12.001104,8.079172,8.126678,8.397989
1007.027344,7.960576,5.957618,10.452293,11.149306
1007.031250,6.667038,6.129739,10.469667,11.190895
1007.035156,10.764355,2.971188,3.999401,15.373775
1007.039062,4.909907,5.804378,3.314841,11.932224
1007.042969,6.107962,13.556249,6.672870,5.006603
1007.046875,2.145362,-4.468488,-2.101871,1.872751
1007.050781,0.760018,4.168200,-3.406962,-3.739240
1007.054688,1.131612,-0.014966,-5.977822,7.141695
1007.058594,-9.965508,-0.267705,-5.167897,-7.077140
1007.062500,-4.046387,-4.665077,-2.282992,-11.549614
1007.066406,-2.653518,-12.001344,-7.114557,-5.386751
1007.070312,-14.553487,-9.295588,-7.263939,-9.157429
1007.074219,-12.482832,-16.711229,-5.149689,-5.061849
1007.078125,-9.820679,-7.372486,-9.000299,-11.659808
1007.082031,-6.411671,-6.357753,-16.518292,-10.759183
1007.085938,-5.901444,-12.335411,-5.925524,-7.044316
1007.089844,-5.250599,-11.569973,-5.970570,-7.075317
1007.093750,-6.843900,-2.509509,-5.077063,-12.104015
1007.097656,-1.796016,6.267216,1.090118,1.450210
1007.101562,-0.299208,-5.638587,-0.840452,6.034973
1007.105469,3.911763,1.188975,3.534624,7.161177
1007.109375,6.001486,9.023190,5.585379,0.420184
1007.113281,10.744695,6.057905,3.130441,9.662891
1007.117188,13.978319,11.091851,7.854983,5.447659
1007.121094,15.483459,13.415613,13.006395,3.078888
1007.125000,22.756883,11.247640,5.265613,5.299467
1007.128906,11.335574,11.463051,7.247670,6.835863
1007.132812,9.120029,7.623470,11.444455,10.818414
1007.136719,5.593241,13.103932,11.093204,6.762298
1007.140625,-5.888078,5.658043,1.295842,1.229667
1007.144531,-0.251758,1.073041,0.287942,4.597992
1007.148438,5.723945,-2.223657,5.632829,-1.729073
1007.152344,1.545658,-2.194775,-0.546123,-5.194332
1007.156250,0.337272,-2.059222,-7.007043,-4.215883
1007.160156,-5.755863,-6.546897,-1.257492,-7.540466
1007.164062,-9.734583,-10.014274,-2.592209,-7.095980
1007.167969,-11.473821,-11.910961,-10.705987,-15.335931
1007.171875,-14.151532,-9.168172,-11.514262,-13.447968
1007.175781,-16.454025,-2.472385,-5.139101,-12.280311
1007.179688,-5.537453,-7.259220,-14.270473,-12.716050
1007.183594,-7.828589,-12.591400,-5.093120,-13.868039
1007.187500,-5.048480,-13.599469,-12.637210,-4.157418
1007.191406,-4.562605,-4.633536,-16.445267,-9.066754
1007.195312,-3.782987,-11.277891,-7.885670,-7.225605
1007.199219,3.424341,-2.007844,7.064192,-1.502401
1007.203125,7.269584,-0.479881,4.211063,-3.403340
1007.207031,-4.181935,-0.560185,8.012072,4.854301
1007.210938,9.526475,13.869589,5.333675,8.879155
1007.214844,12.525853,13.720647,6.903023,7.794351
1007.218750,19.162202,0.567686,6.066704,12.757610
1007.222656,15.747994,9.600538,9.603292,2.733452
1007.226562,18.506896,3.545926,10.228873,7.871546
1007.230469,12.170061,15.426316,16.113655,11.996317
1007.234375,7.423863,8.553358,7.357840,7.291349
1007.238281,11.327435,5.948299,3.906097,4.313684
1007.242188,5.836037,9.151923,11.054356,7.417311
1007.246094,-1.915341,6.148369,7.873623,2.167300
1007.250000,-1.829296,4.176047,-4.862832,1.675839
1007.253906,-3.204173,1.328729,-5.953004,-3.381729
1007.257812,-6.002581,-2.655010,-0.401863,1.233624
1007.261719,-5.071247,-2.920024,-12.129444,-10.181177
1007.265625,-7.953029,-9.725247,-9.264653,-17.862700
1007.269531,-5.669739,-15.181418,-8.968321,-12.134724
1007.273438,-8.703997,-11.455854,-11.536405,-3.352383
1007.277344,-8.982917,-5.888865,-15.400860,-9.872823
1007.281250,-14.992938,-8.867323,-17.415553,-14.577214
1007.285156,-5.750723,-12.108604,-6.631333,-9.822786
1007.289062,-10.546610,-3.943502,-8.800577,-2.784962
1007.292969,-8.380587,-13.555527,-7.665635,-4.199942
1007.296875,1.915024,-3.102376,2.111145,0.301225
1007.300781,1.110326,1.343296,5.576702,4.569132
1007.304688,2.076301,4.293822,1.261662,1.378314
1007.308594,10.893625,8.300473,8.200747,7.308594
1007.312500,11.025357,7.995814,10.065436,3.096424
1007.316406,6.037194,22.524808,7.333301,8.280883
1007.320312,7.005025,8.538072,13.512142,10.435556
1007.324219,7.607384,7.579908,-0.462801,8.906168
1007.328125,14.345890,14.379719,2.671063,12.138098
1007.332031,11.724410,8.974115,11.830927,9.169726
1007.335938,5.987304,3.126251,8.519966,5.240321
1007.339844,5.294538,6.994679,6.670137,-0.880883
1007.343750,4.815694,11.275321,5.378321,0.423700
1007.347656,-2.187587,6.016293,-2.033282,1.087733
1007.351562,-0.444379,-2.435505,1.556800,-12.191691
1007.355469,-4.476537,-9.968034,-7.971608,-4.203343
1007.359375,-4.744729,-4.613417,-10.231836,0.122145
1007.363281,-16.033458,-10.235876,-9.830152,-8.590184
1007.367188,-12.757068,-5.349467,-9.482767,-9.958263
1007.371094,-8.180770,-18.452593,-5.781352,-9.030343
1007.375000,-11.365448,-17.021642,-8.470019,-12.464488
1007.378906,-10.690596,-15.435835,-3.498247,-3.720765
1007.382812,-17.765575,-14.499496,-3.559831,-20.147750
1007.386719,-8.840402,-4.721603,-4.420029,-11.515134
1007.390625,-2.441856,-9.090012,-7.947303,-5.079051
1007.394531,3.338080,-3.892348,-1.234387,-2.930118
1007.398438,-5.072938,7.333286,2.131374,-0.810916
1007.402344,11.400154,3.448610,1.625992,7.626455
1007.406250,8.190487,5.722477,9.960540,3.772424
1007.410156,5.908720,4.522350,3.300170,4.380454
1007.414062,7.885185,9.707658,4.329475,7.541226
1007.417969,3.945962,6.287808,11.696102,14.547712
1007.421875,9.080831,13.231875,8.272386,7.460822
1007.425781,2.390911,12.830646,6.249909,9.615239
1007.429688,7.457885,7.119990,17.242029,9.410253
1007.433594,10.759184,13.247904,13.766923,9.760942
1007.437500,3.763427,3.278296,7.230392,6.884876
1007.441406,13.789346,2.993414,5.158029,3.151394
1007.445312,-1.770432,6.310142,-7.260183,0.966665
1007.449219,3.032563,4.595240,6.344969,3.754410
1007.453125,-1.128879,-8.276878,-3.180815,2.393108
1007.457031,-7.248983,-18.474348,-4.139584,-4.922950
1007.460938,-7.472211,-1.579339,-1.755643,-11.344480
1007.464844,-5.634556,-2.108272,-2.405955,2.083524
1007.468750,-1.433059,-7.101257,-12.344253,-10.437147
1007.472656,-2.529981,-7.857562,-7.084724,-7.262312
1007.476562,-9.250120,-9.964182,-10.260809,-14.698265
1007.480469,-3.923846,-8.370950,-4.628035,-7.055313
1007.484375,-3.774980,-9.806820,-9.222615,-5.145114
1007.488281,-3.486731,-11.349270,-4.867816,-9.858061
1007.492188,-5.930490,2.235403,2.300595,5.339966
1007.496094,-5.715120,-2.440975,0.325557,-1.013461
1007.500000,4.912957,4.189805,-0.007203,0.631459
1007.503906,4.753265,0.073342,-8.012520,4.723686
1007.507812,7.080913,8.707958,1.651940,1.683775
1007.511719,8.739021,0.102658,13.304639,9.130899
1007.515625,11.607500,12.767894,8.921475,11.552601
1007.519531,9.320358,10.780796,10.260172,11.507089
1007.523438,10.987210,14.632865,4.477303,3.530826
1007.527344,9.985086,16.185744,5.566198,18.672974
1007.531250,11.911349,9.878483,11.782114,10.413357
1007.535156,16.784521,7.567410,1.564473,10.808470
1007.539062,9.390422,5.393927,3.785063,9.179133
1007.542969,3.588134,1.990122,4.230529,14.082245
1007.546875,-5.919695,1.423878,8.455743,6.419483
1007.550781,0.693031,4.237191,8.732772,2.226302
1007.554688,-2.671885,-2.269723,-1.902085,-3.844928
1007.558594,-3.954726,-6.273072,-3.751269,-4.513602
1007.562500,-11.919267,-8.383876,-3.933586,-9.713728
1007.566406,-13.416542,-10.961814,-14.471017,-7.379179
1007.570312,-10.999931,-11.440401,-12.629555,-7.038273
1007.574219,-8.113415,-10.948595,-7.855495,-13.705465
1007.578125,-6.487272,-9.004626,-8.344655,-5.595081
1007.582031,-13.518958,-10.077412,-0.765933,-8.454567
1007.585938,-1.855707,-4.771659,-11.049508,-2.081154
1007.589844,-6.406816,-10.587298,-8.810792,-2.887530
1007.593750,-12.589292,-5.412205,-1.458588,-0.368438
1007.597656,-3.838631,-4.259258,0.188370,5.998005
1007.601562,1.558375,8.851861,-2.151420,11.184956
1007.605469,4.363877,8.149383,-0.290590,3.652527
1007.609375,7.859938,1.606888,7.780143,14.375441
1007.613281,9.090468,5.087009,7.049723,0.580225
1007.617188,11.606837,8.358577,9.266961,14.139690
1007.621094,5.169066,8.905026,17.918901,11.697892
1007.625000,12.644474,12.357921,7.769136,9.472712
1007.628906,12.253343,6.139574,13.383825,13.154882
1007.632812,9.576184,9.024239,4.793947,7.611591
1007.636719,6.250590,7.584991,9.443562,11.437165
1007.640625,9.149501,10.994716,8.677619,13.795516
1007.644531,7.657570,2.385956,6.335631,5.205164
1007.648438,8.263660,8.309468,3.113505,3.756184
1007.652344,-6.771519,3.512584,3.886321,-7.831299
1007.656250,-2.683130,-3.693801,-1.083641,1.901976
1007.660156,-6.754293,-2.543743,-4.143841,-9.881670
1007.664062,-7.865524,-1.787384,-3.495968,-8.678222
1007.667969,-7.009035,-7.103007,-10.408305,-10.223511
1007.671875,-7.941034,-5.528461,-3.529713,-13.897033
1007.675781,-5.079400,-9.097892,-14.663565,-13.322898
1007.679688,-6.977704,-17.088852,-9.653048,-17.541568
1007.683594,-5.036012,-9.395966,-12.316048,-6.159057
1007.687500,-8.832226,-10.174843,-13.561426,0.890537
1007.691406,-3.957938,-7.455524,0.171007,-1.120440
1007.695312,-1.990739,6.042470,-7.394801,-1.150403
1007.699219,1.442410,3.080450,-12.233481,4.687163
1007.703125,1.794228,2.073592,1.872868,4.531962
1007.707031,-0.456193,2.975933,1.457844,6.140419
1007.710938,12.772920,4.268355,5.948165,0.558150
1007.714844,5.993709,13.125721,4.145696,8.109657
1007.718750,3.244956,4.318437,12.831484,13.444806
1007.722656,7.920331,17.527503,10.064930,15.989752
1007.726562,8.407377,12.685679,9.760374,17.766719
1007.730469,18.390874,7.584661,5.607500,9.535163
1007.734375,7.919588,9.853944,16.696678,3.785382
1007.738281,0.144658,6.996745,9.653275,8.350220
1007.742188,4.689790,3.046316,6.458395,5.065267
1007.746094,6.498981,6.915009,5.706317,3.776647
1007.750000,-1.275939,3.034029,-3.086400,-6.849962
1007.753906,-9.053746,-6.905095,-5.542560,-0.534479
1007.757812,-5.001976,-7.718522,-0.816333,-6.537226
1007.761719,-4.986835,-12.894717,-6.904822,-0.644899
1007.765625,-11.778020,-7.225640,-3.273434,-6.644105
1007.769531,-8.745151,-9.683925,-12.293266,-14.373951
1007.773438,-4.043389,-12.201501,-2.189756,-11.970349
1007.777344,1.903950,-0.014101,-10.845989,-9.318489
1007.781250,-10.021208,-11.444308,-13.376988,-8.135424
1007.785156,-4.644087,-13.994971,-13.599674,-8.865761
1007.789062,-7.657097,-6.348946,-6.388240,-6.347739
1007.792969,4.168861,-4.864184,-0.453225,-11.056939
1007.796875,5.211528,-1.549732,-5.465907,-5.553462
1007.800781,1.201536,-2.348161,3.491587,6.533191
1007.804688,9.825123,2.301037,2.092215,-3.720231
1007.808594,4.203633,6.814347,5.654739,1.831099
1007.812500,3.976218,5.483331,5.065808,10.706468
1007.816406,15.678081,7.496598,8.608544,1.967359
1007.820312,12.008115,4.493576,5.721894,10.631462
1007.824219,10.817142,9.120851,13.392928,13.010126
1007.828125,5.649930,6.249383,9.527523,13.797103
1007.832031,5.683876,11.462944,2.293939,12.306951
1007.835938,-1.493517,6.376326,4.567779,11.966290
1007.839844,7.762416,2.558515,0.412314,12.584628
1007.843750,4.865124,2.035860,-4.156480,4.336565
1007.847656,8.312784,-0.463993,2.083582,6.463935
1007.851562,-4.478058,1.996620,-0.549625,-2.803721
1007.855469,-2.495698,2.389347,-0.268951,-4.626616
1007.859375,-5.159398,-7.577753,-3.313288,-10.164951
1007.863281,-3.908629,-8.092125,-4.496978,-2.809161
1007.867188,-15.547114,-0.667145,-12.220031,-17.325355
1007.871094,-8.591357,-4.707130,-13.839811,-4.801537
1007.875000,-9.088655,-8.869235,-7.770514,-18.436081
1007.878906,-7.638649,-8.248159,-4.666478,-11.258406
1007.882812,-4.809840,-10.472185,-13.722295,-7.143650
1007.886719,-3.700409,-3.457450,-7.313275,-7.004504
1007.890625,-1.937065,0.107036,-9.074928,-10.194515
1007.894531,-2.681918,-4.703256,-0.883565,-3.996973
1007.898438,-10.750887,1.996981,2.081583,2.739487
1007.902344,-2.281048,-0.494991,-2.356710,-2.426675
1007.906250,1.268966,8.540844,4.458419,4.424412
1007.910156,7.532556,-1.771689,8.196753,-0.590904
1007.914062,-0.227250,5.621241,7.838694,10.460313
1007.917969,5.229617,11.973637,9.861559,12.398143
1007.921875,8.450227,3.725796,14.613022,9.578144
1007.925781,19.526919,11.253955,10.193742,15.142915
1007.929688,10.283769,13.339309,11.788559,9.689683
1007.933594,9.661583,6.771798,6.516671,7.590775
1007.937500,7.742966,14.036783,-3.127798,2.332394
1007.941406,-2.266820,-1.731695,2.284861,12.000271
1007.945312,3.251851,1.884910,5.147564,6.785874
1007.949219,-0.934470,-1.376265,5.057574,-4.912612
1007.953125,-5.401700,-3.512502,-5.550429,1.537247
1007.957031,-3.234255,-6.692109,-7.203604,-4.298497
1007.960938,-6.550315,-2.378005,-7.874954,-6.253045
1007.964844,-7.098379,-7.465139,-1.474216,-3.774085
1007.968750,-13.134817,-6.718037,-5.921132,-13.634753
1007.972656,-16.915229,-10.742135,-1.814440,-6.286230
1007.976562,-12.706955,-11.464287,-11.878316,-8.591160
1007.980469,-7.026758,-12.193079,-16.986795,-18.720888
1007.984375,-3.135844,-11.326811,-1.016867,-7.267598
1007.988281,-12.851450,-1.768827,-7.334700,-6.526691
1007.992188,-3.972267,-2.426375,-7.355460,-5.797186
1007.996094,-13.952599,-7.772946,-4.661469,-7.381893
1008.000000,0.300737,4.574678,3.284654,5.414831
1008.003906,1.113338,-4.316514,0.023727,-5.611729
1008.007812,4.240859,5.316209,5.706243,5.527536
1008.011719,7.809738,9.909946,3.140194,12.696808
1008.015625,5.066456,5.903839,11.280537,4.469365
1008.019531,0.019095,11.736112,8.091196,14.761893
1008.023438,6.261916,0.954655,12.795408,2.125541
1008.027344,10.804507,8.331764,11.771143,12.246419
1008.031250,9.487084,9.541318,12.363306,13.640014
1008.035156,8.550453,-4.105204,2.801817,7.287028
1008.039062,5.646309,11.581735,11.497126,6.064991
1008.042969,0.958239,5.819312,4.135830,4.907445
1008.046875,7.979742,6.969504,-2.070579,2.807074
1008.050781,0.249441,-5.313513,3.487020,3.054022
1008.054688,-4.007436,-3.519820,-3.993691,-1.114286
1008.058594,1.363197,-0.194135,0.869244,-0.194971
1008.062500,-6.871480,-6.415826,-8.256512,-8.444727
1008.066406,-5.558771,-6.582247,-8.150445,-3.493885
1008.070312,-6.362569,-12.920873,-8.849166,-2.794875
1008.074219,-11.899999,-4.337465,-9.936064,-5.454348
1008.078125,-11.424116,-11.280473,-5.465010,-7.211700
1008.082031,-6.502051,-10.057435,-8.260593,-13.952491
1008.085938,1.410424,-11.225812,-3.250067,-3.557319
1008.089844,-6.653061,-15.350919,-7.389723,-9.142429
1008.093750,-2.790913,-4.937034,-3.079140,-7.831627
1008.097656,-6.116247,0.898736,-5.803441,-4.155723
1008.101562,-0.403308,-2.508673,2.644400,2.549891
1008.105469,0.073920,8.626058,-4.527974,5.221654
1008.109375,7.706448,2.862924,4.987297,2.045759
1008.113281,8.888438,6.455491,8.723012,4.673612
1008.117188,15.684944,4.476250,10.081627,1.003421
1008.121094,7.432731,9.192878,12.685791,10.447655
1008.125000,4.098347,4.770357,13.060080,15.632397
1008.128906,9.738213,5.769078,12.350811,7.658941
1008.132812,-2.039031,12.032528,13.268943,6.268024
1008.136719,5.104458,11.437702,4.628051,-2.864653
1008.140625,2.739809,0.369321,-0.233494,7.365475
1008.144531,-5.288742,10.186372,-5.071723,-6.177889
1008.148438,-2.766760,0.085570,11.109193,2.481988
1008.152344,-4.264468,-7.804597,-8.597804,-3.455678
1008.156250,-4.901567,-4.000072,1.501556,-4.222975
1008.160156,-13.389740,-6.484163,-10.201229,-8.790277
1008.164062,-10.021451,-5.949986,-7.982079,-3.422027
1008.167969,-15.362221,-9.141266,-12.785774,-7.288154
1008.171875,-11.631178,-15.861817,-14.543316,-13.859270
1008.175781,-7.976114,-10.678098,-4.574172,-14.166888
1008.179688,-10.056976,-2.824358,-12.784908,-6.898747
1008.183594,-8.430113,-4.386465,-0.857366,-2.882865
1008.187500,-10.473531,-6.018604,-1.548751,-5.520804
1008.191406,-8.757718,-8.236888,-3.146394,-3.594845
1008.195312,-9.059398,-3.509438,-3.194789,-7.651045
1008.199219,-0.106365,-1.635153,0.177148,-4.736940
1008.203125,1.017262,-0.392951,-5.771778,2.762802
1008.207031,9.860452,-2.017323,7.131779,7.671111
1008.210938,14.738513,7.951811,9.859502,11.819949
1008.214844,5.409535,12.434009,3.737514,2.477778
1008.218750,2.618674,13.722088,11.318861,12.585038
1008.222656,16.437927,8.920613,8.153715,12.654108
1008.226562,6.335027,8.983545,4.598191,11.938970
1008.230469,6.760490,8.143491,5.746154,8.850630
1008.234375,8.305870,2.354043,8.303615,0.846215
1008.238281,6.685018,6.283992,13.109400,-3.345852
1008.242188,3.881503,3.742846,3.092029,5.962335
1008.246094,0.752789,3.414393,-0.120251,-7.104083
1008.250000,-4.874168,2.635159,3.541270,-6.894439
1008.253906,-1.068494,-9.707224,-0.479850,3.029544
1008.257812,0.702749,-0.565162,3.573742,4.754295
1008.261719,-7.158841,-0.244537,-11.700312,-8.034003
1008.265625,-3.197420,-18.159971,-1.668914,-9.575994
1008.269531,-4.588455,-11.185308,-20.980472,-13.069100
1008.273438,-9.343318,-9.030819,-4.264415,-10.868824
1008.277344,-8.347808,-9.360584,-11.531474,0.610885
1008.281250,-0.901508,-2.402108,-8.730925,-12.705820
1008.285156,-11.004069,-11.740460,-6.546228,-1.559296
1008.289062,-9.075619,-9.928335,0.711861,-11.811074
1008.292969,-6.793695,-4.095229,-10.383552,-0.927698
1008.296875,0.578175,-8.872272,-1.654353,-6.604621
1008.300781,-1.588355,-3.406831,-7.888091,4.550682
1008.304688,-0.750900,2.899646,0.839918,5.620349
1008.308594,1.761711,7.797101,7.989647,0.670570
1008.312500,8.595194,11.833311,7.113065,3.316899
1008.316406,11.134008,8.847308,12.674642,2.913163
1008.320312,13.567669,4.856847,10.051594,0.847583
1008.324219,6.681314,6.226182,4.329915,12.441244
1008.328125,12.703625,3.825902,7.851181,9.294465
1008.332031,10.269061,19.072166,6.988395,7.771165
1008.335938,7.115488,9.919502,6.207122,7.696381
1008.339844,4.278976,-2.303440,14.565816,-0.481479
1008.343750,2.094789,7.022569,6.961203,5.398165
1008.347656,5.909391,1.994707,-3.104245,0.544302
1008.351562,-0.260526,1.847854,1.173904,-0.914620
1008.355469,-3.747417,3.612463,-10.059090,3.142212
1008.359375,-6.718237,-3.015541,-11.031239,-5.487545
1008.363281,-12.830059,-4.690326,-3.457751,-6.006014
1008.367188,-7.238938,-8.596282,-9.275962,-13.127478
1008.371094,-2.415207,-8.447053,-13.301051,-6.519143
1008.375000,-14.331289,-5.378225,-19.917617,-7.519494
1008.378906,-7.826968,-14.262005,-13.314313,-10.661467
1008.382812,-1.212082,-11.983578,-16.235364,-8.716803
1008.386719,-9.334499,-9.737252,-13.025382,-4.048218
1008.390625,-8.996198,-1.466430,1.990350,-6.314194
1008.394531,-2.858816,-4.540273,2.081399,-4.355075
1008.398438,9.050699,-7.236861,-5.469423,6.281175
1008.402344,5.179830,-1.742201,1.547114,-2.744692
1008.406250,1.224488,-1.613376,3.117892,11.585053
1008.410156,3.262510,6.077621,12.788795,1.420581
1008.414062,6.196413,1.245827,7.710571,5.653288
1008.417969,6.203066,8.120435,12.526039,8.767545
1008.421875,13.046987,11.485525,3.855494,13.368106
1008.425781,7.851416,15.236454,15.132220,16.410970
1008.429688,15.222819,11.074280,5.435311,6.668196
1008.433594,12.252331,7.613406,5.194685,8.874837
1008.437500,8.136193,4.019738,9.532693,8.800520
1008.441406,2.199485,3.702014,1.238142,3.408249
1008.445312,-5.984380,-5.581081,2.468812,3.419009
1008.449219,-1.546448,6.052725,0.257968,0.680051
1008.453125,-4.395272,-10.372668,-2.000018,-1.266076
1008.457031,-1.318191,-1.674396,-3.495611,-7.046333
1008.460938,-15.528662,-8.195021,-10.725931,-4.691457
1008.464844,-7.153383,-9.014507,-10.286866,-9.944978
1008.468750,-3.137098,-14.682818,-10.799325,-15.270561
1008.472656,-4.204277,-16.385749,-11.801280,-9.084969
1008.476562,-16.578379,-9.255900,-15.109811,-10.205242
1008.480469,-14.101748,-7.389826,-6.319388,-7.656866
1008.484375,-0.778861,-12.399743,-5.060449,-13.811743
1008.488281,-10.994506,-5.115879,-10.920413,-9.262266
1008.492188,-2.178493,-4.832770,-7.138617,-0.932835
1008.496094,-4.458702,-2.705923,-7.586282,-7.551289
1008.500000,3.232424,-3.066247,0.630155,-2.817687
1008.503906,3.648692,2.082023,7.252709,4.536327
1008.507812,4.792518,8.259620,3.120007,3.680949
1008.511719,7.427918,6.801810,3.266916,3.467317
1008.515625,7.000932,13.389463,1.783971,4.603893
1008.519531,6.798971,14.460689,-1.375872,14.247209
1008.523438,15.849518,9.637323,3.187365,6.857628
1008.527344,14.532364,16.467744,8.843715,8.514170
1008.531250,-0.041160,6.230327,6.442780,12.747560
1008.535156,8.739344,10.984270,5.841204,4.921238
1008.539062,6.717777,5.551360,10.323804,5.851689
1008.542969,-1.107201,5.137353,3.503559,10.532269
1008.546875,-6.058604,4.423089,6.298978,-2.501759
1008.550781,-11.042875,-4.394111,-2.649577,2.077309
1008.554688,-6.679763,-2.053277,-2.272181,0.363490
1008.558594,-0.837678,-2.158590,-5.867860,-7.390547
1008.562500,-4.912322,-2.742577,-1.796624,-13.792457
1008.566406,-13.977374,-3.808162,-15.872341,-7.771813
1008.570312,-9.953986,-6.522794,-11.992313,-7.380454
1008.574219,-12.866405,-10.266382,-15.499342,-6.913257
1008.578125,-5.424319,-13.161929,-13.208062,-8.157236
1008.582031,-3.933008,-13.072326,-5.882216,-7.527594
1008.585938,-5.120225,-14.139027,-14.371717,-9.978934
1008.589844,-10.726637,-5.343094,0.081399,-5.994719
1008.593750,-3.107080,-1.281220,-0.650844,-9.056228
1008.597656,4.694407,-8.445674,2.989891,3.502176
1008.601562,6.094598,5.010808,-0.343727,10.862058
1008.605469,9.995940,5.116019,-1.045487,9.205871
1008.609375,7.862410,-3.563089,6.158410,4.119182
1008.613281,8.011651,17.141910,13.032494,4.266229
1008.617188,12.966542,10.692812,6.991654,3.214664
1008.621094,15.007892,16.199577,5.714569,5.406661
1008.625000,16.785917,16.472895,14.122631,4.973054
1008.628906,6.500756,7.342204,-0.527046,4.590311
1008.632812,6.518680,15.106531,8.039049,3.467687
1008.636719,5.137885,10.858889,4.087305,6.751493
1008.640625,0.595959,8.347648,4.166862,2.785310
1008.644531,8.214300,4.027377,0.946615,-0.023817
1008.648438,7.881868,4.956169,5.358347,0.088176
1008.652344,-1.627543,4.518136,2.165515,-0.705379
1008.656250,-4.925424,-3.566178,-8.734788,-1.337663
1008.660156,-9.395779,-10.026235,-0.557292,-7.374047
1008.664062,-4.608906,-7.854217,-3.401230,-7.196335
1008.667969,-3.111024,-13.011334,-5.984042,-7.741972
1008.671875,-9.527422,-14.524613,-14.168044,-5.797045
1008.675781,-12.240018,-0.095956,-7.225560,-18.497296
1008.679688,-4.772526,-7.873483,-17.024001,-5.621244
1008.683594,-6.569908,-11.592906,-9.024988,-6.483824
1008.687500,-12.634278,-4.576711,-5.699077,1.101022
1008.691406,-4.416550,-9.145245,-6.034312,-3.256341
1008.695312,1.945792,-2.216077,-10.742921,-0.309796
1008.699219,-2.560252,-5.486310,-2.921480,0.000565
1008.703125,5.059203,-0.684279,2.114064,12.122241
1008.707031,8.021441,11.287214,1.089730,-0.930081
1008.710938,0.493972,3.819871,3.523843,7.040330
1008.714844,12.523344,7.541162,7.461752,11.680878
1008.718750,14.044309,11.491031,6.550273,14.865380
1008.722656,9.924232,13.504542,14.130676,13.234222
1008.726562,18.098692,13.094689,3.094610,6.986113
1008.730469,7.331713,6.454578,1.707573,13.023763
1008.734375,6.223192,8.109713,9.600591,6.593394
1008.738281,4.126020,3.883151,7.966411,9.388628
1008.742188,3.485492,1.375764,6.556104,9.955764
1008.746094,0.436441,-1.590649,-3.960545,3.778162
1008.750000,6.125225,-2.446741,-4.057705,3.501928
1008.753906,0.405874,-6.946737,-2.963778,2.063156
1008.757812,-10.505776,-6.943776,-3.291523,2.027783
1008.761719,-6.926338,-5.341844,-7.508289,-12.479366
1008.765625,-5.125917,-8.681058,-9.257577,-11.574556
1008.769531,-6.460156,-8.558607,-6.961830,-7.411737
1008.773438,-4.006224,-16.911875,-2.063922,-0.727297
1008.777344,-10.787657,-6.073804,-8.617291,-9.526357
1008.781250,-6.826881,-7.114522,-8.915331,-11.566003
1008.785156,-10.617573,-7.905846,-2.651809,-10.449374
1008.789062,-6.763364,-1.958683,-2.485701,-3.432209
1008.792969,0.964499,2.190752,-11.514734,2.562001
1008.796875,1.599900,-7.011982,-1.270004,-12.097766
1008.800781,2.450579,4.267623,-4.929095,5.421929
1008.804688,5.970245,8.057571,5.622788,1.485867
1008.808594,6.633076,9.287827,-1.333211,4.441728
1008.812500,10.123924,5.133575,5.214725,5.140616
1008.816406,9.718980,10.153108,14.326838,9.693491
1008.820312,19.183818,6.598540,8.021274,12.776731
1008.824219,13.138063,12.398823,16.140441,11.362483
1008.828125,8.645880,2.628378,8.793230,7.155280
1008.832031,10.975392,0.070864,8.841852,-0.530803
1008.835938,11.110342,6.240022,7.600163,-2.362237
1008.839844,6.130257,0.239935,-0.993062,2.584316
1008.843750,6.024422,-0.552248,2.190355,1.612539
1008.847656,10.052399,-4.601219,1.765333,-2.510442
1008.851562,-5.080640,-0.694097,-2.996122,-5.194847
1008.855469,1.706829,-2.350398,-13.302718,-5.359932
1008.859375,-7.628929,-2.689240,-0.446274,-8.056667
1008.863281,-4.794444,-11.598392,-12.395826,-6.194322
1008.867188,-8.666870,-9.362208,-12.340531,-7.110367
1008.871094,-9.538303,-1.616086,-7.974044,-4.654337
1008.875000,-10.615032,-14.282893,-2.831007,-11.066623
1008.878906,-6.039867,-5.823589,-13.003169,-5.770037
1008.882812,-11.289748,-7.921590,-11.180622,-11.635569
1008.886719,-0.217038,-6.786208,-2.258337,-4.674595
1008.890625,-9.445179,-5.068495,-3.397098,-7.684206
1008.894531,2.913290,-0.588976,3.417308,-6.978550
1008.898438,1.357235,-4.519924,-0.461621,2.644250
1008.902344,-1.993059,5.839417,6.094286,-0.169555
1008.906250,0.028119,4.568638,3.567285,2.112377
1008.910156,7.731336,6.294229,9.889200,3.886510
1008.914062,7.762283,0.299059,10.193619,4.609345
1008.917969,9.492467,7.911597,8.913627,15.955938
1008.921875,4.291057,6.681623,8.194721,5.526277
1008.925781,5.537311,-6.063759,13.234238,7.791927
1008.929688,11.587668,12.075280,14.140454,7.081458
1008.933594,11.961764,4.402640,16.043767,8.986339
1008.937500,14.362376,6.556774,3.608665,9.096078
1008.941406,6.757736,-2.761150,5.237333,11.723552
1008.945312,5.198704,3.263111,1.522062,3.751240
1008.949219,4.644641,7.535546,1.564351,-9.785101
1008.953125,1.363260,-2.800217,-10.868127,-3.164142
1008.957031,-5.147059,0.507916,-3.675081,-1.610492
1008.960938,-13.967992,-5.519192,-5.658258,-2.819477
1008.964844,-12.228065,-4.468465,-3.495605,-3.630414
1008.968750,-15.718808,-8.861718,-7.251628,-1.749695
1008.972656,-6.390762,-10.917989,-11.080269,-6.188193
1008.976562,-10.322078,-9.212203,-17.233825,-11.855825
1008.980469,-8.547218,-14.060497,-9.161040,-8.547626
1008.984375,-7.277611,-8.828353,-7.467829,-11.107549
1008.988281,-1.012992,-3.330765,0.965427,-4.493060
1008.992188,-9.016963,-10.126841,-1.055849,-6.803319
1008.996094,0.317467,-7.295763,0.813477,-1.610975
1009.000000,-2.807911,0.231523,-5.368159,-1.999570
1009.003906,2.537577,0.145446,4.472837,-1.877365
1009.007812,6.926714,8.934571,12.722206,0.435252
1009.011719,5.540366,0.734396,5.068494,7.212178
1009.015625,11.932756,5.834606,11.637355,10.567377
1009.019531,6.786845,11.411721,9.023815,17.578489
1009.023438,7.088392,7.967122,8.310445,15.013308
1009.027344,7.972372,7.891848,19.936884,11.217080
1009.031250,12.155619,12.619583,10.706771,10.326217
1009.035156,6.097594,9.294477,12.365832,4.516403
1009.039062,5.596297,11.329307,-2.099211,4.973524
1009.042969,1.198880,-1.556511,9.063761,-5.507274
1009.046875,5.193121,0.467368,9.422048,6.088104
1009.050781,1.804501,-0.618685,-2.425215,3.497527
1009.054688,-5.623949,-0.626812,-4.838268,6.676572
1009.058594,-6.443180,-10.420462,-2.634385,-5.242450
1009.062500,-9.169977,-12.023597,-8.596521,-8.400760
1009.066406,-14.760946,-8.023322,-15.800967,-11.190548
1009.070312,-11.768811,-12.327392,-14.220537,-6.822632
1009.074219,-9.278055,-10.170999,-3.947103,-4.263803
1009.078125,-12.120908,-9.274974,-11.618750,-8.174424
1009.082031,-15.307291,-5.805731,-12.947953,-10.868990
1009.085938,-10.665811,-6.521607,-13.363239,-5.888619
1009.089844,-2.630977,-2.718345,-3.983203,-8.429717
1009.093750,-5.162135,-5.954189,-0.304309,2.211425
1009.097656,-3.739522,-0.955739,-5.533209,-6.873464
1009.101562,-4.763854,5.770480,-2.199493,-1.465314
1009.105469,5.023458,1.255073,-1.171018,5.510910
1009.109375,8.611513,4.256322,-2.206225,5.706114
1009.113281,10.345402,13.340978,10.954726,0.905224
1009.117188,11.259680,13.118773,10.688976,8.172901
1009.121094,11.983148,5.760208,12.013914,8.814260
1009.125000,11.722102,8.393476,15.835482,19.151360
1009.128906,11.880437,3.386678,8.693028,8.691363
1009.132812,9.328344,7.921404,15.239471,18.476399
1009.136719,7.575238,4.264741,6.394333,5.043635
1009.140625,-2.614787,9.496026,14.358494,11.940621
1009.144531,0.650633,-0.251984,1.555122,0.382708
1009.148438,-9.645472,-0.105485,11.716089,-1.179040
1009.152344,-6.298702,2.666939,-3.378322,-2.869033
1009.156250,-1.686005,-7.768354,-4.388857,-7.398623
1009.160156,-11.989673,-1.943616,-6.694086,-2.968697
1009.164062,-8.466879,-13.514392,-8.283751,-6.694192
1009.167969,-11.522210,-9.427432,-10.054401,-6.211413
1009.171875,-10.148136,-2.762142,-6.646575,-9.646392
1009.175781,-11.410791,-9.540492,-11.549895,-11.467478
1009.179688,-6.731148,-9.610325,-6.851162,-7.734398
1009.183594,-14.121838,-8.652155,-8.899631,-18.370689
